timestamps,TP9,AF7,AF8,TP10,Right AUX
1737557721.038,-34.180,-23.438,-8.301,-9.766,0.000
1737557721.042,-32.715,-21.973,-16.602,-41.016,0.000
1737557721.046,-37.109,-20.020,-30.273,-33.691,0.000
1737557721.050,-38.086,-19.531,-26.367,-28.320,0.000
1737557721.054,-21.484,-16.602,-7.812,-32.715,0.000
1737557721.058,-22.949,-7.812,-1.953,-56.641,0.000
1737557721.062,-55.176,-13.184,-13.672,-66.406,0.000
1737557721.065,-59.570,-27.344,-18.555,-30.762,0.000
1737557721.069,-6.836,-24.902,-21.484,0.000,0.000
1737557721.073,31.738,-19.043,-25.879,-4.883,0.000
1737557721.077,7.324,-24.902,-24.414,-15.625,0.000
1737557721.081,-33.203,-22.461,-25.879,-11.719,0.000
1737557721.085,-33.203,-20.508,-14.648,0.000,0.000
1737557721.089,-20.020,-12.695,-14.160,0.000,0.000
1737557721.093,-15.137,-7.324,-21.484,0.000,0.000
1737557721.097,-7.324,-8.301,-26.855,0.000,0.000
1737557721.101,-43.457,-8.789,-32.715,0.000,0.000
1737557721.104,-35.645,-4.883,-7.324,0.000,0.000
1737557721.108,26.855,0.977,9.277,0.000,0.000
1737557721.112,37.598,-7.324,6.836,0.000,0.000
1737557721.116,-4.883,-15.137,4.395,0.000,0.000
1737557721.120,-39.551,-13.184,4.883,0.000,0.000
1737557721.124,-36.621,-10.742,-11.230,0.000,0.000
1737557721.128,-15.625,-7.812,-26.367,0.000,0.000
1737557721.132,15.137,-3.418,-12.207,-41.992,0.000
1737557721.136,-1.465,-5.859,3.906,-20.996,0.000
1737557721.140,-20.508,-7.812,11.719,5.371,0.000
1737557721.144,-9.277,-15.625,9.277,11.719,0.000
1737557721.147,-4.883,-24.414,6.348,16.602,0.000
1737557721.151,14.648,-14.160,8.301,35.645,0.000
1737557721.155,13.672,-17.090,-8.301,29.785,0.000
1737557721.159,-11.719,-20.020,-19.043,-17.090,0.000
1737557721.163,-31.738,-14.160,-7.812,-46.387,0.000
1737557721.167,-36.133,-17.090,-5.371,-3.906,0.000
1737557721.171,8.301,-13.672,-4.395,10.742,0.000
1737557721.175,31.250,-12.695,-7.812,-34.180,0.000
1737557721.179,-19.043,-26.367,-26.855,-40.039,0.000
1737557721.183,-62.500,-34.180,-21.973,-6.836,0.000
1737557721.187,-18.066,-31.250,-3.906,-6.836,0.000
1737557721.190,21.973,-23.926,-2.930,-13.672,0.000
1737557721.194,14.160,-13.672,-5.859,-8.301,0.000
1737557721.198,0.977,-10.254,-8.789,-8.789,0.000
1737557721.202,-22.949,-12.207,-8.789,-2.930,0.000
1737557721.206,-23.926,-7.324,-1.953,7.324,0.000
1737557721.210,-16.602,-5.859,0.000,-1.953,0.000
1737557721.214,-4.883,-12.695,-4.883,6.836,0.000
1737557721.218,-5.371,-24.414,-11.230,-11.719,0.000
1737557721.222,-41.504,-33.691,-11.719,-7.324,0.000
1737557721.226,0.000,-23.926,0.000,0.000,0.000
1737557721.230,0.000,-12.695,0.000,0.000,0.000
1737557721.233,0.000,-6.348,0.000,0.000,0.000
1737557721.237,0.000,-1.465,0.000,0.000,0.000
1737557721.241,0.000,-5.859,0.000,0.000,0.000
1737557721.245,0.000,-15.625,0.000,0.000,0.000
1737557721.249,0.000,-19.043,0.000,0.000,0.000
1737557721.253,0.000,-20.996,0.000,0.000,0.000
1737557721.257,0.000,-21.973,0.000,0.000,0.000
1737557721.261,0.000,-27.832,0.000,0.000,0.000
1737557721.265,0.000,-26.367,0.000,0.000,0.000
1737557721.268,0.000,-26.855,0.000,0.000,0.000
1737557721.273,-14.160,-33.203,-31.738,-5.859,0.000
1737557721.276,-15.137,-16.602,-36.621,-22.461,0.000
1737557721.280,-30.762,-13.672,-13.672,-30.762,0.000
1737557721.284,-7.324,-24.414,4.883,8.301,0.000
1737557721.288,0.488,-23.438,-1.465,21.973,0.000
1737557721.292,10.254,-15.137,-11.719,5.859,0.000
1737557721.296,-5.859,-25.879,-4.395,-20.508,0.000
1737557721.300,-47.363,-37.109,17.578,-29.297,0.000
1737557721.304,-71.777,-45.898,26.855,-27.832,0.000
1737557721.308,-70.801,-61.035,8.301,-20.020,0.000
1737557721.312,-47.363,-67.871,0.977,-41.504,0.000
1737557721.315,-25.879,-71.289,10.742,-49.805,0.000
1737557721.319,-66.406,-83.984,11.230,-19.043,0.000
1737557721.323,-87.402,-95.703,7.324,-19.531,0.000
1737557721.327,-35.156,-86.914,7.324,17.090,0.000
1737557721.331,11.719,-79.102,7.812,-20.508,0.000
1737557721.335,-16.602,-89.355,17.578,-34.668,0.000
1737557721.339,-72.266,-92.285,36.621,25.391,0.000
1737557721.343,-58.105,-82.520,37.598,-8.789,0.000
1737557721.347,-43.945,-78.613,18.555,-16.113,0.000
1737557721.351,-25.391,-78.125,9.766,28.809,0.000
1737557721.355,-3.418,-77.148,12.695,26.855,0.000
1737557721.358,-24.414,-66.895,-10.254,-8.789,0.000
1737557721.362,-38.086,-58.105,-25.879,-17.090,0.000
1737557721.366,0.000,-66.406,-8.789,-15.625,0.000
1737557721.370,0.000,-66.406,3.906,-25.879,0.000
1737557721.374,0.000,-65.430,-2.930,-23.926,0.000
1737557721.378,0.000,-70.312,-8.301,-37.109,0.000
1737557721.382,0.000,-69.824,-9.766,-27.832,0.000
1737557721.386,0.000,-65.918,-8.301,16.602,0.000
1737557721.390,0.000,-65.430,-16.602,8.789,0.000
1737557721.394,0.000,-61.035,-27.832,-8.301,0.000
1737557721.397,0.000,-46.387,-41.016,-9.277,0.000
1737557721.401,0.000,-40.039,-42.480,-39.551,0.000
1737557721.405,0.000,-40.527,-10.742,-33.691,0.000
1737557721.409,0.000,-42.480,-8.301,-8.301,0.000
1737557721.413,-14.648,-51.270,-24.414,-2.930,0.000
1737557721.417,-33.691,-50.781,-20.996,-11.719,0.000
1737557721.421,-52.246,-40.039,-23.926,-35.156,0.000
1737557721.425,-63.965,-41.504,-28.809,-23.438,0.000
1737557721.429,-19.531,-42.480,-18.555,16.113,0.000
1737557721.433,39.062,-31.250,-6.836,-17.578,0.000
1737557721.437,-1.465,-31.250,-8.789,-76.172,0.000
1737557721.440,-43.457,-41.992,-8.301,-6.348,0.000
1737557721.444,-10.254,-28.320,-0.977,41.504,0.000
1737557721.448,-10.742,-18.555,2.441,5.859,0.000
1737557721.452,-12.207,-26.855,-9.766,-13.672,0.000
1737557721.456,-7.324,-25.391,-23.438,-0.488,0.000
1737557721.460,-29.297,-27.344,-23.926,5.371,0.000
1737557721.464,-39.551,-28.809,-20.996,-15.137,0.000
1737557721.468,0.000,-22.949,-14.648,-16.602,0.000
1737557721.472,30.273,-24.414,-17.578,1.953,0.000
1737557721.476,-3.418,-29.785,-23.438,-29.297,0.000
1737557721.480,-56.641,-23.926,-18.066,-49.805,0.000
1737557721.483,-42.480,-22.949,-13.672,-25.879,0.000
1737557721.487,-16.602,-27.832,-12.207,-20.996,0.000
1737557721.491,-12.207,-23.438,-9.766,-27.832,0.000
1737557721.495,-2.930,-25.879,-11.230,-35.645,0.000
1737557721.499,-1.465,-24.414,-11.230,-26.367,0.000
1737557721.503,-21.973,-13.672,-13.184,-37.598,0.000
1737557721.507,-17.578,-11.719,-3.906,-14.160,0.000
1737557721.511,14.648,-9.766,-3.906,20.508,0.000
1737557721.515,16.113,-18.066,-20.508,-9.766,0.000
1737557721.519,-22.949,-21.973,-15.137,-10.742,0.000
1737557721.523,-70.801,-13.184,-18.555,-8.301,0.000
1737557721.526,-40.527,-12.207,-17.090,-18.066,0.000
1737557721.530,-10.742,-18.555,-11.719,-16.602,0.000
1737557721.534,-8.301,-31.250,-16.602,-35.645,0.000
1737557721.538,-30.273,-41.504,-14.160,-52.246,0.000
1737557721.542,-62.012,-31.738,-8.301,3.418,0.000
1737557721.546,-41.016,-10.742,-9.277,2.441,0.000
1737557721.550,-21.973,-7.812,-7.812,-37.109,0.000
1737557721.554,0.000,-11.719,-0.977,0.000,0.000
1737557721.558,0.000,-16.602,-10.742,0.000,0.000
1737557721.562,0.000,-19.043,-20.020,0.000,0.000
1737557721.566,0.000,-23.926,-16.113,0.000,0.000
1737557721.569,0.000,-24.902,-19.043,0.000,0.000
1737557721.573,0.000,-17.578,-17.090,0.000,0.000
1737557721.577,0.000,-16.602,-15.137,0.000,0.000
1737557721.581,0.000,-21.484,-21.973,0.000,0.000
1737557721.585,0.000,-31.738,-21.973,0.000,0.000
1737557721.589,0.000,-29.785,-19.043,0.000,0.000
1737557721.593,0.000,-26.855,-24.414,0.000,0.000
1737557721.597,0.000,-36.621,-29.785,0.000,0.000
1737557721.601,-47.363,-36.133,-32.227,-44.922,0.000
1737557721.605,-61.035,-31.738,-26.367,-45.410,0.000
1737557721.609,-44.922,-28.320,-19.531,-50.781,0.000
1737557721.612,-8.301,-25.879,-17.578,-22.461,0.000
1737557721.616,-0.488,-24.902,-13.184,-9.277,0.000
1737557721.620,-33.691,-17.578,-17.578,-19.043,0.000
1737557721.624,-45.410,-16.602,-27.344,-1.465,0.000
1737557721.628,-29.297,-23.438,-29.297,-13.672,0.000
1737557721.632,2.930,-20.020,-32.227,-22.461,0.000
1737557721.636,7.324,-16.113,-34.180,-44.434,0.000
1737557721.640,-26.367,-20.996,-26.855,-59.570,0.000
1737557721.644,-33.691,-16.113,-18.555,-20.020,0.000
1737557721.648,-38.574,-24.414,-20.508,-7.324,0.000
1737557721.652,-29.785,-38.086,-19.531,-5.371,0.000
1737557721.655,-6.348,-22.949,-14.648,-19.043,0.000
1737557721.659,-25.391,-15.137,-17.090,-48.828,0.000
1737557721.663,-34.668,-18.066,-18.555,-26.367,0.000
1737557721.667,-6.348,-12.695,-20.996,-1.465,0.000
1737557721.671,5.859,-10.742,-11.230,-15.137,0.000
1737557721.675,6.836,-11.719,-7.324,-16.602,0.000
1737557721.679,-21.973,-18.066,-9.766,-25.879,0.000
1737557721.683,-80.566,-21.484,-5.859,-37.109,0.000
1737557721.687,-48.828,-10.742,-20.996,-19.043,0.000
1737557721.691,19.043,-1.953,-27.344,-6.836,0.000
1737557721.695,12.695,-14.160,-24.902,-43.457,0.000
1737557721.698,-34.180,-19.531,-22.461,-66.895,0.000
1737557721.702,-47.363,-12.207,-15.137,-12.695,0.000
1737557721.706,-31.738,-12.207,-9.766,-6.836,0.000
1737557721.710,-13.184,-18.555,-8.301,-21.973,0.000
1737557721.714,-1.953,-16.113,-14.160,-8.301,0.000
1737557721.718,-12.207,-10.254,-27.832,-20.508,0.000
1737557721.722,-37.598,-16.113,-42.969,-27.832,0.000
1737557721.726,-35.156,-20.996,-30.273,-0.488,0.000
1737557721.730,-1.953,-25.879,-11.719,-13.184,0.000
1737557721.733,4.395,-21.484,-6.836,-48.828,0.000
1737557721.737,-27.832,-22.461,-10.742,-56.641,0.000
1737557721.741,-51.758,-31.250,-23.926,0.000,0.000
1737557721.745,-52.246,-23.438,-18.066,0.000,0.000
1737557721.749,-21.484,-16.602,-18.555,0.000,0.000
1737557721.753,18.066,-14.648,-29.297,0.000,0.000
1737557721.757,-1.465,-23.438,-22.461,0.000,0.000
1737557721.761,-42.480,-20.996,-16.113,0.000,0.000
1737557721.765,-55.176,-14.160,-14.648,0.000,0.000
1737557721.769,-45.898,-23.438,-25.391,0.000,0.000
1737557721.773,-3.906,-28.809,-34.180,0.000,0.000
1737557721.776,0.977,-37.109,-20.020,0.000,0.000
1737557721.780,-27.344,-38.086,-10.254,0.000,0.000
1737557721.784,-46.387,-26.855,-21.973,0.000,0.000
1737557721.788,0.000,-19.043,0.000,-53.711,0.000
1737557721.792,0.000,-17.578,0.000,-33.691,0.000
1737557721.796,0.000,-21.973,0.000,-38.086,0.000
1737557721.800,0.000,-24.902,0.000,-66.406,0.000
1737557721.804,0.000,-26.855,0.000,-40.039,0.000
1737557721.808,0.000,-29.785,0.000,12.207,0.000
1737557721.812,0.000,-29.297,0.000,6.836,0.000
1737557721.816,0.000,-30.762,0.000,-42.969,0.000
1737557721.819,0.000,-33.203,0.000,-34.668,0.000
1737557721.823,0.000,-24.902,0.000,-1.465,0.000
1737557721.827,0.000,-14.648,0.000,-36.621,0.000
1737557721.831,0.000,-9.277,0.000,-42.969,0.000
1737557721.835,-33.203,-6.836,-26.367,6.348,0.000
1737557721.839,-4.883,-15.625,-14.160,15.137,0.000
1737557721.843,-3.418,-17.090,-23.926,-3.418,0.000
1737557721.847,-26.855,-12.695,-27.832,-17.090,0.000
1737557721.850,-40.527,-7.812,-21.484,12.207,0.000
1737557721.854,-13.184,2.441,-20.020,30.273,0.000
1737557721.858,4.395,3.418,-19.043,-34.180,0.000
1737557721.862,2.441,-8.301,-10.254,-43.945,0.000
1737557721.866,-35.645,-14.160,-3.906,2.930,0.000
1737557721.870,-58.594,-6.836,-12.207,1.465,0.000
1737557721.874,-18.066,1.953,-18.066,1.953,0.000
1737557721.878,14.648,4.883,-15.137,-20.020,0.000
1737557721.882,-29.297,6.348,-0.488,-2.441,0.000
1737557721.886,-22.949,-2.930,-2.441,25.879,0.000
1737557721.890,-15.625,-19.043,-7.812,2.930,0.000
1737557721.893,11.230,-16.602,-27.832,-9.277,0.000
1737557721.897,-0.977,-15.625,-44.922,-23.438,0.000
1737557721.901,-39.062,-16.113,-33.203,-25.879,0.000
1737557721.905,-17.090,-20.020,-20.996,-33.691,0.000
1737557721.909,-9.277,-21.973,-25.879,-34.180,0.000
1737557721.913,-9.766,-16.602,-31.250,-8.789,0.000
1737557721.917,0.977,-17.090,-41.992,-9.766,0.000
1737557721.921,-46.387,-17.578,-49.316,-36.621,0.000
1737557721.925,-24.414,-17.578,-33.691,-19.531,0.000
1737557721.929,0.000,-18.066,-18.066,-0.488,0.000
1737557721.933,0.000,-12.207,-11.719,-15.137,0.000
1737557721.936,0.000,-7.324,-7.324,-37.109,0.000
1737557721.940,0.000,-11.719,-19.043,-6.836,0.000
1737557721.944,0.000,-12.695,-28.320,11.719,0.000
1737557721.948,0.000,-13.184,-34.668,-39.062,0.000
1737557721.952,0.000,-21.484,-42.969,-8.789,0.000
1737557721.956,0.000,-32.715,-30.762,-2.441,0.000
1737557721.960,0.000,-37.109,-10.742,-37.109,0.000
1737557721.964,0.000,-30.273,-4.883,-23.438,0.000
1737557721.968,0.000,-29.297,-18.555,-11.719,0.000
1737557721.971,0.000,-27.344,-36.621,-15.625,0.000
1737557721.976,8.789,-26.855,-33.691,-21.973,0.000
1737557721.979,-57.129,-23.438,-18.555,-16.113,0.000
1737557721.983,-65.430,-18.555,-19.043,-20.996,0.000
1737557721.987,-30.762,-21.484,-23.438,-55.176,0.000
1737557721.991,-4.395,-21.484,-27.832,-32.227,0.000
1737557721.995,7.324,-22.949,-34.180,-32.227,0.000
1737557721.999,-22.461,-23.438,-39.062,-51.270,0.000
1737557722.003,-36.621,-17.090,-38.086,-4.395,0.000
1737557722.007,-29.785,-19.531,-17.090,2.930,0.000
1737557722.011,15.625,-20.508,-15.625,-13.672,0.000
1737557722.014,15.625,-16.602,-19.531,-25.391,0.000
1737557722.018,-44.922,-15.625,-1.953,-43.457,0.000
1737557722.022,-54.199,-12.207,-2.441,-41.992,0.000
1737557722.026,-33.203,-21.973,-10.254,-14.160,0.000
1737557722.030,-6.836,-32.715,-20.508,-3.418,0.000
1737557722.034,6.348,-30.273,-27.344,-42.480,0.000
1737557722.038,-15.625,-28.809,-37.109,-49.316,0.000
1737557722.042,-27.344,-24.902,-42.480,-22.949,0.000
1737557722.046,-31.738,-15.137,-34.668,-37.109,0.000
1737557722.050,-29.785,-14.160,-20.996,-12.695,0.000
1737557722.054,-32.715,-21.973,-12.695,11.719,0.000
1737557722.057,-21.484,-6.836,-27.832,-39.551,0.000
1737557722.061,-9.766,7.324,-40.527,-49.316,0.000
1737557722.065,-33.203,-2.441,-31.250,-31.250,0.000
1737557722.069,-37.598,0.977,-27.344,-62.988,0.000
1737557722.073,-17.090,5.859,-39.551,-68.848,0.000
1737557722.077,-23.926,7.812,-49.316,-75.684,0.000
1737557722.081,-35.156,19.043,-47.852,-69.824,0.000
1737557722.085,-56.641,17.090,-46.875,-33.691,0.000
1737557722.089,-41.992,16.602,-58.594,-55.664,0.000
1737557722.093,28.320,20.020,-54.688,-38.574,0.000
1737557722.097,12.207,6.348,-43.945,-32.715,0.000
1737557722.100,-50.293,2.930,-49.805,-97.656,0.000
1737557722.104,-42.969,16.113,-47.363,-72.266,0.000
1737557722.108,-15.137,11.719,-46.875,-22.949,0.000
1737557722.112,17.578,-3.418,-54.199,-50.293,0.000
1737557722.116,0.000,10.742,-50.781,-61.035,0.000
1737557722.120,0.000,13.184,-41.016,-27.344,0.000
1737557722.124,0.000,5.859,-35.645,-10.254,0.000
1737557722.128,0.000,12.207,-31.738,-27.344,0.000
1737557722.132,0.000,9.766,-31.738,-47.852,0.000
1737557722.136,0.000,-1.465,-34.180,-52.734,0.000
1737557722.140,0.000,-4.395,-38.086,-42.969,0.000
1737557722.143,0.000,-4.883,-40.039,-29.297,0.000
1737557722.147,0.000,-5.859,-39.551,-25.391,0.000
1737557722.151,0.000,-3.906,-38.086,-26.855,0.000
1737557722.155,0.000,-14.648,-37.598,-21.973,0.000
1737557722.159,0.000,-16.602,-39.062,-23.438,0.000
1737557722.163,-39.551,-12.207,-34.180,-20.020,0.000
1737557722.167,0.000,-8.301,-18.066,-0.488,0.000
1737557722.171,21.973,-2.441,-16.113,-29.297,0.000
1737557722.175,11.230,-10.742,-20.508,-45.898,0.000
1737557722.179,-13.184,-20.996,-25.879,-28.320,0.000
1737557722.183,-30.273,-16.113,-40.527,-23.438,0.000
1737557722.186,-23.926,-18.066,-36.621,-26.855,0.000
1737557722.190,-3.418,-10.254,-20.020,-31.738,0.000
1737557722.194,6.836,-1.465,-24.414,-5.859,0.000
1737557722.198,-9.277,-9.277,-39.062,-9.766,0.000
1737557722.202,-38.086,-18.066,-35.156,-55.176,0.000
1737557722.206,-20.508,-21.973,-28.320,-44.434,0.000
1737557722.210,-8.301,-20.996,-21.973,-9.277,0.000
1737557722.214,16.602,-21.973,-22.461,-31.250,0.000
1737557722.218,34.180,-24.414,-24.902,-18.555,0.000
1737557722.222,-25.391,-22.461,-13.184,-10.742,0.000
1737557722.225,-19.531,-17.578,-12.207,-14.648,0.000
1737557722.229,28.809,-24.902,-10.254,7.812,0.000
1737557722.233,42.480,-32.227,-13.184,-19.531,0.000
1737557722.237,28.320,-38.086,-15.137,-0.977,0.000
1737557722.241,-2.930,-49.805,-9.277,22.461,0.000
1737557722.245,-1.953,-55.176,-9.766,48.828,0.000
1737557722.249,27.344,-61.035,-8.301,83.496,0.000
1737557722.253,50.781,-60.547,-9.766,80.566,0.000
1737557722.257,41.504,-59.082,-7.812,59.570,0.000
1737557722.261,19.531,-67.383,-4.883,73.242,0.000
1737557722.265,26.855,-78.125,4.395,106.445,0.000
1737557722.268,45.410,-77.637,6.836,80.078,0.000
1737557722.272,83.496,-76.660,1.953,85.938,0.000
1737557722.276,96.191,-80.566,3.906,126.465,0.000
1737557722.280,61.523,-77.637,-9.277,114.258,0.000
1737557722.284,43.457,-83.008,-4.883,102.051,0.000
1737557722.288,67.383,-85.449,14.160,109.375,0.000
1737557722.292,90.332,-77.637,14.648,115.234,0.000
1737557722.296,72.266,-75.684,17.090,117.676,0.000
1737557722.300,15.625,-73.730,12.207,99.121,0.000
1737557722.304,0.000,-73.242,-0.977,112.793,0.000
1737557722.308,0.000,-72.266,-2.441,96.680,0.000
1737557722.311,0.000,-66.895,6.836,42.480,0.000
1737557722.315,0.000,-66.895,9.277,43.457,0.000
1737557722.319,0.000,-56.152,5.859,61.035,0.000
1737557722.323,0.000,-43.945,5.371,50.293,0.000
1737557722.327,0.000,-58.105,0.977,56.152,0.000
1737557722.331,0.000,-56.641,-4.883,42.969,0.000
1737557722.335,0.000,-52.246,-2.441,52.734,0.000
1737557722.339,0.000,-51.758,-4.395,46.387,0.000
1737557722.343,0.000,-53.711,-6.836,38.574,0.000
1737557722.347,0.000,-56.152,-5.371,41.016,0.000
1737557722.351,11.719,-47.363,-11.230,16.602,0.000
1737557722.354,47.852,-42.480,-10.742,22.461,0.000
1737557722.358,12.207,-49.316,-14.648,12.207,0.000
1737557722.362,-27.344,-47.852,-11.230,-0.977,0.000
1737557722.366,4.395,-31.738,-5.859,39.062,0.000
1737557722.370,39.062,-29.297,-5.859,36.133,0.000
1737557722.374,22.949,-35.645,3.418,11.719,0.000
1737557722.378,-9.766,-33.691,0.977,-0.488,0.000
1737557722.382,-24.902,-31.250,-6.348,-8.789,0.000
1737557722.386,-9.277,-25.879,-9.277,16.602,0.000
1737557722.390,11.719,-24.902,-11.230,14.648,0.000
1737557722.393,23.438,-28.809,-11.230,1.953,0.000
1737557722.397,-2.930,-34.180,-7.812,0.000,0.000
1737557722.401,-34.668,-32.715,-15.625,-0.488,0.000
1737557722.405,-25.391,-30.273,-17.578,8.301,0.000
1737557722.409,-7.812,-31.738,-18.555,11.719,0.000
1737557722.413,9.766,-29.297,-23.438,13.184,0.000
1737557722.417,-6.836,-25.879,-19.531,-3.418,0.000
1737557722.421,-18.555,-20.020,-14.648,-23.438,0.000
1737557722.425,-7.324,-16.602,-12.695,-4.883,0.000
1737557722.429,-11.719,-21.973,-19.043,-7.324,0.000
1737557722.433,-5.859,-27.344,-19.043,-13.184,0.000
1737557722.436,-6.348,-28.320,-3.418,-10.742,0.000
1737557722.440,-31.738,-25.391,-0.488,-13.672,0.000
1737557722.444,-36.621,-29.785,-6.348,-2.930,0.000
1737557722.448,-20.020,-38.086,-17.578,-16.602,0.000
1737557722.452,15.625,-20.996,-22.949,-20.996,0.000
1737557722.456,4.395,-12.207,-8.301,-12.695,0.000
1737557722.460,-45.410,-18.066,-4.883,-34.668,0.000
1737557722.464,-49.316,-22.461,-16.113,-19.531,0.000
1737557722.468,-16.602,-22.949,-20.996,8.789,0.000
1737557722.472,2.930,-21.973,-16.602,-10.742,0.000
1737557722.476,10.254,-17.090,-10.254,-26.855,0.000
1737557722.479,-16.113,-11.719,-11.230,-26.855,0.000
1737557722.483,-44.434,-14.160,-10.742,-19.043,0.000
1737557722.487,-31.250,-17.578,-10.742,-21.484,0.000
1737557722.491,-12.695,-19.043,-16.113,0.000,0.000
1737557722.495,8.301,-11.230,-21.484,0.000,0.000
1737557722.499,-18.555,-15.137,-20.508,0.000,0.000
1737557722.503,-67.871,-25.879,-14.160,0.000,0.000
1737557722.507,-52.734,-22.461,-20.996,0.000,0.000
1737557722.511,18.555,-17.578,-32.715,0.000,0.000
1737557722.515,14.648,-20.020,-26.367,0.000,0.000
1737557722.519,-42.480,-25.391,-19.531,0.000,0.000
1737557722.522,-42.480,-23.438,-16.602,0.000,0.000
1737557722.526,-31.738,-19.531,-13.184,0.000,0.000
1737557722.530,-12.695,-19.043,-21.973,0.000,0.000
1737557722.534,3.906,-22.461,-31.250,0.000,0.000
1737557722.538,0.000,-21.973,-22.949,-22.949,0.000
1737557722.542,0.000,-24.414,-9.766,-13.672,0.000
1737557722.546,0.000,-26.855,-9.766,-36.133,0.000
1737557722.550,0.000,-21.484,-16.113,-36.621,0.000
1737557722.553,0.000,-18.066,-17.578,-31.250,0.000
1737557722.557,0.000,-16.602,-21.484,-27.832,0.000
1737557722.561,0.000,-19.043,-20.508,-26.367,0.000
1737557722.565,0.000,-21.973,-22.461,-49.316,0.000
1737557722.569,0.000,-16.602,-20.996,-13.672,0.000
1737557722.573,0.000,-8.789,-15.625,13.184,0.000
1737557722.577,0.000,-11.719,-22.949,1.465,0.000
1737557722.581,0.000,-26.367,-29.785,-16.602,0.000
1737557722.585,-35.156,-32.227,0.000,-28.320,0.000
1737557722.589,-29.785,-25.391,0.000,-19.043,0.000
1737557722.593,-11.719,-23.438,0.000,-36.133,0.000
1737557722.596,-11.230,-17.578,0.000,-35.645,0.000
1737557722.600,-27.344,-13.672,0.000,-22.949,0.000
1737557722.604,-32.227,-18.066,0.000,-8.789,0.000
1737557722.608,-24.902,-20.020,0.000,12.207,0.000
1737557722.612,-0.488,-20.996,0.000,-26.855,0.000
1737557722.616,-2.930,-19.043,0.000,-66.406,0.000
1737557722.620,-37.598,-19.043,0.000,-41.016,0.000
1737557722.624,-44.922,-22.949,0.000,-8.301,0.000
1737557722.628,-19.043,-22.949,0.000,-8.789,0.000
1737557722.632,-3.418,-19.043,-27.344,-7.812,0.000
1737557722.635,-14.648,-20.020,-7.812,-10.254,0.000
1737557722.639,-30.762,-23.438,-0.977,-26.367,0.000
1737557722.643,-38.086,-19.531,-3.418,-11.230,0.000
1737557722.647,-31.738,-20.508,-1.953,-7.324,0.000
1737557722.651,-10.742,-20.996,-4.395,-20.508,0.000
1737557722.655,-2.930,-19.043,-16.113,-25.391,0.000
1737557722.659,-19.531,-15.625,-27.344,-52.246,0.000
1737557722.663,-38.086,-13.184,-29.785,-62.988,0.000
1737557722.667,-36.621,-18.066,-16.602,-26.855,0.000
1737557722.670,-18.066,-16.602,-9.277,4.395,0.000
1737557722.674,4.883,-15.625,-11.719,2.441,0.000
1737557722.678,0.000,-19.043,-16.113,-5.371,0.000
1737557722.682,0.000,-24.902,-22.461,-22.461,0.000
1737557722.686,0.000,-24.414,-17.578,-35.156,0.000
1737557722.690,0.000,-26.367,-10.742,-20.996,0.000
1737557722.694,0.000,-21.973,-7.324,-22.949,0.000
1737557722.698,0.000,-16.113,-19.043,-59.082,0.000
1737557722.702,0.000,-18.066,-28.320,-42.480,0.000
1737557722.706,0.000,-16.602,-21.973,0.488,0.000
1737557722.710,0.000,-21.973,-23.926,-22.461,0.000
1737557722.714,0.000,-23.438,-30.762,-23.438,0.000
1737557722.717,0.000,-20.508,-30.762,-16.602,0.000
1737557722.721,0.000,-22.461,-16.113,-34.668,0.000
1737557722.725,-19.531,-19.531,-10.742,-27.344,0.000
1737557722.729,-27.344,-15.137,-20.508,-21.973,0.000
1737557722.733,-17.090,-13.672,-19.531,-9.766,0.000
1737557722.737,-9.277,-15.137,-18.066,-17.578,0.000
1737557722.741,-48.340,-17.090,-26.367,-52.246,0.000
1737557722.745,-45.410,-22.461,-27.832,-34.180,0.000
1737557722.749,-18.066,-27.344,-20.508,-12.207,0.000
1737557722.753,-17.578,-24.902,-17.578,-45.410,0.000
1737557722.757,-29.785,-28.809,-19.531,-55.664,0.000
1737557722.760,-39.062,-35.156,-15.625,-26.855,0.000
1737557722.764,-36.133,-27.344,-14.160,-4.883,0.000
1737557722.768,-27.344,-20.508,-14.160,4.883,0.000
1737557722.772,3.418,-15.625,-20.996,0.488,0.000
1737557722.776,3.418,-11.230,-22.949,-17.090,0.000
1737557722.780,-47.363,-13.672,-17.090,-35.645,0.000
1737557722.784,-66.895,-16.602,-21.484,-32.715,0.000
1737557722.788,-55.176,-14.160,-26.367,-15.137,0.000
1737557722.792,-9.766,-6.836,-15.625,-3.906,0.000
1737557722.796,5.859,-5.371,-12.207,-33.203,0.000
1737557722.800,-31.738,-5.859,-13.184,-35.156,0.000
1737557722.804,-41.992,-8.301,-3.418,-1.465,0.000
1737557722.807,-13.672,-9.277,-3.906,0.488,0.000
1737557722.811,10.742,-13.672,-6.836,-18.066,0.000
1737557722.815,22.461,-18.555,-10.742,-23.926,0.000
1737557722.819,0.977,-12.695,-11.230,-25.391,0.000
1737557722.823,-32.227,-7.324,-3.906,-12.695,0.000
1737557722.827,-28.809,0.000,-1.465,2.441,0.000
1737557722.831,-3.418,-5.371,-8.301,-4.395,0.000
1737557722.835,-13.184,-13.672,-20.020,-8.789,0.000
1737557722.839,-48.828,-11.719,-27.344,-44.434,0.000
1737557722.843,-49.316,-13.184,-32.227,-51.758,0.000
1737557722.847,-23.438,-15.625,-29.297,-21.484,0.000
1737557722.850,-8.301,-18.066,-28.320,-28.809,0.000
1737557722.854,-25.879,-26.855,-34.668,-41.504,0.000
1737557722.858,-44.922,-27.832,-34.180,-62.988,0.000
1737557722.862,-49.805,-23.926,-27.832,-71.777,0.000
1737557722.866,0.000,-20.508,0.000,-41.992,0.000
1737557722.870,0.000,-20.996,0.000,-23.926,0.000
1737557722.874,0.000,-19.531,0.000,-20.508,0.000
1737557722.878,0.000,-18.066,0.000,-27.344,0.000
1737557722.882,0.000,-26.855,0.000,-46.875,0.000
1737557722.886,0.000,-22.949,0.000,-33.203,0.000
1737557722.890,0.000,-20.020,0.000,-20.996,0.000
1737557722.893,0.000,-21.973,0.000,-30.762,0.000
1737557722.897,0.000,-22.949,0.000,-46.875,0.000
1737557722.901,0.000,-17.090,0.000,-42.969,0.000
1737557722.905,0.000,-18.555,0.000,-22.461,0.000
1737557722.909,0.000,-21.484,0.000,-19.531,0.000
1737557722.913,1.953,-16.602,-31.250,-26.367,0.000
1737557722.917,0.488,-20.996,-16.602,-35.156,0.000
1737557722.921,-44.434,-22.949,-11.719,-47.363,0.000
1737557722.925,-37.109,-13.184,-9.766,-24.414,0.000
1737557722.929,-17.578,-8.301,-15.625,-29.785,0.000
1737557722.932,-9.766,-9.277,-17.578,-39.551,0.000
1737557722.936,-0.488,-6.836,-16.113,-10.254,0.000
1737557722.940,-13.184,-13.184,-20.508,-26.855,0.000
1737557722.944,-31.738,-14.160,-15.625,-34.668,0.000
1737557722.948,-27.344,-11.719,-17.090,-13.184,0.000
1737557722.952,1.465,-18.555,-26.855,-8.301,0.000
1737557722.956,-16.602,-29.785,-23.438,-26.855,0.000
1737557722.960,-49.805,-26.855,-16.602,-26.855,0.000
1737557722.964,-58.594,-20.508,-18.066,-2.930,0.000
1737557722.968,-41.992,-26.367,-19.531,-7.324,0.000
1737557722.972,9.277,-27.344,-27.832,-19.043,0.000
1737557722.975,30.762,-20.020,-32.227,-25.391,0.000
1737557722.979,-7.812,-17.090,-30.762,-21.973,0.000
1737557722.983,-28.320,-13.672,-22.461,-22.949,0.000
1737557722.987,-21.484,-13.184,-3.906,-21.973,0.000
1737557722.991,1.465,-18.066,-1.953,-2.441,0.000
1737557722.995,16.113,-22.949,-16.602,-8.301,0.000
1737557722.999,-22.949,-21.484,-15.625,-26.367,0.000
1737557723.003,-33.203,-16.113,-10.742,-20.020,0.000
1737557723.007,-11.719,-11.719,-12.695,9.766,0.000
1737557723.011,-8.301,-12.695,-21.973,3.906,0.000
1737557723.014,-12.207,-9.766,-26.367,-39.062,0.000
1737557723.018,-23.438,-15.137,-20.020,-47.363,0.000
1737557723.022,-42.480,-22.461,-22.949,-27.832,0.000
1737557723.026,-35.156,-21.973,-24.902,-12.207,0.000
1737557723.030,-14.648,-24.414,-22.461,-3.906,0.000
1737557723.034,10.254,-24.414,-21.973,-11.719,0.000
1737557723.038,-4.395,-26.367,-12.695,-29.297,0.000
1737557723.042,-55.176,-32.227,-10.742,-19.043,0.000
1737557723.046,-39.062,-25.879,-11.719,-5.371,0.000
1737557723.050,-1.953,-19.531,-9.277,-19.531,0.000
1737557723.054,3.418,-29.297,-15.137,-22.461,0.000
1737557723.057,-12.207,-25.879,-15.625,-20.996,0.000
1737557723.061,-29.297,-19.531,-12.695,-1.953,0.000
1737557723.065,-33.691,-27.832,-18.555,15.137,0.000
1737557723.069,-16.113,-19.531,-22.949,-13.672,0.000
1737557723.073,17.090,-9.766,-20.996,-11.719,0.000
1737557723.077,11.719,-15.625,-21.484,-29.785,0.000
1737557723.081,-11.230,-10.742,-9.277,-35.156,0.000
1737557723.085,-14.648,0.000,9.766,6.348,0.000
1737557723.089,-9.277,-0.488,-1.465,-3.418,0.000
1737557723.093,8.789,-12.207,-15.625,-8.789,0.000
1737557723.096,0.000,-14.648,-11.230,-8.301,0.000
1737557723.100,-44.434,-8.301,-11.719,-23.438,0.000
1737557723.104,-52.246,-9.766,-17.578,-22.461,0.000
1737557723.108,-38.086,-16.602,-26.367,-8.789,0.000
1737557723.112,-23.926,-20.996,-30.762,-16.602,0.000
1737557723.116,-7.324,-21.484,-25.391,-43.945,0.000
1737557723.120,-38.086,-22.949,-19.531,-57.129,0.000
1737557723.124,-46.875,-15.137,-11.230,-30.762,0.000
1737557723.128,-38.086,-7.812,-4.883,-26.855,0.000
1737557723.132,-23.438,-17.578,-10.742,-29.785,0.000
1737557723.136,-2.441,-20.020,-24.902,-4.395,0.000
1737557723.139,-18.066,-25.391,-32.715,-8.789,0.000
1737557723.143,-38.086,-27.832,-22.949,-16.113,0.000
1737557723.147,0.000,-20.508,-15.137,-12.207,0.000
1737557723.151,0.000,-21.973,-16.113,-23.926,0.000
1737557723.155,0.000,-17.090,-20.508,-33.691,0.000
1737557723.159,0.000,-12.695,-23.926,-29.297,0.000
1737557723.163,0.000,-5.859,-20.996,-18.066,0.000
1737557723.167,0.000,2.930,-16.602,0.977,0.000
1737557723.171,0.000,2.930,-7.812,-18.555,0.000
1737557723.175,0.000,-7.324,-11.230,-50.781,0.000
1737557723.179,0.000,-15.137,-26.367,-64.453,0.000
1737557723.182,0.000,-12.695,-25.879,-47.852,0.000
1737557723.186,0.000,-17.090,-15.625,-5.371,0.000
1737557723.190,0.000,-22.949,-12.695,-1.465,0.000
1737557723.194,-19.043,-25.391,-21.484,-24.902,0.000
1737557723.198,-29.785,-22.461,-31.738,-67.383,0.000
1737557723.202,-54.688,-23.438,-38.574,-69.824,0.000
1737557723.206,-55.664,-26.367,-34.668,-26.367,0.000
1737557723.210,-34.668,-27.344,-23.438,-4.395,0.000
1737557723.214,-4.883,-23.438,-24.414,-19.531,0.000
1737557723.218,1.953,-12.207,-23.926,-42.480,0.000
1737557723.222,-42.480,-14.160,-11.230,-41.016,0.000
1737557723.225,-39.551,-17.090,-12.207,-20.020,0.000
1737557723.229,-13.672,-6.836,-14.160,-20.996,0.000
1737557723.233,4.883,-6.348,-11.230,-40.527,0.000
1737557723.237,4.883,-19.043,-20.996,-46.387,0.000
1737557723.241,-34.668,-28.320,0.000,-45.898,0.000
1737557723.245,-25.879,-33.691,0.000,-30.273,0.000
1737557723.249,-3.418,-32.715,0.000,-29.785,0.000
1737557723.253,17.090,-29.785,0.000,-27.832,0.000
1737557723.257,3.906,-32.227,0.000,-13.184,0.000
1737557723.261,-41.016,-30.762,0.000,-14.160,0.000
1737557723.264,-43.457,-22.949,0.000,7.324,0.000
1737557723.268,-30.762,-16.602,0.000,-5.371,0.000
1737557723.272,-10.742,-13.672,0.000,-14.160,0.000
1737557723.276,-6.836,-11.230,0.000,-3.418,0.000
1737557723.280,-23.438,-19.531,0.000,-9.277,0.000
1737557723.284,-28.320,-28.809,0.000,-7.324,0.000
1737557723.288,-9.766,-25.879,-11.230,0.000,0.000
1737557723.292,12.695,-30.273,-6.348,0.000,0.000
1737557723.296,9.766,-28.320,-20.508,0.000,0.000
1737557723.300,-28.809,-20.020,-31.250,0.000,0.000
1737557723.304,-55.176,-21.484,-17.578,0.000,0.000
1737557723.307,-30.273,-12.207,-6.836,0.000,0.000
1737557723.311,12.695,-9.766,-4.395,0.000,0.000
1737557723.315,40.527,-17.578,-7.324,0.000,0.000
1737557723.319,11.719,-15.625,-22.949,0.000,0.000
1737557723.323,-18.066,-24.902,-31.738,0.000,0.000
1737557723.327,-5.859,-18.066,-22.949,0.000,0.000
1737557723.331,12.695,2.441,-6.836,0.000,0.000
1737557723.335,20.020,-1.465,-5.859,-25.391,0.000
1737557723.339,-20.996,-10.742,-19.043,-29.785,0.000
1737557723.343,-36.133,-11.230,-21.484,-17.090,0.000
1737557723.347,-28.320,-18.066,-25.391,4.395,0.000
1737557723.350,-35.645,-27.344,-37.598,-9.277,0.000
1737557723.354,-10.742,-21.973,-34.180,-33.691,0.000
1737557723.358,-15.137,-24.902,-23.438,-39.062,0.000
1737557723.362,-35.156,-30.273,-14.160,-56.152,0.000
1737557723.366,-38.086,-27.344,-12.207,-44.434,0.000
1737557723.370,-25.879,-26.855,-20.020,-14.648,0.000
1737557723.374,-14.648,-24.414,-20.508,-33.203,0.000
1737557723.378,-40.039,-25.879,-20.020,-46.387,0.000
1737557723.382,-45.410,-21.973,-22.461,-22.949,0.000
1737557723.386,-37.598,-18.066,-21.484,-10.254,0.000
1737557723.389,-26.367,-19.531,-20.020,-3.906,0.000
1737557723.393,11.230,-14.648,-16.602,-11.719,0.000
1737557723.397,7.812,-16.113,-21.484,-37.598,0.000
1737557723.401,-30.273,-14.648,-32.227,-46.875,0.000
1737557723.405,-37.109,-19.043,-30.762,-18.066,0.000
1737557723.409,-40.039,-27.344,-23.926,-18.066,0.000
1737557723.413,-22.949,-28.809,-21.973,-32.227,0.000
1737557723.417,-16.113,-26.855,-19.043,-40.527,0.000
1737557723.421,-38.086,-26.855,-21.973,-51.758,0.000
1737557723.425,-45.410,-30.273,-22.461,-20.020,0.000
1737557723.429,0.000,-27.344,-20.996,-23.438,0.000
1737557723.433,0.000,-24.414,-17.578,-24.414,0.000
1737557723.436,0.000,-28.320,-18.066,-26.855,0.000
1737557723.440,0.000,-26.367,-25.879,-54.688,0.000
1737557723.444,0.000,-23.926,-22.949,-22.949,0.000
1737557723.448,0.000,-29.297,-13.672,-8.301,0.000
1737557723.452,0.000,-31.738,-10.254,-19.531,0.000
1737557723.456,0.000,-24.414,-15.137,-35.156,0.000
1737557723.460,0.000,-20.508,-21.484,-40.527,0.000
1737557723.464,0.000,-24.902,-29.785,-26.855,0.000
1737557723.468,0.000,-19.043,-24.902,-19.531,0.000
1737557723.471,0.000,-14.648,-20.020,-29.297,0.000
1737557723.476,-13.184,-17.578,-22.949,-43.945,0.000
1737557723.479,-29.297,-21.973,-23.438,-36.621,0.000
1737557723.483,-22.461,-19.043,-12.207,-26.855,0.000
1737557723.487,-29.785,-4.883,-4.395,-23.926,0.000
1737557723.491,-11.230,-5.371,-7.812,-25.879,0.000
1737557723.495,12.207,-13.672,-12.207,-19.531,0.000
1737557723.499,-8.789,-17.578,-15.137,-20.996,0.000
1737557723.503,-36.621,-14.648,-20.508,-13.184,0.000
1737557723.507,-41.016,-24.414,-26.367,0.488,0.000
1737557723.511,-25.879,-32.227,-31.738,-19.043,0.000
1737557723.514,-12.695,-33.691,-30.273,-41.504,0.000
1737557723.518,-34.180,-34.180,-32.227,-57.617,0.000
1737557723.522,-57.129,-28.809,-23.926,-63.477,0.000
1737557723.526,-47.363,-24.902,-28.320,-41.504,0.000
1737557723.530,-19.531,-20.508,-39.062,-38.086,0.000
1737557723.534,-4.883,-20.996,-31.738,-57.617,0.000
1737557723.538,-27.344,-29.785,-29.297,-34.668,0.000
1737557723.542,-46.387,-32.227,-22.949,-9.766,0.000
1737557723.546,-44.922,-21.973,-14.648,0.000,0.000
1737557723.550,-20.508,-21.973,-20.020,-7.812,0.000
1737557723.554,-8.789,-26.367,-36.133,-36.133,0.000
1737557723.557,-32.227,-28.320,-31.738,-36.133,0.000
1737557723.561,-48.340,-25.391,-19.531,-21.484,0.000
1737557723.565,-50.293,-20.996,-26.367,-9.766,0.000
1737557723.569,-37.109,-27.344,-29.297,-11.230,0.000
1737557723.573,-3.906,-31.250,-23.926,-14.160,0.000
1737557723.577,-16.113,-23.926,-27.832,-14.160,0.000
1737557723.581,-45.410,-15.625,-28.320,-23.438,0.000
1737557723.585,-32.715,-10.254,-19.531,-37.109,0.000
1737557723.589,-14.648,-16.113,-9.277,-27.344,0.000
1737557723.593,5.859,-17.090,-4.395,-32.715,0.000
1737557723.597,-5.859,-20.020,-9.766,-51.758,0.000
1737557723.601,-44.434,-22.949,-19.043,-42.969,0.000
1737557723.604,-47.363,-11.719,-16.602,-13.672,0.000
1737557723.608,-26.367,-10.254,-18.066,-21.973,0.000
1737557723.612,-9.766,-18.066,-22.949,-33.691,0.000
1737557723.616,5.371,-18.066,-17.090,-16.113,0.000
1737557723.620,-20.508,-18.066,-12.695,-13.184,0.000
1737557723.624,-51.758,-21.973,-12.207,-19.043,0.000
1737557723.628,-34.668,-17.578,-16.602,-15.137,0.000
1737557723.632,9.277,-14.160,-20.508,-19.531,0.000
1737557723.636,0.000,-15.137,-19.043,-20.508,0.000
1737557723.640,-29.297,-21.484,-14.648,-12.207,0.000
1737557723.644,-20.020,-21.973,-18.555,-20.020,0.000
1737557723.647,-33.203,-21.973,-26.855,-18.555,0.000
1737557723.651,-11.719,-19.043,-32.715,-11.719,0.000
1737557723.655,7.812,-16.113,-36.133,-27.832,0.000
1737557723.659,-23.926,-18.555,-21.484,-28.320,0.000
1737557723.663,-50.293,-12.207,-5.859,-8.789,0.000
1737557723.667,-56.641,-14.648,-2.930,-11.230,0.000
1737557723.671,-17.578,-18.555,-7.324,-19.043,0.000
1737557723.675,17.090,-14.648,-14.648,-45.898,0.000
1737557723.679,-6.836,-15.625,-20.020,-62.012,0.000
1737557723.683,-5.859,-13.672,-15.625,-24.902,0.000
1737557723.687,-7.324,-15.625,-9.277,1.465,0.000
1737557723.690,-20.996,-21.484,-11.230,-13.184,0.000
1737557723.694,1.465,-18.555,-13.184,-17.090,0.000
1737557723.698,-7.812,-12.695,-13.672,-36.133,0.000
1737557723.702,-41.016,-13.184,-19.043,-29.297,0.000
1737557723.706,-25.879,-14.648,-32.227,-11.719,0.000
1737557723.710,-4.395,-12.695,-34.668,-15.137,0.000
1737557723.714,6.348,-5.371,-27.832,-13.184,0.000
1737557723.718,9.766,-6.836,-20.996,-37.598,0.000
1737557723.722,-7.324,-16.602,-14.648,-46.875,0.000
1737557723.726,-28.320,-18.555,-19.531,-32.227,0.000
1737557723.729,-22.461,-22.461,-19.043,-32.227,0.000
1737557723.733,-6.836,-25.879,-14.160,-28.809,0.000
1737557723.737,-17.578,-22.949,-19.043,-21.973,0.000
1737557723.741,-47.363,-15.625,-17.578,-35.645,0.000
1737557723.745,-48.340,-12.695,-15.137,-38.086,0.000
1737557723.749,-22.461,-17.090,-28.809,-24.414,0.000
1737557723.753,-1.465,-24.414,-31.738,-29.297,0.000
1737557723.757,-2.441,-17.090,-17.090,-34.668,0.000
1737557723.761,-29.297,-19.043,-12.695,-34.668,0.000
1737557723.765,-61.523,-22.461,-16.602,-28.809,0.000
1737557723.769,-57.617,-16.602,-23.926,-30.273,0.000
1737557723.772,-18.066,-20.020,-25.879,-27.832,0.000
1737557723.776,2.930,-17.090,-27.832,-35.156,0.000
1737557723.780,-19.043,-21.973,-28.320,-48.828,0.000
1737557723.784,-41.992,-23.438,-25.879,-41.992,0.000
1737557723.788,-20.996,-17.578,-25.391,-28.320,0.000
1737557723.792,1.465,-16.113,-18.066,1.953,0.000
1737557723.796,-3.906,-14.160,-15.137,7.812,0.000
1737557723.800,-27.344,-16.602,-26.367,-22.461,0.000
1737557723.804,-38.574,-19.043,-36.133,-22.949,0.000
1737557723.808,-30.273,-16.113,-20.996,-24.902,0.000
1737557723.812,2.441,-10.742,-24.414,-23.438,0.000
1737557723.815,11.719,-14.160,-26.855,-19.043,0.000
1737557723.819,-9.277,-14.648,-10.254,-36.133,0.000
1737557723.823,-27.344,-13.184,-13.184,-18.066,0.000
1737557723.827,-34.180,-17.090,-15.137,-3.906,0.000
1737557723.831,-29.297,-20.020,-19.043,-23.438,0.000
1737557723.835,-11.719,-20.020,-24.414,-41.016,0.000
1737557723.839,-34.180,-17.090,-23.926,-42.480,0.000
1737557723.843,-50.781,-18.066,-19.531,-45.898,0.000
1737557723.847,-34.668,-12.695,-15.625,-28.809,0.000
1737557723.851,-14.160,-7.324,-11.230,-26.855,0.000
1737557723.855,8.301,-19.043,-13.184,-29.297,0.000
1737557723.858,0.000,-19.043,-29.297,-14.160,0.000
1737557723.862,-25.391,-13.672,-26.855,-8.789,0.000
1737557723.866,-51.758,-20.996,-18.555,0.977,0.000
1737557723.870,-40.527,-19.043,-19.531,-22.949,0.000
1737557723.874,-6.836,-12.695,-17.090,-47.852,0.000
1737557723.878,-6.348,-16.113,-18.555,-51.270,0.000
1737557723.882,-38.574,-18.555,-19.043,-46.875,0.000
1737557723.886,-40.527,-17.578,-12.695,-17.090,0.000
1737557723.890,-20.020,-21.973,-21.484,-20.020,0.000
1737557723.893,-21.484,-23.438,-35.645,-10.742,0.000
1737557723.898,0.000,-20.508,-40.527,-31.738,0.000
1737557723.901,0.000,-25.391,-37.109,-67.383,0.000
1737557723.905,0.000,-26.855,-19.531,-35.156,0.000
1737557723.909,0.000,-22.461,-2.441,-22.461,0.000
1737557723.913,0.000,-19.043,0.000,-18.066,0.000
1737557723.917,0.000,-19.043,-3.906,-30.762,0.000
1737557723.921,0.000,-23.926,-12.207,-60.059,0.000
1737557723.925,0.000,-23.926,-20.996,-30.762,0.000
1737557723.929,0.000,-20.020,-26.855,8.301,0.000
1737557723.933,0.000,-18.066,-19.531,10.742,0.000
1737557723.936,0.000,-20.996,-20.020,-15.137,0.000
1737557723.940,0.000,-23.926,-19.043,-25.391,0.000
1737557723.944,-17.090,-20.020,-14.648,0.000,0.000
1737557723.948,-30.762,-17.090,-20.996,0.000,0.000
1737557723.952,-38.086,-16.602,-18.066,0.000,0.000
1737557723.956,-18.555,-15.137,-14.648,0.000,0.000
1737557723.960,-9.277,-17.090,-11.230,0.000,0.000
1737557723.964,-11.230,-15.625,-12.695,0.000,0.000
1737557723.968,-38.086,-10.742,-16.602,0.000,0.000
1737557723.971,-44.434,-13.672,-20.020,0.000,0.000
1737557723.975,-24.414,-11.230,-18.066,0.000,0.000
1737557723.979,18.555,-7.812,-9.277,0.000,0.000
1737557723.983,3.906,-4.395,-7.812,0.000,0.000
1737557723.987,-45.898,2.441,-5.371,0.000,0.000
1737557723.991,-2.441,-1.465,-2.441,9.277,0.000
1737557723.995,0.488,-7.812,-7.812,-12.207,0.000
1737557723.999,-16.113,-12.207,-14.648,-24.902,0.000
1737557724.003,-36.133,-11.230,-13.672,-35.645,0.000
1737557724.007,-22.461,-3.418,-13.184,-16.113,0.000
1737557724.011,4.883,-7.324,-8.301,-11.230,0.000
1737557724.014,15.137,-11.230,-5.859,-33.691,0.000
1737557724.018,-13.184,-2.930,-14.160,-38.574,0.000
1737557724.022,-44.922,-5.859,-11.719,-32.715,0.000
1737557724.026,-42.480,-10.742,-10.742,-10.254,0.000
1737557724.030,-15.625,-0.488,-9.766,-12.207,0.000
1737557724.034,15.625,-5.859,3.418,-12.695,0.000
1737557724.038,-8.301,-14.648,4.395,-10.742,0.000
1737557724.042,-33.691,-16.113,-1.953,-30.273,0.000
1737557724.046,-34.668,-18.555,-5.371,-20.020,0.000
1737557724.050,-16.602,-14.160,-9.766,-9.277,0.000
1737557724.054,23.926,-11.719,-10.254,8.301,0.000
1737557724.057,7.812,-6.836,-10.742,4.395,0.000
1737557724.061,-35.156,-7.324,-18.066,-27.832,0.000
1737557724.065,-28.809,-12.695,-18.555,-12.695,0.000
1737557724.069,-21.484,-13.672,-11.719,-10.254,0.000
1737557724.073,-18.555,-5.371,-12.695,0.488,0.000
1737557724.077,-21.484,-10.742,-25.879,-3.418,0.000
1737557724.081,-50.293,-23.438,-34.668,-21.484,0.000
1737557724.085,-54.688,-25.879,-37.109,-27.832,0.000
1737557724.089,-17.578,-18.066,-36.621,-62.012,0.000
1737557724.093,-2.441,-18.066,-38.086,-58.594,0.000
1737557724.097,-14.648,-14.648,-30.273,-32.715,0.000
1737557724.100,-36.621,-7.324,-12.207,-39.062,0.000
1737557724.104,-48.828,-7.324,-7.324,-36.133,0.000
1737557724.108,-27.832,-9.277,-11.230,-19.043,0.000
1737557724.112,-4.395,-17.090,-25.879,-15.625,0.000
1737557724.116,-13.672,-17.090,-37.109,-15.137,0.000
1737557724.120,-47.363,-17.578,-26.367,-34.668,0.000
1737557724.124,-60.059,-20.996,-20.996,-49.316,0.000
1737557724.128,-32.227,-25.879,-28.809,-33.691,0.000
1737557724.132,0.000,-29.785,-27.344,-22.949,0.000
1737557724.136,0.000,-25.391,-24.414,-36.133,0.000
1737557724.139,0.000,-20.996,-19.531,-38.574,0.000
1737557724.143,0.000,-17.578,-20.020,-14.648,0.000
1737557724.147,0.000,-7.812,-24.414,10.742,0.000
1737557724.151,0.000,-9.766,-23.438,-7.812,0.000
1737557724.155,0.000,-21.973,-23.926,-33.203,0.000
1737557724.159,0.000,-24.902,-21.973,-33.691,0.000
1737557724.163,0.000,-24.414,-32.227,-37.598,0.000
1737557724.167,0.000,-21.973,-39.062,-42.480,0.000
1737557724.171,0.000,-19.531,-34.180,-25.879,0.000
1737557724.175,0.000,-24.902,-21.484,-13.672,0.000
1737557724.179,-14.648,-23.438,-7.324,-31.738,0.000
1737557724.182,-46.387,-23.438,-14.648,-50.293,0.000
1737557724.186,-32.715,-23.438,-10.254,-29.297,0.000
1737557724.190,-1.953,-14.648,-4.883,-5.859,0.000
1737557724.194,15.137,-16.602,-16.602,-19.531,0.000
1737557724.198,-1.953,-12.695,-22.949,-18.555,0.000
1737557724.202,-40.039,-7.812,-24.414,-12.207,0.000
1737557724.206,-55.664,-23.926,-22.461,-35.156,0.000
1737557724.210,-18.066,-23.926,-11.230,-35.645,0.000
1737557724.214,11.719,-15.625,-9.766,-40.527,0.000
1737557724.218,3.418,-20.020,-21.973,-56.152,0.000
1737557724.221,-42.969,-29.297,-27.832,-37.598,0.000
1737557724.226,-66.406,-31.250,-29.297,-29.785,0.000
1737557724.229,-26.367,-36.133,-23.926,-26.367,0.000
1737557724.233,9.766,-33.691,-19.043,-10.742,0.000
1737557724.237,-8.301,-28.320,-24.414,-11.230,0.000
1737557724.241,-46.875,-27.832,-28.320,-31.738,0.000
1737557724.245,-41.504,-13.672,-17.578,-16.602,0.000
1737557724.249,-29.785,-11.230,-15.625,-8.789,0.000
1737557724.253,-1.953,-17.090,-27.832,-34.668,0.000
1737557724.257,-5.371,-19.043,-25.879,-41.504,0.000
1737557724.261,-59.082,-22.949,-19.531,-34.668,0.000
1737557724.264,-62.012,-24.902,-22.949,-38.086,0.000
1737557724.268,-29.297,-25.879,-24.414,-42.969,0.000
1737557724.272,0.000,-25.391,-35.645,-32.227,0.000
1737557724.276,0.000,-30.273,-47.363,-36.621,0.000
1737557724.280,0.000,-35.156,-42.480,-39.551,0.000
1737557724.284,0.000,-33.203,-28.809,-19.043,0.000
1737557724.288,0.000,-29.297,-17.090,-34.668,0.000
1737557724.292,0.000,-31.738,-23.438,-45.410,0.000
1737557724.296,0.000,-28.809,-30.762,-20.996,0.000
1737557724.300,0.000,-27.344,-33.203,-29.297,0.000
1737557724.304,0.000,-26.367,-25.391,-49.316,0.000
1737557724.307,0.000,-24.902,-16.113,-38.574,0.000
1737557724.311,0.000,-21.973,-19.043,-13.672,0.000
1737557724.315,0.000,-15.137,-23.438,-14.648,0.000
1737557724.319,-16.602,-18.555,-25.879,-35.645,0.000
1737557724.323,-42.480,-25.879,-27.344,-28.809,0.000
1737557724.327,-41.016,-28.809,-23.926,-2.441,0.000
1737557724.331,-20.508,-28.320,-18.555,-17.578,0.000
1737557724.335,-10.254,-23.438,-18.066,-46.875,0.000
1737557724.339,-32.227,-17.578,-15.137,-39.062,0.000
1737557724.343,-42.480,-20.508,-13.672,-30.273,0.000
1737557724.347,-41.504,-25.879,-18.066,-33.691,0.000
1737557724.350,-23.926,-27.832,-29.297,-40.527,0.000
1737557724.354,-6.348,-23.926,-24.902,-47.852,0.000
1737557724.358,-13.184,-19.531,-9.766,-35.156,0.000
1737557724.362,-23.438,-25.879,-16.602,-21.973,0.000
1737557724.366,-51.270,-24.902,-33.691,-12.207,0.000
1737557724.370,-39.551,-16.602,-43.457,-8.789,0.000
1737557724.374,8.789,-13.672,-26.367,-3.906,0.000
1737557724.378,6.836,-10.742,-16.113,-12.695,0.000
1737557724.382,-20.508,-19.531,-14.160,-22.461,0.000
1737557724.386,-21.484,-19.043,-15.137,-17.090,0.000
1737557724.390,0.000,-20.996,-24.414,-7.812,0.000
1737557724.393,18.555,-29.297,-23.438,-7.324,0.000
1737557724.397,-3.906,-28.320,-21.484,-41.016,0.000
1737557724.401,-31.738,-27.344,-20.996,-53.223,0.000
1737557724.405,-38.086,-25.879,-32.227,-28.320,0.000
1737557724.409,-28.320,-15.625,-39.062,-38.086,0.000
1737557724.413,3.418,-13.672,-24.414,-59.082,0.000
1737557724.417,0.000,-10.254,-13.672,-29.297,0.000
1737557724.421,-24.902,-6.348,-14.160,-0.977,0.000
1737557724.425,-18.555,-11.719,-25.879,6.348,0.000
1737557724.429,1.465,-10.742,-26.855,4.883,0.000
1737557724.433,8.301,-5.371,-22.461,-10.254,0.000
1737557724.436,11.719,-10.742,-26.367,-24.414,0.000
1737557724.440,-27.832,-22.461,-18.555,-33.203,0.000
1737557724.444,-70.801,-19.043,-16.602,-31.250,0.000
1737557724.448,-48.340,-14.160,-22.461,-32.227,0.000
1737557724.452,-0.977,-14.160,-20.508,-22.949,0.000
1737557724.456,10.254,-15.137,-18.066,-19.531,0.000
1737557724.460,0.000,-17.090,0.000,-21.484,0.000
1737557724.464,0.000,-19.043,0.000,0.000,0.000
1737557724.468,0.000,-12.695,0.000,2.441,0.000
1737557724.472,0.000,-13.184,0.000,-4.395,0.000
1737557724.476,0.000,-19.043,0.000,-18.555,0.000
1737557724.479,0.000,-9.766,0.000,-46.387,0.000
1737557724.483,0.000,-12.207,0.000,-44.434,0.000
1737557724.487,0.000,-18.066,0.000,-1.465,0.000
1737557724.491,0.000,-14.648,0.000,11.230,0.000
1737557724.495,0.000,-17.090,0.000,-28.320,0.000
1737557724.499,0.000,-20.996,0.000,-53.223,0.000
1737557724.503,0.000,-21.484,0.000,-41.504,0.000
1737557724.507,-34.668,-20.508,-22.949,-10.742,0.000
1737557724.511,0.488,-17.578,-14.160,-18.555,0.000
1737557724.515,3.906,-18.066,-15.625,-36.133,0.000
1737557724.518,-16.113,-22.949,-23.926,-35.156,0.000
1737557724.522,-35.645,-18.555,-28.809,-20.020,0.000
1737557724.526,-41.016,-16.602,-28.320,-10.742,0.000
1737557724.530,-31.738,-20.996,-22.461,-20.020,0.000
1737557724.534,-7.812,-20.020,-16.602,-26.367,0.000
1737557724.538,-1.465,-22.949,-9.766,-34.180,0.000
1737557724.542,-16.602,-23.926,-5.371,-20.996,0.000
1737557724.546,-9.766,-14.160,0.488,4.395,0.000
1737557724.550,-1.465,-12.207,-4.395,4.883,0.000
1737557724.554,20.020,-15.625,-21.973,-40.527,0.000
1737557724.558,1.465,-29.297,-20.996,-54.688,0.000
1737557724.561,-42.480,-25.391,-14.648,-18.555,0.000
1737557724.565,-47.852,-16.602,-13.672,-18.555,0.000
1737557724.569,-24.902,-23.438,-2.441,-18.066,0.000
1737557724.573,0.000,-24.902,-8.789,-8.789,0.000
1737557724.577,-14.160,-22.461,-27.344,-28.320,0.000
1737557724.581,-39.062,-23.926,-32.715,-52.246,0.000
1737557724.585,-39.062,-23.438,-18.066,-28.320,0.000
1737557724.589,-34.668,-20.508,-13.672,-20.508,0.000
1737557724.593,-8.789,-21.484,-8.789,-20.996,0.000
1737557724.597,-5.371,-21.484,-7.324,-10.254,0.000
1737557724.601,-49.316,-22.949,-17.090,-24.414,0.000
1737557724.604,-53.711,-24.902,-20.020,-30.762,0.000
1737557724.608,-44.434,-23.438,-14.160,-34.180,0.000
1737557724.612,-22.949,-20.020,-20.996,-18.555,0.000
1737557724.616,4.395,-18.066,-40.527,-20.996,0.000
1737557724.620,-3.906,-19.043,-36.621,-43.457,0.000
1737557724.624,-27.832,-33.691,-21.484,-33.691,0.000
1737557724.628,-23.926,-35.645,-21.973,-22.461,0.000
1737557724.632,-9.766,-27.832,-20.996,-36.133,0.000
1737557724.636,-22.949,-22.949,-18.066,-40.039,0.000
1737557724.640,-26.367,-12.207,-20.508,-25.391,0.000
1737557724.643,-35.156,-16.113,-16.113,-4.883,0.000
1737557724.647,-42.480,-18.066,-9.766,8.301,0.000
1737557724.651,-23.926,-17.090,-19.043,-14.160,0.000
1737557724.655,-2.441,-13.672,-29.297,-31.738,0.000
1737557724.659,-22.461,-11.719,-28.809,-35.156,0.000
1737557724.663,-38.086,-14.648,-34.180,-33.691,0.000
1737557724.667,-39.551,-20.020,-34.668,-27.344,0.000
1737557724.671,-40.527,-17.578,-25.391,-30.762,0.000
1737557724.675,1.465,-10.254,-21.484,-28.809,0.000
1737557724.679,-1.465,-17.578,-21.484,-28.320,0.000
1737557724.683,-50.781,-26.855,-20.996,-25.391,0.000
1737557724.686,-53.711,-25.879,-18.555,-4.395,0.000
1737557724.690,-17.578,-24.902,-17.578,4.395,0.000
1737557724.694,7.324,-21.973,-18.066,-9.277,0.000
1737557724.698,-15.625,-16.113,-17.578,-29.785,0.000
1737557724.702,-31.250,-17.578,-21.973,-33.203,0.000
1737557724.706,-21.484,-23.438,-38.574,-35.645,0.000
1737557724.710,-16.602,-25.879,-37.598,-35.156,0.000
1737557724.714,11.719,-23.438,-22.949,-19.043,0.000
1737557724.718,-7.324,-22.949,-17.578,-43.945,0.000
1737557724.722,-40.039,-25.391,-19.043,-47.363,0.000
1737557724.726,-37.109,-23.926,-21.484,12.695,0.000
1737557724.729,-41.992,-18.555,-31.738,2.930,0.000
1737557724.733,-8.789,-16.602,-36.133,-36.133,0.000
1737557724.737,11.230,-19.531,-28.809,-35.156,0.000
1737557724.741,-33.203,-24.414,-28.320,-27.832,0.000
1737557724.745,-44.434,-23.926,-23.438,-9.766,0.000
1737557724.749,-23.438,-23.926,-26.367,-9.277,0.000
1737557724.753,7.324,-23.926,-31.738,-24.414,0.000
1737557724.757,18.066,-18.555,-30.273,-51.758,0.000
1737557724.761,-20.020,-22.461,-34.668,-44.434,0.000
1737557724.765,-31.250,-24.414,-38.574,-8.789,0.000
1737557724.769,-17.578,-19.531,-37.109,6.836,0.000
1737557724.772,-1.953,-19.531,-26.855,2.930,0.000
1737557724.776,-8.301,-15.137,-26.367,-16.113,0.000
1737557724.780,-31.738,-14.160,-34.668,-31.738,0.000
1737557724.784,-27.344,-22.949,-34.668,-33.203,0.000
1737557724.788,0.000,-18.555,-34.180,-20.020,0.000
1737557724.792,0.000,-14.160,-31.738,-19.043,0.000
1737557724.796,0.000,-15.625,-18.555,-23.926,0.000
1737557724.800,0.000,-17.090,-12.207,-41.992,0.000
1737557724.804,0.000,-21.973,-20.020,-23.926,0.000
1737557724.808,0.000,-20.508,-27.344,-23.438,0.000
1737557724.812,0.000,-22.949,-32.227,-36.621,0.000
1737557724.815,0.000,-23.438,-24.902,-15.625,0.000
1737557724.819,0.000,-23.926,-14.648,-21.484,0.000
1737557724.823,0.000,-25.391,-16.602,-41.016,0.000
1737557724.827,0.000,-20.508,-22.461,-33.203,0.000
1737557724.831,0.000,-13.672,-25.879,-18.066,0.000
1737557724.835,-14.648,-6.348,-33.203,0.000,0.000
1737557724.839,-10.742,-8.301,-29.297,0.000,0.000
1737557724.843,-6.836,-20.508,-13.184,0.000,0.000
1737557724.846,-9.277,-23.926,-7.812,0.000,0.000
1737557724.850,-38.086,-19.531,-15.625,0.000,0.000
1737557724.854,-52.734,-11.719,-17.578,0.000,0.000
1737557724.858,-22.949,-7.324,-13.184,0.000,0.000
1737557724.862,-7.324,-11.230,-18.555,0.000,0.000
1737557724.866,-21.973,-15.137,-15.137,0.000,0.000
1737557724.870,-32.227,-13.672,-22.461,0.000,0.000
1737557724.874,-34.180,-16.602,-33.691,0.000,0.000
1737557724.878,-9.277,-17.578,-22.949,0.000,0.000
1737557724.882,-38.086,-15.625,-20.996,-35.156,0.000
1737557724.886,-52.246,-22.461,-21.973,-36.133,0.000
1737557724.889,-23.926,-23.438,-20.508,-29.785,0.000
1737557724.893,5.859,-23.438,-29.297,-31.250,0.000
1737557724.897,-17.090,-31.250,-32.715,-30.273,0.000
1737557724.901,-31.738,-28.320,-28.320,-54.688,0.000
1737557724.905,-46.387,-20.996,-29.785,-63.477,0.000
1737557724.909,-47.852,-20.996,-25.879,-34.668,0.000
1737557724.913,3.906,-20.020,-20.020,-23.926,0.000
1737557724.917,-12.695,-20.996,-28.809,-36.133,0.000
1737557724.921,-55.176,-21.973,-39.062,-52.246,0.000
1737557724.925,-48.828,-21.973,-33.203,-20.508,0.000
1737557724.929,0.000,-17.578,-33.203,-13.672,0.000
1737557724.933,0.000,-23.438,-26.367,-26.855,0.000
1737557724.936,0.000,-25.879,-11.230,-14.160,0.000
1737557724.940,0.000,-23.438,-13.184,-25.391,0.000
1737557724.944,0.000,-19.531,-21.484,-21.484,0.000
1737557724.948,0.000,-16.602,-26.367,-25.391,0.000
1737557724.952,0.000,-18.066,-32.715,-46.875,0.000
1737557724.956,0.000,-13.184,-34.668,-49.316,0.000
1737557724.960,0.000,-16.602,-28.809,-44.922,0.000
1737557724.964,0.000,-27.832,-25.391,-32.715,0.000
1737557724.968,0.000,-29.297,-17.090,-26.367,0.000
1737557724.971,0.000,-15.625,-14.648,-20.020,0.000
1737557724.976,13.184,-10.742,-23.438,-28.809,0.000
1737557724.979,-5.371,-15.625,-23.926,-35.645,0.000
1737557724.983,-36.621,-12.207,-20.020,-17.578,0.000
1737557724.987,-48.340,-12.207,-22.461,-11.230,0.000
1737557724.991,-24.902,-11.719,-25.879,-26.367,0.000
1737557724.995,10.742,-5.371,-26.367,-10.254,0.000
1737557724.999,-8.301,-6.348,-27.832,-5.371,0.000
1737557725.003,-36.621,-9.766,-19.043,-39.551,0.000
1737557725.007,-46.875,-12.695,-10.742,-40.039,0.000
1737557725.011,-47.363,-14.160,-15.625,-21.484,0.000
1737557725.014,-13.184,-12.695,-22.949,-26.367,0.000
1737557725.018,-12.695,-12.695,-25.391,-35.645,0.000
1737557725.022,-53.223,-19.043,-28.320,-37.598,0.000
1737557725.026,-53.223,-14.648,-32.715,-20.508,0.000
1737557725.030,-33.203,-18.066,-26.367,-29.297,0.000
1737557725.034,0.000,-20.508,-27.344,-41.992,0.000
1737557725.038,15.625,-14.648,-42.969,-27.832,0.000
1737557725.042,-15.625,-13.184,-41.504,-12.207,0.000
1737557725.046,-22.949,-13.672,-22.461,-8.789,0.000
1737557725.050,-3.906,-11.230,-16.602,-26.367,0.000
1737557725.054,17.090,-7.812,-13.672,-24.414,0.000
1737557725.057,16.113,-6.836,-14.160,-23.926,0.000
1737557725.061,-21.484,-4.395,-19.043,-37.598,0.000
1737557725.065,-33.203,-7.812,-19.531,-15.137,0.000
1737557725.069,0.000,-13.184,-19.043,0.000,0.000
1737557725.073,0.000,-10.254,-19.043,0.000,0.000
1737557725.077,0.000,-7.324,-26.367,0.000,0.000
1737557725.081,0.000,-16.113,-31.250,0.000,0.000
1737557725.085,0.000,-22.461,-21.973,0.000,0.000
1737557725.089,0.000,-25.879,-13.184,0.000,0.000
1737557725.093,0.000,-29.785,-8.301,0.000,0.000
1737557725.097,0.000,-27.344,-11.230,0.000,0.000
1737557725.100,0.000,-28.320,-18.066,0.000,0.000
1737557725.104,0.000,-27.832,-20.020,0.000,0.000
1737557725.108,0.000,-24.414,-19.043,0.000,0.000
1737557725.112,0.000,-18.066,-23.438,0.000,0.000
1737557725.116,-1.953,-13.672,-26.367,-21.484,0.000
1737557725.120,-20.996,-18.066,-17.578,-23.438,0.000
1737557725.124,-43.457,-24.902,-12.207,-17.090,0.000
1737557725.128,-36.133,-24.902,-7.812,-22.461,0.000
1737557725.132,-4.395,-17.578,-8.301,-32.715,0.000
1737557725.136,6.836,-17.578,-9.277,-20.996,0.000
1737557725.140,-18.555,-24.902,-8.301,-24.902,0.000
1737557725.143,-32.715,-20.996,-17.090,-37.109,0.000
1737557725.147,-26.855,-11.230,-23.926,-22.461,0.000
1737557725.151,11.230,-12.695,-16.113,-12.695,0.000
1737557725.155,21.484,-7.812,-12.695,-20.996,0.000
1737557725.159,-10.254,-4.395,-13.184,-27.344,0.000
1737557725.163,-31.738,-17.578,-15.625,-20.996,0.000
1737557725.167,-36.133,-19.043,-22.949,-3.906,0.000
1737557725.171,-5.371,-10.742,-24.902,-8.301,0.000
1737557725.175,15.137,-11.719,-14.648,-10.742,0.000
1737557725.179,-3.418,-13.672,-6.348,-12.695,0.000
1737557725.183,-17.090,-6.836,-11.230,-32.227,0.000
1737557725.186,-11.719,-9.277,-18.066,-23.438,0.000
1737557725.190,-2.930,-18.555,-20.996,-17.578,0.000
1737557725.194,23.926,-4.883,-14.648,-9.766,0.000
1737557725.198,22.949,3.418,-2.441,0.000,0.000
1737557725.202,-10.742,-0.488,2.441,5.859,0.000
1737557725.206,-19.531,2.441,4.395,24.902,0.000
1737557725.210,1.953,9.766,-3.906,11.719,0.000
1737557725.214,32.715,9.766,-16.602,-24.414,0.000
1737557725.218,17.578,-0.488,-19.043,-11.230,0.000
1737557725.222,-28.320,-4.395,-20.020,5.371,0.000
1737557725.226,-28.320,-3.418,-13.184,1.465,0.000
1737557725.229,-2.441,-3.418,-6.348,-9.277,0.000
1737557725.233,21.973,-8.789,-8.789,-14.648,0.000
1737557725.237,16.602,-15.625,-18.066,-18.555,0.000
1737557725.241,-18.555,-10.742,-13.672,-22.461,0.000
1737557725.245,-20.996,-4.883,0.488,-12.695,0.000
1737557725.249,-25.879,-13.184,-11.230,-13.184,0.000
1737557725.253,-20.020,-20.996,-26.367,-11.230,0.000
1737557725.257,1.953,-24.414,-27.832,-18.555,0.000
1737557725.261,-16.113,-22.949,-33.203,-29.297,0.000
1737557725.265,-37.598,-20.508,-31.250,-33.203,0.000
1737557725.268,-27.344,-23.926,-20.996,-45.898,0.000
1737557725.272,-7.812,-13.672,-6.348,-23.438,0.000
1737557725.276,-2.441,-2.930,-1.465,4.883,0.000
1737557725.280,-22.949,-14.160,-12.207,-15.625,0.000
1737557725.284,-35.645,-24.414,-23.926,-24.902,0.000
1737557725.288,-15.137,-19.043,-35.645,-14.160,0.000
1737557725.292,3.418,-18.555,-30.762,-9.766,0.000
1737557725.296,5.371,-24.902,-20.508,-18.555,0.000
1737557725.300,-16.602,-15.625,-13.672,-17.090,0.000
1737557725.304,-40.527,-12.695,-15.625,-7.812,0.000
1737557725.308,-38.574,-24.902,-20.996,-6.836,0.000
1737557725.311,-21.484,-26.855,-22.461,-0.488,0.000
1737557725.315,-3.906,-25.391,-22.461,-23.438,0.000
1737557725.319,-11.230,-26.855,-22.949,-54.688,0.000
1737557725.323,-32.227,-24.414,-29.785,-27.832,0.000
1737557725.327,-30.762,-17.090,-32.227,-11.719,0.000
1737557725.331,-2.930,-11.719,-28.320,-11.719,0.000
1737557725.335,20.508,-9.277,-33.203,-8.301,0.000
1737557725.339,-9.277,-14.648,-35.645,-15.137,0.000
1737557725.343,-42.480,-20.996,-21.973,-31.250,0.000
1737557725.347,-30.273,-21.973,-12.207,-25.879,0.000
1737557725.351,0.000,-20.020,-5.371,-5.859,0.000
1737557725.354,0.000,-23.926,-9.766,-24.902,0.000
1737557725.358,0.000,-18.555,-20.020,-36.133,0.000
1737557725.362,0.000,-11.230,-29.785,-40.039,0.000
1737557725.366,0.000,-14.160,-32.715,-40.527,0.000
1737557725.370,0.000,-11.719,-14.648,-15.625,0.000
1737557725.374,0.000,-11.719,-9.766,-12.207,0.000
1737557725.378,0.000,-12.207,-14.160,-18.555,0.000
1737557725.382,0.000,-13.672,-20.996,-18.066,0.000
1737557725.386,0.000,-17.578,-15.137,-11.230,0.000
1737557725.390,0.000,-13.672,-6.348,-4.883,0.000
1737557725.393,0.000,-15.625,-11.719,-4.883,0.000
1737557725.397,-5.859,-19.043,-16.602,-29.785,0.000
1737557725.401,-49.805,-19.043,-17.090,-37.109,0.000
1737557725.405,-48.340,-20.508,-17.578,-8.789,0.000
1737557725.409,-23.438,-20.996,-24.414,-18.555,0.000
1737557725.413,-7.324,-22.949,-32.715,-44.434,0.000
1737557725.417,-5.859,-31.250,-26.855,-44.434,0.000
1737557725.421,-31.250,-29.785,-30.762,-47.363,0.000
1737557725.425,-39.062,-22.461,-36.621,-38.086,0.000
1737557725.429,-30.273,-21.973,-28.320,-13.672,0.000
1737557725.433,-20.020,-26.367,-18.555,-14.648,0.000
1737557725.436,-21.484,-26.855,-19.043,-32.227,0.000
1737557725.440,-40.527,-27.344,-28.320,-33.691,0.000
1737557725.444,-32.227,-26.855,0.000,-21.973,0.000
1737557725.448,-23.926,-19.043,0.000,-27.344,0.000
1737557725.452,-8.789,-21.484,0.000,-28.320,0.000
1737557725.456,2.930,-28.809,0.000,-32.715,0.000
1737557725.460,-22.949,-30.273,0.000,-44.922,0.000
1737557725.464,-45.410,-19.531,0.000,-35.645,0.000
1737557725.468,-27.344,-18.066,0.000,-20.020,0.000
1737557725.472,-12.695,-20.996,0.000,-4.395,0.000
1737557725.476,-7.812,-14.648,0.000,-16.602,0.000
1737557725.479,-15.625,-13.184,0.000,-44.434,0.000
1737557725.483,-29.785,-16.602,0.000,-39.062,0.000
1737557725.487,-32.227,-20.020,0.000,-29.297,0.000
1737557725.491,0.000,-17.578,-26.855,-24.902,0.000
1737557725.495,0.000,-19.531,-26.367,-14.648,0.000
1737557725.499,0.000,-20.996,-29.785,-7.324,0.000
1737557725.503,0.000,-21.973,-26.855,-7.324,0.000
1737557725.507,0.000,-29.297,-25.879,-4.395,0.000
1737557725.510,0.000,-30.762,-22.461,-38.574,0.000
1737557725.514,0.000,-20.020,-10.254,-52.246,0.000
1737557725.518,0.000,-6.836,-10.254,-18.555,0.000
1737557725.522,0.000,-4.395,-19.531,-8.789,0.000
1737557725.526,0.000,-4.883,-20.508,-15.625,0.000
1737557725.530,0.000,-5.371,-16.113,-25.391,0.000
1737557725.534,0.000,-4.395,-27.344,-24.414,0.000
1737557725.538,0.000,-5.859,20.996,-44.922,0.000
1737557725.542,-19.531,39.551,72.754,-28.809,0.000
1737557725.546,-40.039,66.895,79.590,-7.324,0.000
1737557725.550,-74.707,0.977,13.672,-52.246,0.000
1737557725.553,-88.867,-47.852,-37.109,-96.680,0.000
1737557725.557,-119.629,-13.672,-8.789,-130.859,0.000
1737557725.561,-167.969,46.387,53.223,-165.039,0.000
1737557725.565,-231.445,8.789,64.453,-209.473,0.000
1737557725.569,-240.723,-16.602,27.832,-239.258,0.000
1737557725.573,-200.684,8.301,22.461,-236.328,0.000
1737557725.577,-230.469,4.395,20.996,-269.531,0.000
1737557725.581,-258.789,6.348,37.109,-287.109,0.000
1737557725.585,-261.719,13.184,68.848,-290.527,0.000
1737557725.589,-256.836,31.250,107.422,-275.879,0.000
1737557725.593,-236.816,41.016,132.324,-258.301,0.000
1737557725.596,-216.309,37.109,148.438,-266.113,0.000
1737557725.600,-201.660,42.969,145.508,-262.695,0.000
1737557725.604,-214.844,48.828,135.742,-249.512,0.000
1737557725.608,-197.266,49.316,155.273,-208.984,0.000
1737557725.612,-165.039,46.387,177.246,-195.801,0.000
1737557725.616,-154.297,35.156,173.340,-161.133,0.000
1737557725.620,-151.855,27.832,157.715,-121.582,0.000
1737557725.624,-131.836,34.668,101.074,-117.188,0.000
1737557725.628,-102.539,13.672,76.172,-98.633,0.000
1737557725.632,-55.664,-4.883,118.652,-36.133,0.000
1737557725.635,-11.230,-2.441,116.699,-1.465,0.000
1737557725.639,-19.043,-11.230,101.074,-5.371,0.000
1737557725.643,-12.207,-19.531,85.449,-16.602,0.000
1737557725.647,0.488,-22.949,66.895,-10.254,0.000
1737557725.651,11.719,-30.762,62.988,23.926,0.000
1737557725.655,43.945,-40.527,43.945,16.602,0.000
1737557725.659,51.270,-42.969,12.695,44.434,0.000
1737557725.663,31.738,-39.551,-0.977,84.473,0.000
1737557725.667,43.457,-42.480,7.324,78.125,0.000
1737557725.671,76.660,-43.457,10.742,68.359,0.000
1737557725.674,81.055,-39.551,12.207,79.590,0.000
1737557725.678,72.266,-42.480,11.230,79.102,0.000
1737557725.682,64.453,-37.598,-1.465,86.426,0.000
1737557725.686,78.613,-28.320,-24.414,111.328,0.000
1737557725.690,80.078,-35.156,-38.574,83.008,0.000
1737557725.694,89.355,-42.969,-51.758,83.984,0.000
1737557725.698,101.074,-41.504,-47.363,59.570,0.000
1737557725.702,52.734,-32.227,-27.344,46.387,0.000
1737557725.706,33.203,-21.973,-32.715,71.289,0.000
1737557725.710,85.449,-14.648,-46.387,67.871,0.000
1737557725.714,97.656,-15.137,-46.387,86.914,0.000
1737557725.717,82.520,-20.508,-32.715,87.891,0.000
1737557725.721,52.246,-24.414,-29.785,55.176,0.000
1737557725.725,0.000,-24.902,-56.152,0.000,0.000
1737557725.729,0.000,-22.949,-64.941,0.000,0.000
1737557725.733,0.000,-23.926,-51.270,0.000,0.000
1737557725.737,0.000,-30.762,-47.852,0.000,0.000
1737557725.741,0.000,-28.809,-57.617,0.000,0.000
1737557725.745,0.000,-26.855,-70.312,0.000,0.000
1737557725.749,0.000,-22.949,-54.688,0.000,0.000
1737557725.753,0.000,-14.648,-34.668,0.000,0.000
1737557725.757,0.000,-15.137,-44.922,0.000,0.000
1737557725.760,0.000,-21.484,-51.270,0.000,0.000
1737557725.764,0.000,-20.996,-45.410,0.000,0.000
1737557725.768,0.000,-11.230,-41.504,0.000,0.000
1737557725.772,65.918,-6.836,-37.109,25.391,0.000
1737557725.776,59.570,-4.883,-34.180,53.223,0.000
1737557725.780,13.672,-15.137,-31.250,36.133,0.000
1737557725.784,-12.695,-31.250,-45.410,27.344,0.000
1737557725.788,-9.766,-38.086,-58.594,31.738,0.000
1737557725.792,32.227,-25.391,-55.176,17.090,0.000
1737557725.796,59.082,-18.555,-45.898,14.160,0.000
1737557725.800,18.066,-20.508,-20.996,9.766,0.000
1737557725.803,-6.836,-12.695,-10.254,11.230,0.000
1737557725.807,-16.113,-9.766,-17.578,25.391,0.000
1737557725.811,12.207,-11.230,-21.973,19.531,0.000
1737557725.815,46.875,-10.742,-36.621,3.906,0.000
1737557725.819,0.000,-16.113,-67.383,-17.090,0.000
1737557725.823,0.000,-15.137,-80.566,-20.508,0.000
1737557725.827,0.000,-25.391,-62.988,-15.625,0.000
1737557725.831,0.000,-38.086,-30.762,-28.809,0.000
1737557725.835,0.000,-37.109,-18.066,-18.555,0.000
1737557725.839,0.000,-32.227,-24.414,-4.395,0.000
1737557725.843,0.000,-24.902,-41.992,-16.113,0.000
1737557725.846,0.000,-25.391,-61.523,-34.180,0.000
1737557725.850,0.000,-29.297,-55.176,-35.645,0.000
1737557725.854,0.000,-30.762,-37.598,-19.531,0.000
1737557725.858,0.000,-28.320,-37.598,-18.555,0.000
1737557725.862,0.000,-20.020,-43.457,-15.137,0.000
1737557725.866,-15.137,-16.113,-23.438,-6.348,0.000
1737557725.870,-7.812,-20.020,-8.301,-27.344,0.000
1737557725.874,-5.371,-21.973,-12.695,-22.949,0.000
1737557725.878,-14.648,-26.367,-22.949,-12.695,0.000
1737557725.882,-36.621,-31.250,-31.250,-20.996,0.000
1737557725.886,-32.715,-24.414,-31.738,-20.508,0.000
1737557725.889,-5.371,-17.578,-33.203,-19.531,0.000
1737557725.893,21.973,-12.695,-31.250,3.906,0.000
1737557725.897,26.367,-12.207,-19.531,12.207,0.000
1737557725.901,-7.324,-17.090,-14.160,-1.465,0.000
1737557725.905,-34.180,-18.066,-11.230,9.766,0.000
1737557725.909,-32.227,-13.184,-21.973,-2.441,0.000
1737557725.913,-18.555,-10.742,-33.203,-30.762,0.000
1737557725.917,-2.930,-14.648,-28.320,-29.785,0.000
1737557725.921,-36.621,-15.137,-27.832,-41.504,0.000
1737557725.925,-54.688,-12.695,-22.461,-24.902,0.000
1737557725.929,-26.367,-15.625,-22.949,-20.508,0.000
1737557725.932,2.441,-18.066,-41.504,-36.133,0.000
1737557725.936,13.184,-18.555,-40.527,-35.156,0.000
1737557725.940,-29.297,-23.926,-38.574,-29.297,0.000
1737557725.944,-48.828,-21.484,-47.363,-29.297,0.000
1737557725.948,-29.297,-13.672,-36.621,-29.297,0.000
1737557725.952,-16.113,-15.137,-25.879,-21.973,0.000
1737557725.956,-19.531,-23.926,-27.344,-29.297,0.000
1737557725.960,-37.598,-23.926,-21.973,-53.711,0.000
1737557725.964,-36.133,-20.020,-25.391,-43.945,0.000
1737557725.968,-15.137,-23.438,-27.832,-19.043,0.000
1737557725.972,-1.953,-24.414,-22.461,-22.461,0.000
1737557725.975,0.000,-24.414,-28.809,-25.879,0.000
1737557725.979,-8.301,-18.066,-19.531,-32.227,0.000
1737557725.983,-26.367,-14.160,-8.301,-30.273,0.000
1737557725.987,-35.156,-15.625,-18.555,-5.371,0.000
1737557725.991,-17.090,-16.602,-31.738,-15.625,0.000
1737557725.995,10.742,-19.043,-37.109,-59.570,0.000
1737557725.999,-13.672,-26.367,-30.762,-36.133,0.000
1737557726.003,-61.523,-35.645,-33.203,-7.812,0.000
1737557726.007,-63.965,-40.527,-35.156,-34.180,0.000
1737557726.011,-43.945,-37.598,-30.273,-42.480,0.000
1737557726.014,-16.602,-24.414,-31.250,-14.160,0.000
1737557726.018,-5.859,-17.578,-31.738,-22.949,0.000
1737557726.022,-32.227,-15.137,-34.180,-36.133,0.000
1737557726.026,-57.617,-14.160,-34.668,-38.086,0.000
1737557726.030,-37.598,-17.578,-32.715,-35.645,0.000
1737557726.034,-0.488,-23.926,-32.715,-16.602,0.000
1737557726.038,-0.977,-24.414,-37.109,-30.762,0.000
1737557726.042,-41.992,-21.973,-33.691,-52.246,0.000
1737557726.046,-63.965,-17.578,-28.809,-23.438,0.000
1737557726.050,-35.645,-14.160,-23.438,1.953,0.000
1737557726.054,1.953,-16.113,-20.996,-13.184,0.000
1737557726.057,-3.906,-17.090,-24.414,-46.387,0.000
1737557726.061,-25.879,-16.602,-23.926,-29.785,0.000
1737557726.065,-27.344,-12.207,-14.160,0.488,0.000
1737557726.069,-13.672,-8.301,-13.672,-3.418,0.000
1737557726.073,17.578,-7.324,-19.043,2.930,0.000
1737557726.077,12.695,-11.230,-19.043,-8.789,0.000
1737557726.081,-26.367,-18.066,-21.973,-35.156,0.000
1737557726.085,-38.086,-14.648,-24.414,-32.227,0.000
1737557726.089,-17.578,-13.672,-24.902,-26.855,0.000
1737557726.093,10.742,-14.648,-19.043,-14.648,0.000
1737557726.096,-0.488,-17.090,-24.902,-22.461,0.000
1737557726.101,0.000,-18.555,-25.391,-42.969,0.000
1737557726.104,0.000,-16.113,-20.996,-37.598,0.000
1737557726.108,0.000,-14.648,-22.949,-27.344,0.000
1737557726.112,0.000,-12.207,-20.996,-23.438,0.000
1737557726.116,0.000,-7.812,-21.484,-32.715,0.000
1737557726.120,0.000,-8.789,-27.344,-39.062,0.000
1737557726.124,0.000,-14.648,-25.879,-29.785,0.000
1737557726.128,0.000,-16.113,-21.484,-26.855,0.000
1737557726.132,0.000,-14.160,-32.227,-27.344,0.000
1737557726.136,0.000,-12.695,-35.645,-28.320,0.000
1737557726.140,0.000,-8.301,-25.391,-31.738,0.000
1737557726.143,0.000,-2.930,-16.113,-26.855,0.000
1737557726.147,-32.715,-3.906,-11.230,-16.113,0.000
1737557726.151,-31.250,-5.371,-6.836,-11.230,0.000
1737557726.155,-36.621,-1.953,-7.324,-19.531,0.000
1737557726.159,-22.461,-4.883,-7.812,-19.043,0.000
1737557726.163,15.137,-5.859,-7.324,2.930,0.000
1737557726.167,-6.836,-1.465,-7.324,2.930,0.000
1737557726.171,-35.645,-4.883,-11.230,-19.531,0.000
1737557726.175,-27.344,-12.207,-15.625,-21.484,0.000
1737557726.178,-10.742,-19.043,-15.625,-17.578,0.000
1737557726.182,-3.906,-15.625,-15.137,-11.719,0.000
1737557726.186,-6.836,-4.883,-13.672,-1.465,0.000
1737557726.190,-10.254,7.812,-16.602,-2.930,0.000
1737557726.194,6.348,16.602,0.000,-22.461,0.000
1737557726.198,-10.254,20.020,0.000,-35.645,0.000
1737557726.202,-45.410,24.414,0.000,-53.711,0.000
1737557726.206,-50.781,29.297,0.000,-62.988,0.000
1737557726.210,-42.969,33.203,0.000,-64.941,0.000
1737557726.214,-47.852,34.668,0.000,-89.844,0.000
1737557726.218,-74.707,37.598,0.000,-111.328,0.000
1737557726.222,-107.910,42.480,0.000,-111.328,0.000
1737557726.225,-90.332,51.270,0.000,-89.355,0.000
1737557726.229,-56.641,58.105,0.000,-82.031,0.000
1737557726.233,-41.504,55.176,0.000,-93.262,0.000
1737557726.237,-36.133,47.852,0.000,-106.445,0.000
1737557726.241,-47.363,44.922,-47.363,-106.445,0.000
1737557726.245,-58.105,41.992,-45.898,-84.473,0.000
1737557726.249,-38.086,40.039,-49.805,-63.965,0.000
1737557726.253,-9.277,42.480,-44.922,-52.734,0.000
1737557726.257,-11.230,34.180,-47.363,-60.547,0.000
1737557726.261,-33.203,29.297,-47.363,-76.172,0.000
1737557726.264,-64.941,28.320,-41.016,-62.012,0.000
1737557726.268,-58.105,19.531,-39.551,-49.316,0.000
1737557726.272,-18.066,11.230,-32.715,-59.082,0.000
1737557726.276,-1.465,16.113,-22.461,-67.871,0.000
1737557726.280,-22.461,17.090,-19.531,-74.219,0.000
1737557726.284,-37.598,9.766,-20.508,-53.223,0.000
1737557726.288,-36.133,9.277,-32.227,-40.039,0.000
1737557726.292,-25.879,4.883,-39.062,-44.434,0.000
1737557726.296,-11.230,8.301,-27.344,-37.598,0.000
1737557726.300,-46.387,16.602,-21.484,-41.016,0.000
1737557726.304,-53.711,9.277,-21.973,-23.926,0.000
1737557726.307,-21.484,3.418,-18.555,-14.160,0.000
1737557726.311,10.254,7.324,-23.438,-48.828,0.000
1737557726.315,-8.301,6.348,-37.109,-47.363,0.000
1737557726.319,-41.504,4.395,-34.180,-31.250,0.000
1737557726.323,-42.480,8.789,-19.043,-42.480,0.000
1737557726.327,-33.691,9.277,-5.371,-37.598,0.000
1737557726.331,-36.133,0.977,-5.859,-33.691,0.000
1737557726.335,0.000,-5.859,0.000,0.000,0.000
1737557726.339,0.000,-6.836,0.000,0.000,0.000
1737557726.343,0.000,-17.578,0.000,0.000,0.000
1737557726.347,0.000,-26.855,0.000,0.000,0.000
1737557726.350,0.000,-25.879,0.000,0.000,0.000
1737557726.354,0.000,-14.160,0.000,0.000,0.000
1737557726.358,0.000,-13.184,0.000,0.000,0.000
1737557726.362,0.000,-17.090,0.000,0.000,0.000
1737557726.366,0.000,-14.160,0.000,0.000,0.000
1737557726.370,0.000,-11.719,0.000,0.000,0.000
1737557726.374,0.000,-4.883,0.000,0.000,0.000
1737557726.378,0.000,-2.441,0.000,0.000,0.000
1737557726.381,-26.855,-10.254,-2.441,-29.297,0.000
1737557726.385,-13.672,-8.789,-8.301,-31.738,0.000
1737557726.389,-43.945,-10.742,-18.066,-51.270,0.000
1737557726.393,-52.246,-6.836,-16.113,-17.090,0.000
1737557726.397,-13.184,-6.836,-20.508,-13.184,0.000
1737557726.401,12.207,-20.508,-25.391,-47.852,0.000
1737557726.405,-14.648,-30.762,-28.809,-52.734,0.000
1737557726.409,-49.316,-28.809,-33.691,-45.898,0.000
1737557726.413,-43.457,-21.484,-27.344,-53.711,0.000
1737557726.417,-24.414,-17.090,-20.996,-38.574,0.000
1737557726.420,0.488,-20.020,-23.438,-9.277,0.000
1737557726.424,-0.488,-27.344,-21.973,-9.277,0.000
1737557726.428,-37.598,-21.484,0.000,3.418,0.000
1737557726.432,-26.367,-28.320,0.000,16.602,0.000
1737557726.436,-6.348,-31.738,0.000,-2.441,0.000
1737557726.440,11.719,-23.438,0.000,-17.578,0.000
1737557726.444,19.531,-33.691,0.000,-30.762,0.000
1737557726.448,-30.762,-36.621,0.000,-25.879,0.000
1737557726.451,-67.871,-23.438,0.000,-22.461,0.000
1737557726.455,-47.363,-15.137,0.000,-51.270,0.000
1737557726.459,-14.160,-15.137,0.000,-62.012,0.000
1737557726.463,0.000,-17.578,0.000,-26.367,0.000
1737557726.467,-4.395,-20.020,0.000,-2.930,0.000
1737557726.471,-26.367,-25.879,0.000,-11.719,0.000
1737557726.475,-24.902,-29.297,-32.227,-20.020,0.000
1737557726.479,-2.930,-28.320,-29.785,-31.250,0.000
1737557726.483,4.883,-25.391,-27.832,-32.715,0.000
1737557726.487,-3.418,-27.344,-26.367,-24.902,0.000
1737557726.490,-37.598,-26.367,-27.832,-22.949,0.000
1737557726.494,-52.246,-25.879,-28.320,-42.969,0.000
1737557726.498,-24.902,-24.414,-28.809,-49.316,0.000
1737557726.502,-16.602,-25.391,-35.645,-36.133,0.000
1737557726.506,-32.715,-30.762,-32.715,-32.227,0.000
1737557726.510,-34.180,-30.762,-22.949,-12.207,0.000
1737557726.514,-20.996,-25.879,-18.555,-16.602,0.000
1737557726.518,-6.348,-19.531,-13.672,-25.879,0.000
1737557726.522,-8.301,-24.902,-10.254,-18.555,0.000
1737557726.526,-31.250,-26.367,-17.578,-10.254,0.000
1737557726.530,-40.039,-21.484,-19.043,-4.883,0.000
1737557726.533,-0.488,-18.066,-9.766,-5.859,0.000
1737557726.537,13.672,-11.719,-18.066,-12.695,0.000
1737557726.541,-13.184,-16.113,-19.043,-10.254,0.000
1737557726.545,-21.484,-19.043,-10.254,-4.395,0.000
1737557726.549,1.465,-12.207,-18.555,-30.273,0.000
1737557726.553,24.414,-7.812,-22.949,-43.457,0.000
1737557726.557,2.441,-1.953,-15.137,-27.832,0.000
1737557726.561,-21.973,0.000,-7.324,-13.184,0.000
1737557726.565,-19.531,-3.418,-8.301,2.930,0.000
1737557726.569,-9.766,-1.465,-7.812,4.395,0.000
1737557726.573,9.766,-4.395,-7.324,4.883,0.000
1737557726.576,13.184,-8.789,-10.742,7.812,0.000
1737557726.580,-2.930,-8.789,-7.812,5.859,0.000
1737557726.584,-20.508,-16.113,-7.324,7.812,0.000
1737557726.588,-3.906,-25.391,-5.371,24.902,0.000
1737557726.592,15.137,-28.809,0.488,13.672,0.000
1737557726.596,9.766,-24.414,-5.371,-21.484,0.000
1737557726.600,-9.277,-22.949,-11.230,-52.246,0.000
1737557726.604,-18.555,-28.320,-13.672,-28.809,0.000
1737557726.608,-1.953,-35.645,-6.836,38.086,0.000
1737557726.611,30.273,-47.363,1.953,56.152,0.000
1737557726.615,41.016,-60.059,1.465,54.199,0.000
1737557726.619,6.348,-69.336,-1.953,46.875,0.000
1737557726.623,-19.531,-75.195,4.395,35.645,0.000
1737557726.627,-20.508,-81.543,8.789,45.410,0.000
1737557726.631,-13.184,-86.426,-1.953,68.359,0.000
1737557726.635,2.441,-87.891,-0.488,66.406,0.000
1737557726.639,0.000,-89.355,10.742,44.434,0.000
1737557726.643,-16.113,-99.121,14.648,8.301,0.000
1737557726.647,-9.766,-94.238,16.113,0.000,0.000
1737557726.651,7.324,-79.590,14.648,34.180,0.000
1737557726.654,24.902,-76.660,3.906,41.504,0.000
1737557726.658,5.371,-75.684,0.977,19.043,0.000
1737557726.662,-38.574,-72.754,-3.906,-1.465,0.000
1737557726.666,-42.969,-78.125,-9.766,14.648,0.000
1737557726.670,-12.695,-81.055,-5.859,30.762,0.000
1737557726.674,19.043,-67.383,-6.836,14.160,0.000
1737557726.678,9.766,-55.176,-2.930,-8.301,0.000
1737557726.682,-7.324,-51.758,9.766,-7.812,0.000
1737557726.686,-13.184,-47.852,12.207,20.996,0.000
1737557726.690,-2.441,-48.828,5.859,32.227,0.000
1737557726.694,23.438,-53.223,2.930,16.113,0.000
1737557726.697,-11.230,-53.223,0.000,-6.348,0.000
1737557726.701,-32.715,-53.711,-1.953,-8.789,0.000
1737557726.705,-19.043,-50.781,2.441,6.836,0.000
1737557726.709,0.000,-43.457,0.000,4.395,0.000
1737557726.713,0.000,-39.551,0.000,9.277,0.000
1737557726.717,0.000,-32.227,0.000,15.137,0.000
1737557726.721,0.000,-28.809,0.000,1.465,0.000
1737557726.725,0.000,-25.879,0.000,-7.812,0.000
1737557726.729,0.000,-20.020,0.000,10.742,0.000
1737557726.733,0.000,-19.531,0.000,36.621,0.000
1737557726.736,0.000,-21.484,0.000,26.367,0.000
1737557726.740,0.000,-26.855,0.000,1.953,0.000
1737557726.744,0.000,-30.273,0.000,0.977,0.000
1737557726.748,0.000,-27.832,0.000,12.207,0.000
1737557726.752,0.000,-29.297,0.000,9.766,0.000
1737557726.756,11.719,-27.832,-12.695,-28.809,0.000
1737557726.760,-0.488,-24.414,-15.137,-64.941,0.000
1737557726.764,-30.273,-27.832,-9.766,-13.672,0.000
1737557726.768,-23.926,-21.484,-4.883,41.016,0.000
1737557726.772,24.414,-13.672,-8.789,46.875,0.000
1737557726.776,21.484,-17.090,-11.719,18.066,0.000
1737557726.779,-31.738,-25.879,-12.207,-16.602,0.000
1737557726.783,-53.711,-23.438,-8.301,-4.883,0.000
1737557726.787,-38.574,-22.949,-6.836,9.277,0.000
1737557726.791,-6.348,-24.414,-19.531,-5.371,0.000
1737557726.795,11.230,-17.090,-28.320,-8.301,0.000
1737557726.799,-11.719,-24.414,-23.438,-15.625,0.000
1737557726.803,-27.832,-23.438,-16.602,-47.852,0.000
1737557726.807,-27.344,-11.230,-19.531,-40.039,0.000
1737557726.811,-7.812,-11.230,-19.043,-17.578,0.000
1737557726.815,11.230,-12.207,-20.996,-3.906,0.000
1737557726.818,-6.348,-6.348,-19.531,-0.977,0.000
1737557726.822,-28.809,-6.348,-13.184,-12.207,0.000
1737557726.826,-17.578,-15.625,-14.160,-2.930,0.000
1737557726.830,-8.789,-20.508,-12.207,-13.184,0.000
1737557726.834,-3.418,-14.160,-13.184,-26.855,0.000
1737557726.838,13.672,-1.953,-17.578,-13.184,0.000
1737557726.842,-12.207,2.441,-13.184,-20.996,0.000
1737557726.846,-34.668,-1.953,-7.812,-10.254,0.000
1737557726.850,-5.371,-7.324,-3.418,5.371,0.000
1737557726.854,11.230,-10.742,-8.301,-14.648,0.000
1737557726.858,-5.371,-15.137,-9.277,-27.344,0.000
1737557726.861,-32.715,-22.949,-9.277,-31.250,0.000
1737557726.865,-50.293,-17.090,-14.648,-27.832,0.000
1737557726.869,-26.855,-15.625,-20.508,-23.438,0.000
1737557726.873,-4.883,-19.531,-9.766,-17.578,0.000
1737557726.877,-3.418,-10.254,0.488,-14.160,0.000
1737557726.881,-14.648,-12.207,-7.812,-32.227,0.000
1737557726.885,-44.922,-19.043,-13.672,-26.855,0.000
1737557726.889,-52.734,-17.578,-23.926,-21.484,0.000
1737557726.893,-18.555,-10.742,-24.414,-29.785,0.000
1737557726.897,-10.254,-15.137,-17.090,-14.648,0.000
1737557726.901,-32.715,-23.438,-21.484,-27.832,0.000
1737557726.904,-31.250,-21.973,-24.902,-25.391,0.000
1737557726.908,-19.531,-21.973,-23.438,-17.090,0.000
1737557726.912,7.324,-23.926,-29.785,-15.137,0.000
1737557726.916,12.695,-20.996,-23.438,-8.789,0.000
1737557726.920,-34.180,-21.973,-9.766,-15.625,0.000
1737557726.924,-29.297,-28.320,-15.625,-27.344,0.000
1737557726.928,-17.090,-25.879,-16.113,-38.574,0.000
1737557726.932,-26.367,-19.531,-10.254,-14.648,0.000
1737557726.936,3.418,-12.207,-7.812,-7.812,0.000
1737557726.940,-18.555,-12.207,-12.207,-31.250,0.000
1737557726.944,-39.062,-14.648,0.000,-12.207,0.000
1737557726.947,-22.461,-11.230,0.000,2.930,0.000
1737557726.951,-8.301,-11.230,0.000,-0.488,0.000
1737557726.955,-4.883,-14.160,0.000,-17.578,0.000
1737557726.959,-20.508,-20.020,0.000,-41.504,0.000
1737557726.963,-43.945,-23.438,0.000,-33.203,0.000
1737557726.967,-49.316,-21.973,0.000,-8.789,0.000
1737557726.971,-33.691,-18.066,0.000,0.488,0.000
1737557726.975,-17.578,-16.602,0.000,1.953,0.000
1737557726.979,-4.395,-18.555,0.000,-33.203,0.000
1737557726.983,-14.160,-22.461,0.000,-38.086,0.000
1737557726.986,-41.016,-24.414,0.000,-11.719,0.000
1737557726.990,-19.043,-20.020,-12.695,-42.480,0.000
1737557726.994,17.578,-17.578,-14.160,-32.227,0.000
1737557726.998,0.488,-15.137,-16.113,-19.531,0.000
1737557727.002,-40.527,-16.602,-13.672,-20.020,0.000
1737557727.006,-43.945,-22.461,-5.859,-10.742,0.000
1737557727.010,-13.184,-20.508,-8.789,-27.344,0.000
1737557727.014,2.441,-17.578,-18.555,-15.137,0.000
1737557727.018,4.883,-17.090,-20.996,-3.906,0.000
1737557727.022,-12.695,-14.648,-12.207,-28.809,0.000
1737557727.026,-28.809,-16.113,-4.395,-12.207,0.000
1737557727.029,-36.133,-20.020,-6.836,0.977,0.000
1737557727.033,-8.789,-19.531,-13.672,-19.531,0.000
1737557727.037,1.953,-19.043,-20.996,-23.438,0.000
1737557727.041,-41.992,-16.602,-23.438,-35.645,0.000
1737557727.045,-59.082,-18.555,-20.020,-34.668,0.000
1737557727.049,-30.762,-19.531,-20.996,-22.461,0.000
1737557727.053,1.953,-14.160,-14.648,-43.457,0.000
1737557727.057,-1.465,-8.301,-6.836,-27.832,0.000
1737557727.061,-22.949,-8.301,-7.812,-24.902,0.000
1737557727.065,-28.320,-14.160,-7.324,-19.531,0.000
1737557727.068,-1.465,-24.414,-9.766,7.812,0.000
1737557727.072,-13.672,-27.344,-15.625,-12.695,0.000
1737557727.076,-10.742,-23.438,-22.461,-24.414,0.000
1737557727.080,6.348,-21.973,-23.926,-22.461,0.000
1737557727.084,-24.414,-19.531,0.000,-17.090,0.000
1737557727.088,-28.320,-21.973,0.000,-14.160,0.000
1737557727.092,-1.953,-19.531,0.000,-27.832,0.000
1737557727.096,7.324,-17.578,0.000,-43.457,0.000
1737557727.100,-15.137,-20.020,0.000,-37.109,0.000
1737557727.104,-34.668,-19.531,0.000,-12.207,0.000
1737557727.108,-26.367,-19.043,0.000,-2.930,0.000
1737557727.111,-11.230,-21.484,0.000,-15.625,0.000
1737557727.115,0.488,-27.344,0.000,-19.531,0.000
1737557727.119,-17.090,-17.090,0.000,-17.090,0.000
1737557727.123,-26.367,-12.207,0.000,-12.207,0.000
1737557727.127,-19.531,-20.996,0.000,-20.508,0.000
1737557727.131,-9.766,-21.973,-27.344,2.930,0.000
1737557727.135,7.812,-18.555,-24.902,11.719,0.000
1737557727.139,-8.301,-20.508,-27.832,-21.484,0.000
1737557727.143,-40.039,-23.438,-35.156,-23.438,0.000
1737557727.147,-39.062,-24.414,-32.227,-25.391,0.000
1737557727.151,-21.973,-22.461,-26.367,-38.574,0.000
1737557727.154,-16.113,-21.484,-23.438,-23.438,0.000
1737557727.158,-37.109,-24.902,-24.414,-20.996,0.000
1737557727.162,-53.711,-21.484,-27.344,-21.484,0.000
1737557727.166,-30.762,-21.973,-29.785,-13.184,0.000
1737557727.170,-12.207,-27.832,-33.691,-19.043,0.000
1737557727.174,3.906,-28.320,-30.762,-8.789,0.000
1737557727.178,-6.836,-28.809,-28.809,-14.648,0.000
1737557727.182,-35.156,-30.762,-30.762,-38.574,0.000
1737557727.186,-26.855,-31.250,-25.391,-33.203,0.000
1737557727.190,-25.879,-27.344,-22.949,-45.898,0.000
1737557727.193,-38.574,-18.066,-23.438,-52.734,0.000
1737557727.197,-32.715,-11.230,-22.461,-40.039,0.000
1737557727.201,-38.574,-5.859,-18.066,-39.062,0.000
1737557727.205,-34.668,-10.742,-13.672,-30.273,0.000
1737557727.209,-8.789,-17.090,-15.625,-17.578,0.000
1737557727.213,4.883,-21.973,-17.578,-8.301,0.000
1737557727.217,-4.395,-28.809,-20.996,-11.230,0.000
1737557727.221,-20.996,-27.832,-25.391,-32.715,0.000
1737557727.225,-42.480,-25.391,-18.555,-31.250,0.000
1737557727.229,-41.992,-23.926,-13.672,-20.020,0.000
1737557727.233,-6.836,-18.066,-10.742,-29.785,0.000
1737557727.236,3.418,-17.578,-13.672,-43.457,0.000
1737557727.240,-27.832,-16.602,-13.184,-51.270,0.000
1737557727.244,-33.203,-17.090,-17.090,-55.176,0.000
1737557727.248,-22.461,-22.949,-31.738,-31.250,0.000
1737557727.252,-13.184,-27.832,-31.250,2.930,0.000
1737557727.256,-3.906,-30.273,-23.926,-15.625,0.000
1737557727.260,-24.414,-33.203,-20.020,-36.133,0.000
1737557727.264,-55.664,-26.855,-13.672,-20.020,0.000
1737557727.268,-69.336,-15.137,-8.789,-18.066,0.000
1737557727.272,0.000,-15.137,-11.230,-25.391,0.000
1737557727.276,0.000,-20.020,-25.391,-19.531,0.000
1737557727.279,0.000,-19.531,-37.109,-32.715,0.000
1737557727.283,0.000,-21.484,-34.668,-39.551,0.000
1737557727.287,0.000,-20.508,-24.902,-36.133,0.000
1737557727.291,0.000,-13.672,-16.602,-46.875,0.000
1737557727.295,0.000,-18.555,-19.043,-28.320,0.000
1737557727.299,0.000,-20.996,-20.508,-13.672,0.000
1737557727.303,0.000,-20.020,-17.090,-7.812,0.000
1737557727.307,0.000,-23.438,-28.809,-14.160,0.000
1737557727.311,0.000,-19.531,-39.062,-14.648,0.000
1737557727.315,0.000,-16.602,-28.809,-16.602,0.000
1737557727.319,-2.441,-16.113,-18.555,-20.020,0.000
1737557727.322,-13.672,-13.672,-21.484,-19.531,0.000
1737557727.326,-28.320,-17.090,-35.645,-16.113,0.000
1737557727.330,-15.625,-14.160,-44.434,-3.906,0.000
1737557727.334,7.812,-12.207,-31.738,-4.395,0.000
1737557727.338,-15.137,-21.973,-22.949,-28.320,0.000
1737557727.342,-41.992,-22.461,-26.855,-57.617,0.000
1737557727.346,-33.691,-13.672,-24.414,-29.785,0.000
1737557727.350,-24.902,-16.113,-23.926,-18.066,0.000
1737557727.354,-19.043,-20.020,-28.809,-4.395,0.000
1737557727.358,7.324,-20.020,-30.273,-9.277,0.000
1737557727.361,-1.953,-23.926,-27.344,-36.621,0.000
1737557727.365,-32.227,-27.832,-24.414,-3.906,0.000
1737557727.369,-41.016,-28.809,-25.879,-4.395,0.000
1737557727.373,-9.277,-22.461,-29.297,-29.297,0.000
1737557727.377,1.465,-23.438,-21.484,-20.508,0.000
1737557727.381,-36.133,-23.438,-20.020,-13.672,0.000
1737557727.385,-38.574,-14.160,-27.344,-10.742,0.000
1737557727.389,-31.250,-12.695,-28.320,-31.250,0.000
1737557727.393,-12.695,-20.508,-29.785,-16.602,0.000
1737557727.397,3.418,-24.414,-21.484,2.441,0.000
1737557727.401,-23.926,-20.020,-14.160,-24.414,0.000
1737557727.404,-32.227,-19.531,-23.926,-34.668,0.000
1737557727.408,-37.109,-17.090,-24.414,-22.461,0.000
1737557727.412,-16.113,-12.695,-18.555,2.441,0.000
1737557727.416,2.441,-18.555,-19.531,-0.977,0.000
1737557727.420,-41.992,-23.926,-21.973,-44.922,0.000
1737557727.424,-56.641,-27.344,-16.113,-42.480,0.000
1737557727.428,-42.969,-29.785,-14.160,-7.812,0.000
1737557727.432,-22.949,-28.320,-18.555,-6.836,0.000
1737557727.436,1.465,-23.926,-15.137,-18.066,0.000
1737557727.440,-21.973,-15.137,-17.578,-33.691,0.000
1737557727.443,-35.156,-16.113,-20.508,-7.812,0.000
1737557727.447,-24.414,-24.414,-21.973,10.254,0.000
1737557727.451,-14.648,-24.414,-35.645,-11.230,0.000
1737557727.455,2.930,-18.066,-38.086,-27.344,0.000
1737557727.459,-10.254,-18.066,-32.715,-38.086,0.000
1737557727.463,-31.738,-18.066,-30.762,-38.574,0.000
1737557727.467,-41.992,-13.184,-19.531,-22.461,0.000
1737557727.471,-29.297,-11.719,-9.766,-8.301,0.000
1737557727.475,-1.465,-14.648,-9.766,-6.348,0.000
1737557727.479,-14.160,-13.184,-23.926,-18.066,0.000
1737557727.483,-32.715,-19.043,-30.273,-36.133,0.000
1737557727.486,-36.621,-23.438,-21.484,-22.461,0.000
1737557727.490,-38.574,-21.973,-13.184,-2.930,0.000
1737557727.494,3.418,-20.020,-17.090,4.395,0.000
1737557727.498,7.324,-14.648,-22.461,-15.625,0.000
1737557727.502,-26.367,-19.531,-20.996,-33.203,0.000
1737557727.506,0.000,-27.832,-14.648,-7.812,0.000
1737557727.510,0.000,-26.855,-13.672,-1.465,0.000
1737557727.514,0.000,-15.625,-14.648,-20.508,0.000
1737557727.518,0.000,-10.742,-13.672,-47.852,0.000
1737557727.522,0.000,-12.695,-12.207,-56.641,0.000
1737557727.526,0.000,-17.578,-15.625,-38.574,0.000
1737557727.529,0.000,-28.809,-25.391,-29.785,0.000
1737557727.533,0.000,-29.297,-24.902,-50.781,0.000
1737557727.537,0.000,-20.508,-20.508,-57.129,0.000
1737557727.541,0.000,-12.695,-26.855,-28.320,0.000
1737557727.545,0.000,-11.719,-38.574,-19.043,0.000
1737557727.549,0.000,-14.160,-41.504,-12.207,0.000
1737557727.553,-3.906,-14.648,-21.484,2.441,0.000
1737557727.557,-5.371,-14.648,-7.324,-10.254,0.000
1737557727.561,-26.855,-15.625,-1.953,-29.297,0.000
1737557727.565,-43.945,-19.043,-0.488,-45.410,0.000
1737557727.569,-38.574,-17.578,-12.207,-35.645,0.000
1737557727.572,-9.277,-14.160,-22.461,1.465,0.000
1737557727.576,0.977,-12.207,-25.879,0.000,0.000
1737557727.580,-20.508,-15.137,-18.555,-41.992,0.000
1737557727.584,-51.758,-21.484,-19.043,-33.691,0.000
1737557727.588,-39.551,-22.949,-32.715,-29.785,0.000
1737557727.592,-13.184,-16.602,-26.367,-41.504,0.000
1737557727.596,8.301,-6.348,-30.762,-22.949,0.000
1737557727.600,0.000,-13.184,-34.668,-18.555,0.000
1737557727.604,0.000,-25.391,-28.320,-6.348,0.000
1737557727.608,0.000,-19.531,-34.180,-14.160,0.000
1737557727.612,0.000,-11.719,-20.508,-31.250,0.000
1737557727.615,0.000,-4.395,-7.324,-25.879,0.000
1737557727.619,0.000,-4.883,-12.207,-28.320,0.000
1737557727.623,0.000,-12.695,-19.043,-30.762,0.000
1737557727.627,0.000,-12.695,-24.902,-10.254,0.000
1737557727.631,0.000,-14.648,-39.062,-14.160,0.000
1737557727.635,0.000,-16.602,-37.109,-17.090,0.000
1737557727.639,0.000,-15.625,-26.855,-16.113,0.000
1737557727.643,0.000,-18.555,-31.250,-12.207,0.000
1737557727.647,-11.719,-22.949,0.000,-39.551,0.000
1737557727.650,-53.711,-19.043,0.000,-39.062,0.000
1737557727.654,-36.621,-16.113,0.000,-13.184,0.000
1737557727.658,-14.648,-13.184,0.000,-33.203,0.000
1737557727.662,-2.930,-6.836,0.000,-29.297,0.000
1737557727.666,-5.371,-7.324,0.000,-8.301,0.000
1737557727.670,-40.527,-10.742,0.000,3.906,0.000
1737557727.674,-31.250,-13.672,0.000,-12.207,0.000
1737557727.678,-4.395,-20.508,0.000,-35.645,0.000
1737557727.682,0.488,-20.508,0.000,-34.180,0.000
1737557727.686,-2.930,-17.578,0.000,-20.996,0.000
1737557727.689,-39.062,-25.391,0.000,-22.461,0.000
1737557727.693,-3.906,-25.879,-24.414,-19.531,0.000
1737557727.697,-15.625,-20.996,-27.344,-35.645,0.000
1737557727.701,-46.387,-15.137,-22.461,-63.965,0.000
1737557727.705,-43.945,-9.766,-31.738,-50.293,0.000
1737557727.709,-12.207,-11.230,-41.992,-20.508,0.000
1737557727.713,17.090,-3.418,-36.133,-4.883,0.000
1737557727.717,11.230,-1.465,-29.785,-26.367,0.000
1737557727.721,-18.066,-7.812,-17.090,-41.504,0.000
1737557727.725,-45.410,-11.719,-12.207,-37.109,0.000
1737557727.729,-50.293,-18.555,-15.137,-29.297,0.000
1737557727.732,-6.348,-14.648,-17.090,-12.695,0.000
1737557727.736,22.949,-15.137,-19.531,-6.348,0.000
1737557727.740,-31.738,-17.578,-19.531,-29.297,0.000
1737557727.744,-56.641,-13.672,-18.555,-55.664,0.000
1737557727.748,-24.902,-14.648,-17.090,-26.367,0.000
1737557727.752,16.113,-9.277,-15.625,5.371,0.000
1737557727.756,19.043,-10.742,-19.531,-15.625,0.000
1737557727.760,-3.906,-19.043,-12.695,-28.320,0.000
1737557727.764,-21.484,-20.996,-6.836,-27.832,0.000
1737557727.768,-39.551,-23.926,-17.578,-20.020,0.000
1737557727.771,-16.113,-20.996,-18.066,-10.254,0.000
1737557727.775,3.418,-21.973,-17.090,-8.301,0.000
1737557727.779,-20.996,-31.738,-27.832,-27.832,0.000
1737557727.783,-53.711,-26.367,-30.273,-48.340,0.000
1737557727.787,-42.969,-12.695,-26.855,-25.879,0.000
1737557727.791,-1.465,-14.648,-23.438,-18.555,0.000
1737557727.795,17.090,-12.207,-25.391,-18.066,0.000
1737557727.799,3.906,-5.371,-25.879,-19.043,0.000
1737557727.803,-21.484,-12.695,-11.719,-14.160,0.000
1737557727.807,-31.738,-19.043,-5.371,-10.254,0.000
1737557727.811,-14.160,-18.555,-14.648,-26.367,0.000
1737557727.814,-1.465,-25.879,-17.090,-23.926,0.000
1737557727.818,-2.930,-30.273,-18.066,-28.809,0.000
1737557727.822,-49.805,-27.344,-22.949,-39.062,0.000
1737557727.826,-65.430,-22.461,-16.113,-22.949,0.000
1737557727.830,-25.391,-20.996,-15.625,-10.254,0.000
1737557727.834,-5.859,-18.066,-21.484,-12.695,0.000
1737557727.838,0.000,-15.137,-18.555,-30.762,0.000
1737557727.842,-14.648,-19.043,-20.996,-16.602,0.000
1737557727.846,-29.785,-22.461,-25.879,-29.297,0.000
1737557727.850,-33.203,-21.484,-16.113,-36.621,0.000
1737557727.854,-17.090,-16.113,-13.184,-27.344,0.000
1737557727.857,-11.230,-19.531,-11.719,-18.555,0.000
1737557727.861,-53.711,-26.367,-7.812,-22.949,0.000
1737557727.865,-75.195,-21.973,-13.184,-28.809,0.000
1737557727.869,-52.734,-19.531,-15.625,-4.395,0.000
1737557727.873,-24.414,-24.414,-20.996,-15.625,0.000
1737557727.877,1.953,-21.973,-23.926,-45.410,0.000
1737557727.881,-16.602,-16.602,-13.672,-37.598,0.000
1737557727.885,-41.504,-15.137,-16.113,-21.484,0.000
1737557727.889,-22.461,-13.672,-20.508,-24.414,0.000
1737557727.893,12.207,-14.648,-20.508,-31.738,0.000
1737557727.896,13.672,-18.555,-19.043,-24.902,0.000
1737557727.900,-8.789,-18.555,-19.531,-30.273,0.000
1737557727.904,-27.344,-19.043,-27.344,-25.391,0.000
1737557727.908,-31.738,-17.578,-32.715,-0.977,0.000
1737557727.912,-12.207,-13.184,-24.414,-19.043,0.000
1737557727.916,0.000,-17.090,-12.207,-34.668,0.000
1737557727.920,-15.625,-22.461,-9.766,-41.504,0.000
1737557727.924,-42.480,-18.555,-10.742,-40.039,0.000
1737557727.928,-49.805,-10.742,-14.160,-14.648,0.000
1737557727.932,-28.809,-11.719,-24.902,-10.742,0.000
1737557727.936,-11.230,-17.090,-26.367,-41.992,0.000
1737557727.939,-20.996,-15.625,-18.555,-45.898,0.000
1737557727.943,-35.156,-14.648,-21.484,-5.859,0.000
1737557727.947,-35.645,-15.137,-28.809,-8.789,0.000
1737557727.951,-19.043,-17.578,-24.414,-20.508,0.000
1737557727.955,-1.465,-27.344,-20.508,-9.277,0.000
1737557727.959,-20.996,-22.461,-18.066,-28.809,0.000
1737557727.963,-46.875,-18.066,-13.672,-38.574,0.000
1737557727.967,-36.621,-20.996,-7.812,-2.441,0.000
1737557727.971,-2.441,-13.672,3.906,13.184,0.000
1737557727.975,25.879,-16.602,0.488,5.371,0.000
1737557727.979,1.465,-17.090,-10.254,-25.391,0.000
1737557727.982,-41.504,-11.230,-9.277,-41.992,0.000
1737557727.986,-37.109,-13.184,-12.695,-22.949,0.000
1737557727.990,2.441,-8.789,-14.160,-12.207,0.000
1737557727.994,6.348,-0.977,-17.578,-2.930,0.000
1737557727.998,-21.484,-6.836,-24.414,-31.738,0.000
1737557728.002,-33.203,-7.324,-19.043,-66.895,0.000
1737557728.006,-37.109,-7.324,-17.578,-37.598,0.000
1737557728.010,-11.719,-11.230,-18.066,-4.395,0.000
1737557728.014,7.812,-12.207,-11.719,29.297,0.000
1737557728.018,-9.277,-19.043,-10.742,-0.488,0.000
1737557728.022,0.000,-20.996,-13.184,-46.875,0.000
1737557728.025,0.000,-15.137,-15.625,-19.531,0.000
1737557728.029,0.000,-19.043,-15.137,-0.488,0.000
1737557728.033,0.000,-21.484,-13.184,-4.395,0.000
1737557728.037,0.000,-26.855,-17.090,-20.020,0.000
1737557728.041,0.000,-32.227,-19.531,-13.184,0.000
1737557728.045,0.000,-24.414,-26.367,-16.113,0.000
1737557728.049,0.000,-19.531,-29.297,-35.156,0.000
1737557728.053,0.000,-17.090,-23.926,-29.785,0.000
1737557728.057,0.000,-17.578,-25.391,-50.293,0.000
1737557728.061,0.000,-17.578,-24.902,-45.898,0.000
1737557728.064,0.000,-18.555,-25.391,-7.324,0.000
1737557728.068,-13.672,-20.996,-24.902,-18.555,0.000
1737557728.072,-17.090,-19.531,-17.578,-33.691,0.000
1737557728.076,-26.367,-19.043,-16.602,5.371,0.000
1737557728.080,-16.113,-20.020,-23.438,7.324,0.000
1737557728.084,-13.672,-20.020,-19.043,-31.250,0.000
1737557728.088,-25.391,-14.648,-16.602,-23.926,0.000
1737557728.092,-20.996,-10.742,-20.996,-19.531,0.000
1737557728.096,-15.625,-12.207,-18.555,-29.297,0.000
1737557728.099,-8.301,-16.113,-23.438,-33.203,0.000
1737557728.103,-11.719,-12.695,-28.809,-23.926,0.000
1737557728.107,-31.250,-9.766,-27.344,9.766,0.000
1737557728.111,-41.504,-15.625,-24.902,5.859,0.000
1737557728.115,-12.207,-14.160,-20.020,-2.930,0.000
1737557728.119,-1.465,-11.230,-16.113,-9.277,0.000
1737557728.123,-20.020,-16.113,-20.020,-27.344,0.000
1737557728.127,-17.578,-19.043,-14.648,-22.949,0.000
1737557728.131,3.906,-21.973,-16.602,-21.484,0.000
1737557728.135,11.230,-20.508,-28.320,-19.531,0.000
1737557728.139,-30.762,-15.137,-28.809,-17.090,0.000
1737557728.142,-53.223,-18.555,-19.043,-2.441,0.000
1737557728.146,-31.738,-12.695,-5.371,7.812,0.000
1737557728.150,-1.465,-9.277,-5.371,3.906,0.000
1737557728.154,22.949,-13.672,-9.766,-2.930,0.000
1737557728.158,-0.488,-17.578,-10.742,-27.344,0.000
1737557728.162,0.000,-16.113,0.000,0.000,0.000
1737557728.166,0.000,-9.277,0.000,0.000,0.000
1737557728.170,0.000,-4.395,0.000,0.000,0.000
1737557728.174,0.000,-4.395,0.000,0.000,0.000
1737557728.178,0.000,-5.371,0.000,0.000,0.000
1737557728.182,0.000,-7.324,0.000,0.000,0.000
1737557728.185,0.000,-14.648,0.000,0.000,0.000
1737557728.189,0.000,-17.578,0.000,0.000,0.000
1737557728.193,0.000,-21.484,0.000,0.000,0.000
1737557728.197,0.000,-22.949,0.000,0.000,0.000
1737557728.201,0.000,-21.484,0.000,0.000,0.000
1737557728.205,0.000,-20.020,0.000,0.000,0.000
1737557728.209,-33.203,-18.555,-22.461,-13.672,0.000
1737557728.213,-15.137,-15.625,-26.367,-30.273,0.000
1737557728.217,-13.672,-18.066,-21.484,-42.969,0.000
1737557728.220,-29.297,-19.531,-12.695,-50.781,0.000
1737557728.224,-45.410,-16.602,-6.348,-22.949,0.000
1737557728.228,-49.316,-18.066,-7.324,-16.602,0.000
1737557728.232,-17.578,-19.043,-11.719,-43.457,0.000
1737557728.236,-5.371,-20.020,-20.508,-54.688,0.000
1737557728.240,-28.320,-14.160,-19.531,-53.223,0.000
1737557728.244,-46.875,-9.277,-18.066,-35.645,0.000
1737557728.248,-45.410,-12.695,-25.391,-11.719,0.000
1737557728.252,-23.926,-10.742,-30.273,-6.836,0.000
1737557728.255,-8.301,-11.230,-20.996,-20.508,0.000
1737557728.259,-14.160,-9.766,-13.184,-25.391,0.000
1737557728.263,-46.387,-10.254,-15.625,-22.461,0.000
1737557728.267,-58.594,-15.137,-17.090,-30.762,0.000
1737557728.271,-17.578,-13.184,-22.461,-29.297,0.000
1737557728.275,-3.418,-17.578,-25.391,-20.996,0.000
1737557728.279,-29.297,-27.832,-26.367,-37.598,0.000
1737557728.283,-34.180,-35.645,-22.949,-37.598,0.000
1737557728.287,-53.711,-40.527,-17.090,-44.434,0.000
1737557728.290,-35.645,-24.902,-20.508,-53.711,0.000
1737557728.294,12.207,-9.766,-23.438,-32.227,0.000
1737557728.298,-8.301,-6.836,-22.461,-27.344,0.000
1737557728.302,-39.062,-8.301,-15.137,-18.555,0.000
1737557728.306,-17.578,-10.742,-10.742,5.371,0.000
1737557728.310,-9.766,-3.418,-7.324,4.883,0.000
1737557728.314,-25.391,-6.348,-8.789,-5.371,0.000
1737557728.318,-18.066,-16.602,-13.184,-24.414,0.000
1737557728.322,-20.020,-13.184,-16.602,-25.391,0.000
1737557728.326,-20.020,-11.719,-12.695,0.000,0.000
1737557728.330,-6.836,-15.137,-14.160,-13.672,0.000
1737557728.333,12.695,-16.602,-14.160,-19.043,0.000
1737557728.337,-1.465,-17.090,-14.648,-18.066,0.000
1737557728.341,-20.508,-20.508,-25.391,-29.297,0.000
1737557728.345,-33.203,-21.484,-30.762,-17.090,0.000
1737557728.349,-41.992,-20.508,-25.391,-20.508,0.000
1737557728.353,-8.789,-16.602,-20.508,-13.184,0.000
1737557728.357,5.859,-10.254,-30.762,-10.742,0.000
1737557728.361,-19.043,-10.254,-41.016,-41.504,0.000
1737557728.365,-35.156,-17.090,-24.902,-14.648,0.000
1737557728.369,-26.855,-22.461,-4.395,-21.484,0.000
1737557728.373,-16.602,-20.996,-0.977,-45.410,0.000
1737557728.376,-5.859,-19.043,-7.324,-31.738,0.000
1737557728.380,-18.555,-17.578,-13.672,-33.203,0.000
1737557728.384,-33.203,-20.508,-20.996,-10.742,0.000
1737557728.388,-19.043,-19.531,-20.508,-2.441,0.000
1737557728.392,-0.488,-10.742,-14.648,-8.789,0.000
1737557728.396,-10.742,-18.555,-14.648,-20.996,0.000
1737557728.400,-23.926,-20.508,-10.742,-27.344,0.000
1737557728.404,-31.738,-15.137,4.395,-20.508,0.000
1737557728.408,-22.949,0.977,7.812,4.883,0.000
1737557728.412,13.672,28.320,35.645,25.391,0.000
1737557728.416,6.348,15.137,37.598,0.977,0.000
1737557728.419,-13.672,14.648,23.438,-6.348,0.000
1737557728.423,-33.691,-6.348,18.066,-17.578,0.000
1737557728.427,-47.363,11.719,52.734,-28.809,0.000
1737557728.431,0.488,136.230,145.020,-2.930,0.000
1737557728.435,2.930,97.168,41.504,-30.762,0.000
1737557728.439,-84.961,-55.664,-72.266,-98.633,0.000
1737557728.443,0.000,-64.941,-15.137,-176.758,0.000
1737557728.447,0.000,-28.809,32.227,-214.844,0.000
1737557728.451,0.000,3.418,56.152,-199.707,0.000
1737557728.455,0.000,56.641,71.289,-196.777,0.000
1737557728.459,0.000,75.684,73.730,-219.727,0.000
1737557728.462,0.000,110.352,95.215,-244.629,0.000
1737557728.466,0.000,161.621,114.258,-254.883,0.000
1737557728.470,0.000,189.453,130.371,-256.348,0.000
1737557728.474,0.000,216.309,155.273,-232.422,0.000
1737557728.478,0.000,239.258,163.574,-216.797,0.000
1737557728.482,0.000,252.930,154.785,-239.258,0.000
1737557728.486,0.000,249.512,159.180,-211.914,0.000
1737557728.490,-156.250,235.352,182.129,-171.875,0.000
1737557728.494,-209.961,229.492,173.828,-193.359,0.000
1737557728.497,-219.727,218.262,136.719,-223.145,0.000
1737557728.501,-195.801,194.336,125.488,-172.363,0.000
1737557728.505,-214.844,177.734,131.836,-62.988,0.000
1737557728.509,-239.258,154.297,119.141,-44.922,0.000
1737557728.513,-247.070,131.836,96.680,-27.832,0.000
1737557728.517,-250.977,110.840,78.125,-3.906,0.000
1737557728.521,-218.750,89.355,67.383,-25.879,0.000
1737557728.525,-183.594,73.242,35.645,-9.766,0.000
1737557728.529,-222.168,46.387,-6.836,28.809,0.000
1737557728.533,-218.750,23.438,11.719,37.109,0.000
1737557728.537,49.316,1.465,24.414,35.156,0.000
1737557728.540,14.160,-20.020,-12.207,8.789,0.000
1737557728.544,19.531,-32.227,-16.602,20.020,0.000
1737557728.548,40.039,-35.156,-13.672,49.805,0.000
1737557728.552,62.500,-45.898,-20.996,50.293,0.000
1737557728.556,73.730,-64.941,-15.137,48.828,0.000
1737557728.560,45.410,-68.359,-25.391,43.457,0.000
1737557728.564,44.434,-73.730,-55.664,51.270,0.000
1737557728.568,38.574,-78.613,-62.012,65.430,0.000
1737557728.572,34.668,-76.172,-33.691,68.848,0.000
1737557728.576,61.035,-76.172,-38.086,38.086,0.000
1737557728.579,36.621,-77.148,-59.082,23.926,0.000
1737557728.583,0.000,-71.777,-59.570,60.547,0.000
1737557728.587,0.000,-70.312,-60.059,32.715,0.000
1737557728.591,0.000,-73.730,-48.828,35.645,0.000
1737557728.595,0.000,-73.242,-43.457,74.707,0.000
1737557728.599,0.000,-74.707,-57.617,25.391,0.000
1737557728.603,0.000,-70.312,-59.082,28.809,0.000
1737557728.607,0.000,-65.430,-60.059,49.805,0.000
1737557728.611,0.000,-69.336,-68.848,32.227,0.000
1737557728.615,0.000,-66.895,-59.082,28.320,0.000
1737557728.618,0.000,-62.500,-55.664,21.484,0.000
1737557728.622,0.000,-61.523,-66.406,24.414,0.000
1737557728.626,0.000,-64.941,-68.359,24.902,0.000
1737557728.630,30.273,-65.918,-74.219,3.906,0.000
1737557728.634,53.223,-61.523,-82.031,29.785,0.000
1737557728.638,46.875,-53.711,-69.824,22.949,0.000
1737557728.642,17.090,-47.852,-51.270,1.953,0.000
1737557728.646,26.855,-45.410,-41.016,35.156,0.000
1737557728.650,36.621,-45.898,-35.645,35.156,0.000
1737557728.654,44.922,-52.246,-38.086,12.695,0.000
1737557728.658,42.969,-49.316,-41.992,-6.348,0.000
1737557728.661,-12.207,-45.410,-38.086,6.836,0.000
1737557728.665,-39.062,-42.480,-50.781,30.762,0.000
1737557728.669,12.695,-37.598,-58.594,20.508,0.000
1737557728.673,54.688,-43.945,-40.039,15.137,0.000
1737557728.677,39.062,-45.898,-35.156,-7.812,0.000
1737557728.681,4.883,-46.875,-40.039,5.371,0.000
1737557728.685,-7.324,-43.945,-40.039,28.320,0.000
1737557728.689,13.184,-45.898,-39.062,15.137,0.000
1737557728.693,20.020,-44.434,-37.598,2.441,0.000
1737557728.697,-3.418,-38.086,-34.668,-4.883,0.000
1737557728.701,-20.020,-49.316,-36.133,-5.859,0.000
1737557728.704,-16.113,-59.570,-39.551,2.930,0.000
1737557728.708,-1.953,-56.152,-37.598,16.602,0.000
1737557728.712,4.395,-54.199,-39.551,-4.883,0.000
1737557728.716,25.391,-58.105,-40.039,-31.250,0.000
1737557728.720,10.254,-55.664,-38.574,-12.695,0.000
1737557728.724,-22.949,-51.270,-33.691,-2.441,0.000
1737557728.728,-14.160,-49.805,-26.855,-4.883,0.000
1737557728.732,8.789,-49.805,-22.949,1.465,0.000
1737557728.736,16.113,-46.387,-20.508,-5.371,0.000
1737557728.740,-16.602,-41.992,-22.949,-4.883,0.000
1737557728.744,-28.320,-42.969,-25.879,16.602,0.000
1737557728.747,-2.930,-41.992,-25.879,18.555,0.000
1737557728.751,8.789,-40.039,-29.297,-10.742,0.000
1737557728.755,0.977,-41.992,-32.715,-33.203,0.000
1737557728.759,-20.508,-45.898,-28.320,-63.965,0.000
1737557728.763,-34.180,-44.434,-22.461,-53.711,0.000
1737557728.767,-29.785,-36.621,-18.066,-22.461,0.000
1737557728.771,-17.090,-37.598,-14.648,6.836,0.000
1737557728.775,-6.348,-39.062,-11.230,23.438,0.000
1737557728.779,-29.785,-35.156,-16.602,-21.973,0.000
1737557728.783,-43.945,-39.062,-34.180,-28.320,0.000
1737557728.787,-25.391,-38.574,-45.898,-3.418,0.000
1737557728.790,1.953,-27.832,-41.016,-17.578,0.000
1737557728.794,24.414,-23.926,-28.320,-15.137,0.000
1737557728.798,2.930,-26.855,-30.762,-42.480,0.000
1737557728.802,-22.461,-27.832,-25.879,-71.289,0.000
1737557728.806,-21.973,-27.832,-8.301,-24.902,0.000
1737557728.810,-22.949,-30.273,-10.254,4.395,0.000
1737557728.814,-15.625,-33.203,-16.602,1.465,0.000
1737557728.818,-30.273,-29.297,-25.391,-18.066,0.000
1737557728.822,-37.598,-21.484,-39.551,-22.949,0.000
1737557728.826,-16.113,-23.438,-36.133,-1.953,0.000
1737557728.830,-7.812,-24.902,-21.484,-17.578,0.000
1737557728.833,5.371,-28.320,-19.531,-30.762,0.000
1737557728.837,-0.488,-30.273,-27.832,-36.133,0.000
1737557728.841,-32.227,-33.691,-24.414,-52.246,0.000
1737557728.845,-18.066,-32.715,-21.484,-46.387,0.000
1737557728.849,-26.367,-34.668,-21.973,-43.945,0.000
1737557728.853,-20.508,-33.691,-25.391,-44.922,0.000
1737557728.857,0.000,-27.344,-20.996,-39.551,0.000
1737557728.861,-25.391,-26.855,-4.395,-22.949,0.000
1737557728.865,-39.551,-23.926,-11.230,-20.020,0.000
1737557728.869,-22.461,-28.809,-24.414,-22.461,0.000
1737557728.872,-9.766,-31.738,-21.973,-10.742,0.000
1737557728.876,-7.812,-27.832,-20.996,-14.648,0.000
1737557728.880,-4.395,-27.344,-22.461,-25.391,0.000
1737557728.884,-31.738,-21.484,-19.043,-25.879,0.000
1737557728.888,-47.363,-16.602,-21.973,-41.504,0.000
1737557728.892,-21.973,-13.672,-28.809,-28.809,0.000
1737557728.896,-13.184,-17.578,-27.832,-33.691,0.000
1737557728.900,-15.625,-22.949,-22.461,-19.043,0.000
1737557728.904,-23.438,-22.949,-36.621,-1.465,0.000
1737557728.908,-23.438,-18.066,-36.621,-9.277,0.000
1737557728.912,0.488,-15.625,-18.555,-5.371,0.000
1737557728.915,14.160,-18.555,-22.949,-9.766,0.000
1737557728.919,-11.230,-16.113,-18.066,-24.414,0.000
1737557728.923,-34.180,-17.090,-11.230,-39.551,0.000
1737557728.927,-35.645,-18.555,-20.996,-17.090,0.000
1737557728.931,-35.645,-19.531,-27.344,-3.418,0.000
1737557728.935,-7.324,-18.555,-20.996,-8.301,0.000
1737557728.939,0.000,-20.020,-21.484,-11.230,0.000
1737557728.943,-11.719,-18.066,-34.180,-13.184,0.000
1737557728.947,-9.277,-16.113,-30.762,6.836,0.000
1737557728.951,-11.230,-23.926,-20.020,-22.949,0.000
1737557728.954,-5.859,-21.973,-21.973,-54.199,0.000
1737557728.958,-11.719,-14.160,-22.461,-29.785,0.000
1737557728.962,-26.367,-19.043,-21.484,-39.062,0.000
1737557728.966,-31.738,-20.508,-19.531,-38.574,0.000
1737557728.970,-23.438,-20.020,-21.484,-2.441,0.000
1737557728.974,-4.395,-21.973,-28.320,5.371,0.000
1737557728.978,-5.859,-25.391,-26.367,-10.742,0.000
1737557728.982,-17.578,-27.832,-22.949,-30.273,0.000
1737557728.986,-20.508,-22.461,-26.855,-26.855,0.000
1737557728.990,-14.648,-19.531,-22.461,-22.949,0.000
1737557728.993,-8.301,-24.414,-23.926,-32.715,0.000
1737557728.997,-24.414,-27.344,-27.344,-26.855,0.000
1737557729.001,-29.297,-22.949,-16.602,-16.602,0.000
1737557729.005,-27.344,-19.043,-9.277,-12.207,0.000
1737557729.009,-25.879,-24.902,-28.809,-10.742,0.000
1737557729.013,1.953,-19.531,-41.992,0.488,0.000
1737557729.017,19.043,-12.207,-24.414,0.977,0.000
1737557729.021,-7.324,-20.508,-15.137,-12.207,0.000
1737557729.025,-23.926,-18.066,-8.789,-4.395,0.000
1737557729.029,-10.742,-13.672,-8.789,-7.324,0.000
1737557729.033,5.371,-14.648,-14.648,-22.949,0.000
1737557729.036,6.836,-15.137,-7.324,-30.762,0.000
1737557729.040,-25.879,-15.137,-15.137,-36.133,0.000
1737557729.044,-49.805,-11.719,-22.461,-12.207,0.000
1737557729.048,-36.621,-11.719,-20.508,2.441,0.000
1737557729.052,0.000,-16.113,-20.020,0.000,0.000
1737557729.056,0.000,-19.531,-13.184,-5.371,0.000
1737557729.060,0.000,-19.043,-15.137,-15.137,0.000
1737557729.064,0.000,-19.043,-17.090,4.883,0.000
1737557729.068,0.000,-18.066,-9.277,6.836,0.000
1737557729.072,0.000,-14.160,-13.184,-15.137,0.000
1737557729.075,0.000,-13.184,-14.160,-14.648,0.000
1737557729.079,0.000,-15.137,-18.555,-13.184,0.000
1737557729.083,0.000,-15.625,-37.109,-5.859,0.000
1737557729.087,0.000,-15.625,-23.438,-8.301,0.000
1737557729.091,0.000,-18.066,0.488,-20.020,0.000
1737557729.095,0.000,-20.508,-9.766,-21.484,0.000
1737557729.099,-11.719,-22.949,-22.949,-16.113,0.000
1737557729.103,-38.086,-18.555,-19.043,-6.836,0.000
1737557729.107,-20.020,-16.113,-7.812,2.441,0.000
1737557729.111,-3.906,-13.184,-5.371,-9.277,0.000
1737557729.115,4.883,-7.812,-11.719,-12.695,0.000
1737557729.119,-7.324,-9.766,-16.113,-4.883,0.000
1737557729.122,-36.621,-15.625,-20.996,-0.488,0.000
1737557729.126,-34.180,-22.949,-17.578,8.789,0.000
1737557729.130,-6.348,-18.555,-9.766,-2.930,0.000
1737557729.134,12.207,-13.672,-18.555,-4.883,0.000
1737557729.138,-11.719,-16.113,-28.809,-27.344,0.000
1737557729.142,-33.203,-21.484,-26.367,-37.598,0.000
1737557729.146,0.000,-23.926,-18.555,-13.672,0.000
1737557729.150,0.000,-17.090,-11.230,9.277,0.000
1737557729.154,0.000,-10.742,-14.648,-2.930,0.000
1737557729.158,0.000,-13.184,-22.949,-27.832,0.000
1737557729.162,0.000,-17.578,-29.785,-28.320,0.000
1737557729.165,0.000,-12.695,-23.926,5.859,0.000
1737557729.169,0.000,-13.184,-13.672,32.715,0.000
1737557729.173,0.000,-11.719,-8.301,19.043,0.000
1737557729.177,0.000,-9.766,-12.695,-4.883,0.000
1737557729.181,0.000,-16.602,-34.668,-28.320,0.000
1737557729.185,0.000,-11.230,-41.504,-26.367,0.000
1737557729.189,0.000,-12.695,-21.484,-20.508,0.000
1737557729.193,12.695,-14.160,-4.883,-17.090,0.000
1737557729.197,12.207,-13.672,-11.719,-11.719,0.000
1737557729.201,-15.625,-18.555,-17.578,-16.602,0.000
1737557729.205,-26.855,-12.695,-15.625,-5.859,0.000
1737557729.208,-22.949,-12.695,-16.602,1.465,0.000
1737557729.212,-7.812,-18.066,-12.207,-0.488,0.000
1737557729.216,4.883,-15.137,-13.672,-18.066,0.000
1737557729.220,-26.855,-16.113,-26.367,-46.875,0.000
1737557729.224,-39.551,-17.578,-26.367,-42.969,0.000
1737557729.228,-34.668,-21.484,-21.973,-24.902,0.000
1737557729.232,-20.020,-27.344,-10.742,-11.230,0.000
1737557729.236,0.977,-27.832,-13.672,-5.371,0.000
1737557729.240,-17.090,-28.320,-33.203,-21.973,0.000
1737557729.244,-45.410,-26.367,-23.438,-34.668,0.000
1737557729.247,-43.945,-19.531,-4.883,-30.273,0.000
1737557729.251,-13.184,-16.113,-1.465,-14.648,0.000
1737557729.255,3.906,-17.578,-8.789,-7.324,0.000
1737557729.259,-0.488,-27.344,-26.855,-28.320,0.000
1737557729.263,-21.973,-31.738,-33.203,-33.691,0.000
1737557729.267,-41.016,-28.320,-25.879,-24.414,0.000
1737557729.271,-22.461,-25.879,-15.137,-42.480,0.000
1737557729.275,-2.930,-22.461,-13.184,-68.359,0.000
1737557729.279,-32.715,-25.879,-22.461,-55.664,0.000
1737557729.283,-39.551,-23.438,-29.785,-27.832,0.000
1737557729.287,-25.391,-22.461,0.000,-9.766,0.000
1737557729.290,-16.602,-22.461,0.000,-5.859,0.000
1737557729.294,-15.137,-17.578,0.000,-20.508,0.000
1737557729.298,-18.555,-20.508,0.000,-42.969,0.000
1737557729.302,-14.160,-16.113,0.000,-27.832,0.000
1737557729.306,-17.090,-15.625,0.000,-11.719,0.000
1737557729.310,-13.184,-18.555,0.000,-22.949,0.000
1737557729.314,-1.953,-19.531,0.000,-22.949,0.000
1737557729.318,-14.160,-20.996,0.000,-30.273,0.000
1737557729.322,-49.805,-19.531,0.000,-44.434,0.000
1737557729.326,-61.035,-18.066,0.000,-51.758,0.000
1737557729.329,-36.621,-13.184,0.000,-22.461,0.000
1737557729.333,0.000,-12.695,-26.855,-1.953,0.000
1737557729.337,0.000,-15.625,-20.020,-22.949,0.000
1737557729.341,0.000,-18.555,-20.508,-29.785,0.000
1737557729.345,0.000,-19.531,-16.113,-18.555,0.000
1737557729.349,0.000,-13.184,-21.484,-16.602,0.000
1737557729.353,0.000,-11.719,-29.297,-9.277,0.000
1737557729.357,0.000,-14.160,-17.578,-12.695,0.000
1737557729.361,0.000,-18.066,-11.719,-23.438,0.000
1737557729.364,0.000,-23.438,-16.602,-25.391,0.000
1737557729.368,0.000,-19.531,-32.715,-11.719,0.000
1737557729.372,0.000,-16.113,-29.297,-6.348,0.000
1737557729.376,0.000,-17.578,-15.137,-27.344,0.000
1737557729.380,-14.648,-18.066,-29.785,-58.594,0.000
1737557729.384,-15.137,-17.578,-38.086,-27.832,0.000
1737557729.388,-28.320,-15.625,-38.086,-7.324,0.000
1737557729.392,-22.949,-22.461,-23.438,-33.203,0.000
1737557729.396,15.137,-28.809,-10.254,-20.508,0.000
1737557729.400,-4.883,-26.855,-13.672,-12.207,0.000
1737557729.403,-24.414,-21.973,-26.367,-13.672,0.000
1737557729.407,-23.438,-19.531,-24.414,-21.484,0.000
1737557729.411,-20.508,-19.043,-17.090,-37.598,0.000
1737557729.415,-3.906,-24.414,-22.461,-35.645,0.000
1737557729.419,-16.113,-27.832,-26.367,-25.879,0.000
1737557729.423,-41.016,-23.438,-28.320,-15.625,0.000
1737557729.427,-25.879,-21.484,-20.020,-4.883,0.000
1737557729.431,-4.395,-17.578,-10.742,-9.766,0.000
1737557729.435,2.930,-14.160,-14.160,-45.410,0.000
1737557729.439,-4.883,-7.324,-8.789,-44.922,0.000
1737557729.443,-31.738,-0.977,-7.812,-9.277,0.000
1737557729.446,-30.762,-5.859,-4.883,2.930,0.000
1737557729.450,-13.672,0.000,13.672,-16.602,0.000
1737557729.454,-10.254,14.648,55.176,-38.574,0.000
1737557729.458,-9.277,8.301,80.566,-29.297,0.000
1737557729.462,-11.230,37.598,16.602,-13.672,0.000
1737557729.466,-25.391,69.824,22.461,-21.484,0.000
1737557729.470,-33.203,54.688,111.816,-45.410,0.000
1737557729.474,-65.430,25.879,70.801,-63.965,0.000
1737557729.478,-83.496,-33.691,-30.762,-87.891,0.000
1737557729.482,-110.352,-21.484,-13.672,-121.094,0.000
1737557729.486,-174.316,42.480,60.059,-162.598,0.000
1737557729.489,-209.961,81.543,86.914,-198.730,0.000
1737557729.493,-194.336,141.113,83.984,-208.496,0.000
1737557729.497,-196.777,207.031,94.727,-232.422,0.000
1737557729.501,-232.910,289.062,142.578,-249.023,0.000
1737557729.505,-263.184,437.988,169.434,-251.953,0.000
1737557729.509,-268.555,701.660,230.469,-283.203,0.000
1737557729.513,-223.633,936.035,298.828,-270.996,0.000
1737557729.517,-205.566,973.145,395.996,-255.371,0.000
1737557729.521,0.000,964.355,0.000,-289.062,0.000
1737557729.525,0.000,971.680,0.000,-267.090,0.000
1737557729.529,0.000,970.703,0.000,-243.164,0.000
1737557729.532,0.000,970.703,0.000,-225.098,0.000
1737557729.536,0.000,970.703,0.000,-250.000,0.000
1737557729.540,0.000,970.703,0.000,-256.836,0.000
1737557729.544,0.000,971.191,0.000,-219.727,0.000
1737557729.548,0.000,969.238,0.000,-190.918,0.000
1737557729.552,0.000,967.285,0.000,-190.918,0.000
1737557729.556,0.000,972.656,0.000,-179.199,0.000
1737557729.560,0.000,867.188,0.000,-131.836,0.000
1737557729.564,0.000,691.406,0.000,-76.660,0.000
1737557729.568,-45.410,565.918,605.957,-41.504,0.000
1737557729.572,-44.434,442.383,516.602,-20.996,0.000
1737557729.575,-41.992,338.867,436.523,-22.461,0.000
1737557729.579,-6.836,254.395,382.812,-24.414,0.000
1737557729.583,-4.395,172.363,338.379,1.953,0.000
1737557729.587,21.973,111.328,266.113,34.180,0.000
1737557729.591,46.875,84.473,157.227,79.102,0.000
1737557729.595,67.871,73.730,91.309,74.219,0.000
1737557729.599,71.289,36.621,56.152,60.547,0.000
1737557729.603,53.711,-24.902,4.395,53.711,0.000
1737557729.607,46.875,-67.383,-61.035,72.266,0.000
1737557729.610,53.223,-96.680,-100.586,105.469,0.000
1737557729.615,93.262,-132.812,-82.520,100.098,0.000
1737557729.618,99.121,-158.203,-103.516,106.445,0.000
1737557729.622,81.055,-180.176,-128.906,93.750,0.000
1737557729.626,81.543,-205.566,-155.762,86.914,0.000
1737557729.630,72.266,-220.215,-188.965,112.305,0.000
1737557729.634,102.051,-224.121,-190.430,100.586,0.000
1737557729.638,107.910,-234.863,-188.477,48.340,0.000
1737557729.642,55.664,-241.699,-203.613,68.848,0.000
1737557729.646,28.809,-243.164,-221.191,99.609,0.000
1737557729.650,52.246,-248.047,-225.098,81.543,0.000
1737557729.653,89.355,-245.117,-235.840,93.750,0.000
1737557729.657,96.680,-235.352,-224.609,100.098,0.000
1737557729.661,76.172,-231.445,-206.055,95.703,0.000
1737557729.665,69.824,-227.539,-214.844,98.145,0.000
1737557729.669,79.590,-220.215,-221.191,75.684,0.000
1737557729.673,88.379,-217.773,-213.379,68.359,0.000
1737557729.677,76.172,-217.285,-205.078,72.266,0.000
1737557729.681,38.086,-220.703,-214.355,23.438,0.000
1737557729.685,15.625,-220.215,-226.562,20.996,0.000
1737557729.689,47.852,-216.309,-211.426,69.824,0.000
1737557729.693,83.496,-211.426,-192.871,68.359,0.000
1737557729.696,60.547,-212.891,-198.242,32.715,0.000
1737557729.700,28.809,-215.332,-195.801,30.273,0.000
1737557729.704,26.367,-208.496,-185.547,43.457,0.000
1737557729.708,36.621,-200.684,-188.965,45.410,0.000
1737557729.712,60.059,-201.660,-193.359,27.344,0.000
1737557729.716,73.242,-200.684,-199.707,10.742,0.000
1737557729.720,24.902,-193.359,-199.219,2.441,0.000
1737557729.724,0.000,-191.406,-172.363,21.973,0.000
1737557729.728,7.812,-191.406,-148.438,13.672,0.000
1737557729.732,14.160,-189.941,-142.090,25.391,0.000
1737557729.736,43.945,-184.082,-153.320,47.852,0.000
1737557729.739,33.203,-173.828,-152.344,11.719,0.000
1737557729.743,7.812,-174.805,-139.160,10.254,0.000
1737557729.747,13.184,-179.688,-131.348,24.414,0.000
1737557729.751,12.207,-167.969,-136.230,21.973,0.000
1737557729.755,36.621,-155.273,-144.531,11.719,0.000
1737557729.759,27.832,-150.879,-141.602,-10.742,0.000
1737557729.763,-14.160,-148.438,-132.812,-17.578,0.000
1737557729.767,2.930,-148.438,-117.188,2.441,0.000
1737557729.771,17.578,-145.996,-103.516,14.648,0.000
1737557729.775,32.227,-141.113,-95.703,20.508,0.000
1737557729.779,14.160,-141.113,-103.027,6.348,0.000
1737557729.782,-17.578,-142.090,-106.934,-16.602,0.000
1737557729.786,-12.695,-133.301,-113.281,6.836,0.000
1737557729.790,17.090,-130.859,-122.559,13.672,0.000
1737557729.794,40.039,-131.836,-109.375,-29.297,0.000
1737557729.798,8.301,-124.512,-99.121,-34.668,0.000
1737557729.802,0.000,-123.535,0.000,-17.090,0.000
1737557729.806,0.000,-130.371,0.000,-0.488,0.000
1737557729.810,0.000,-123.535,0.000,12.207,0.000
1737557729.814,0.000,-112.793,0.000,-8.301,0.000
1737557729.818,0.000,-113.770,0.000,-22.949,0.000
1737557729.822,0.000,-115.234,0.000,-19.531,0.000
1737557729.825,0.000,-108.887,0.000,-3.418,0.000
1737557729.829,0.000,-104.980,0.000,-23.438,0.000
1737557729.833,0.000,-102.051,0.000,-41.504,0.000
1737557729.837,0.000,-104.980,0.000,-35.645,0.000
1737557729.841,0.000,-109.863,0.000,-23.438,0.000
1737557729.845,0.000,-106.934,0.000,-10.254,0.000
1737557729.849,-16.113,-102.539,-80.566,-22.461,0.000
1737557729.853,15.625,-95.703,-75.684,-11.719,0.000
1737557729.857,22.461,-87.402,-77.637,-12.207,0.000
1737557729.861,0.000,-81.055,-76.172,-38.574,0.000
1737557729.865,-17.090,-80.078,-58.594,-3.906,0.000
1737557729.868,-6.836,-82.520,-59.082,13.672,0.000
1737557729.872,19.043,-78.613,-63.965,-34.180,0.000
1737557729.876,13.184,-76.172,-54.688,-50.781,0.000
1737557729.880,7.812,-75.684,-54.199,-22.461,0.000
1737557729.884,4.883,-78.613,-60.547,8.301,0.000
1737557729.888,-9.766,-79.102,-57.129,-13.184,0.000
1737557729.892,-2.930,-73.730,-62.988,-28.320,0.000
1737557729.896,0.000,-74.219,-67.383,-2.441,0.000
1737557729.900,0.000,-73.242,-58.594,-5.371,0.000
1737557729.904,0.000,-67.871,-47.852,-7.812,0.000
1737557729.908,0.000,-67.383,-40.527,-1.465,0.000
1737557729.911,0.000,-64.941,-50.293,-11.719,0.000
1737557729.915,0.000,-64.941,-56.641,-1.953,0.000
1737557729.919,0.000,-69.336,-49.805,-27.832,0.000
1737557729.923,0.000,-65.430,-49.805,-38.574,0.000
1737557729.927,0.000,-59.082,-47.363,-12.207,0.000
1737557729.931,0.000,-59.082,-39.062,-17.578,0.000
1737557729.935,0.000,-59.570,-54.199,-9.277,0.000
1737557729.939,0.000,-60.059,-66.895,-46.387,0.000
1737557729.943,4.883,-59.570,-55.664,-55.664,0.000
1737557729.946,-13.672,-48.340,-45.898,11.230,0.000
1737557729.950,-25.879,-41.504,-42.480,30.762,0.000
1737557729.954,-15.137,-51.758,-46.875,2.441,0.000
1737557729.958,-5.371,-54.199,-39.062,-28.320,0.000
1737557729.962,-4.883,-48.828,-34.180,-21.973,0.000
1737557729.966,-27.344,-56.152,-39.062,5.371,0.000
1737557729.970,-28.809,-62.012,-42.969,-0.977,0.000
1737557729.974,-20.020,-62.500,-51.758,-18.066,0.000
1737557729.978,-22.461,-64.941,-52.734,-51.758,0.000
1737557729.982,-10.254,-57.617,-37.109,-54.199,0.000
1737557729.985,-20.020,-53.223,-41.016,-11.230,0.000
1737557729.989,-11.230,-51.270,-44.434,-10.254,0.000
1737557729.993,18.066,-42.969,-31.738,-4.395,0.000
1737557729.997,8.789,-47.852,-29.785,-9.277,0.000
1737557730.001,-30.273,-54.688,-33.691,-51.270,0.000
1737557730.005,-44.434,-51.758,-30.273,-34.180,0.000
1737557730.009,-20.996,-44.434,-26.855,-6.348,0.000
1737557730.013,-1.465,-46.875,-31.738,-21.484,0.000
1737557730.017,8.301,-50.293,-31.738,-15.625,0.000
1737557730.021,-16.113,-50.781,-26.367,-33.691,0.000
1737557730.024,-42.480,-50.781,-28.320,-44.434,0.000
1737557730.028,-25.879,-47.852,-35.156,-25.391,0.000
1737557730.032,4.395,-48.828,-41.016,-8.789,0.000
1737557730.036,22.949,-47.852,-39.062,-26.855,0.000
1737557730.040,4.395,-46.875,-32.227,-26.855,0.000
1737557730.044,-10.254,-45.410,-22.949,5.371,0.000
1737557730.048,-2.441,-43.945,-15.625,21.484,0.000
1737557730.052,10.254,-41.504,-18.066,17.090,0.000
1737557730.056,3.418,-43.945,-28.809,-13.184,0.000
1737557730.060,-17.578,-44.434,-32.227,-40.527,0.000
1737557730.064,-36.621,-45.410,-26.855,-41.016,0.000
1737557730.067,-40.527,-46.875,-18.066,-36.133,0.000
1737557730.071,-20.508,-53.223,-27.344,-24.414,0.000
1737557730.075,12.207,-50.293,-42.969,-4.395,0.000
1737557730.079,6.836,-36.621,-35.645,-14.648,0.000
1737557730.083,-24.414,-35.645,0.000,-1.953,0.000
1737557730.087,-20.996,-41.016,0.000,-14.160,0.000
1737557730.091,-3.418,-37.109,0.000,-36.621,0.000
1737557730.095,1.953,-31.738,0.000,-12.207,0.000
1737557730.099,-24.414,-36.133,0.000,-27.832,0.000
1737557730.103,-38.574,-30.762,0.000,-24.902,0.000
1737557730.107,-25.391,-32.227,0.000,1.465,0.000
1737557730.110,-19.043,-40.527,0.000,-4.883,0.000
1737557730.114,-5.859,-33.203,0.000,-28.809,0.000
1737557730.118,-6.836,-34.180,0.000,-46.875,0.000
1737557730.122,-9.277,-36.621,0.000,-21.973,0.000
1737557730.126,-18.555,-33.203,0.000,6.348,0.000
1737557730.130,-11.230,-30.273,-26.855,2.930,0.000
1737557730.134,22.461,-19.043,-20.508,-16.602,0.000
1737557730.138,16.113,-19.531,-23.438,-8.301,0.000
1737557730.142,-16.113,-27.832,-24.414,-18.555,0.000
1737557730.146,-37.109,-30.273,-29.297,-36.621,0.000
1737557730.149,-20.020,-28.320,-32.227,-35.645,0.000
1737557730.153,8.789,-32.227,-28.320,-22.461,0.000
1737557730.157,3.906,-34.668,-25.391,-7.812,0.000
1737557730.161,-23.926,-34.180,-21.484,-28.809,0.000
1737557730.165,-28.320,-35.645,-21.484,-29.785,0.000
