timestamps,TP9,AF7,AF8,TP10,Right AUX
1737564334.250,-32.227,-26.367,-14.160,-28.809,0.000
1737564334.254,-41.504,-31.738,-22.949,-20.020,0.000
1737564334.258,-26.855,-32.227,-23.438,-14.160,0.000
1737564334.262,11.719,-23.926,-21.484,-14.648,0.000
1737564334.266,0.977,-24.414,-18.066,-48.340,0.000
1737564334.270,-33.691,-19.043,-13.672,-64.941,0.000
1737564334.274,-75.195,-11.230,-18.555,-37.598,0.000
1737564334.278,-12.695,-5.859,-26.367,5.859,0.000
1737564334.281,8.789,-16.602,-21.484,-20.996,0.000
1737564334.285,-47.363,-21.484,-18.066,-79.102,0.000
1737564334.289,-41.504,-12.207,-13.184,-54.688,0.000
1737564334.293,-27.344,-11.719,-10.254,-37.598,0.000
1737564334.297,-38.086,-20.020,-20.020,-12.207,0.000
1737564334.301,-16.602,-24.902,-21.484,16.113,0.000
1737564334.305,-6.348,-20.508,-17.090,-6.836,0.000
1737564334.309,-34.668,-23.438,-17.578,-27.832,0.000
1737564334.313,-27.344,-30.273,-20.020,-29.297,0.000
1737564334.317,-15.137,-22.461,-13.184,-0.488,0.000
1737564334.321,-12.207,-16.602,-14.160,0.000,0.000
1737564334.324,-26.367,-32.227,-37.598,-46.875,0.000
1737564334.328,-79.102,-33.203,-39.062,-69.824,0.000
1737564334.332,-64.453,-22.461,-18.555,-50.781,0.000
1737564334.336,-16.113,-20.508,-15.625,-31.738,0.000
1737564334.340,-17.090,-16.113,-19.531,-38.574,0.000
1737564334.344,-24.902,-16.602,-20.996,-41.992,0.000
1737564334.348,-44.434,-31.738,-20.996,-40.039,0.000
1737564334.352,-38.086,-22.461,-22.949,-23.438,0.000
1737564334.356,-8.789,-5.371,-17.578,-3.418,0.000
1737564334.360,-7.812,-4.395,-10.742,-9.277,0.000
1737564334.364,-19.043,-1.953,-8.301,-21.973,0.000
1737564334.367,-41.992,-4.395,-14.160,-24.902,0.000
1737564334.371,-43.457,-9.277,-13.672,-13.672,0.000
1737564334.375,-43.457,-14.648,-10.742,-17.090,0.000
1737564334.379,-21.484,-20.996,-10.254,-27.832,0.000
1737564334.383,16.602,-13.672,-8.789,-8.301,0.000
1737564334.387,-25.879,-10.742,-9.766,-26.367,0.000
1737564334.391,-62.988,-21.484,-9.277,-38.574,0.000
1737564334.395,-24.414,-30.762,-34.180,-32.715,0.000
1737564334.399,-21.973,-34.668,-54.199,-28.809,0.000
1737564334.403,-47.363,-21.973,-26.855,-14.648,0.000
1737564334.406,-49.805,-12.695,1.953,-17.090,0.000
1737564334.410,-43.457,-12.695,2.441,-25.391,0.000
1737564334.414,4.883,-12.695,-11.719,-2.930,0.000
1737564334.418,32.227,-10.742,-13.184,16.113,0.000
1737564334.422,-55.664,-10.742,-6.836,-47.852,0.000
1737564334.426,-90.332,-19.043,-12.695,-60.059,0.000
1737564334.430,-47.363,-21.973,-24.902,-16.113,0.000
1737564334.434,4.883,-20.508,-20.020,2.930,0.000
1737564334.438,16.113,-26.855,-6.348,37.598,0.000
1737564334.442,-6.348,-28.320,-8.301,3.418,0.000
1737564334.446,-44.434,-20.020,-9.277,-71.289,0.000
1737564334.449,-80.566,-15.137,-12.695,-66.895,0.000
1737564334.453,-57.617,-16.113,-26.367,-25.879,0.000
1737564334.457,-34.180,-12.207,-24.414,-18.555,0.000
1737564334.461,-4.395,-11.719,-17.090,-18.066,0.000
1737564334.465,-9.277,-21.484,-20.020,-11.719,0.000
1737564334.469,-16.113,-22.949,-20.020,12.695,0.000
1737564334.473,-22.461,-22.949,-30.273,-17.090,0.000
1737564334.477,-44.922,-29.297,-29.785,-27.832,0.000
1737564334.481,-35.156,-30.762,-4.883,17.090,0.000
1737564334.485,-18.066,-29.785,-4.395,1.953,0.000
1737564334.489,-28.809,-23.438,-17.578,-32.227,0.000
1737564334.492,-48.828,-9.766,-17.090,-66.406,0.000
1737564334.496,-12.695,-7.324,-15.137,-38.574,0.000
1737564334.500,13.184,-10.742,-12.695,22.461,0.000
1737564334.504,14.160,-9.766,-20.020,-48.828,0.000
1737564334.508,-32.227,-15.137,-31.250,-59.082,0.000
1737564334.512,-38.086,-15.137,-31.738,12.695,0.000
1737564334.516,-19.043,-11.230,-37.109,18.555,0.000
1737564334.520,-16.602,-14.648,-30.273,9.277,0.000
1737564334.524,-22.949,-13.184,-8.301,-9.766,0.000
1737564334.527,-49.805,-11.230,0.488,-38.574,0.000
1737564334.532,-35.156,-20.020,-16.602,-48.828,0.000
1737564334.536,-25.391,-36.133,-27.832,-40.039,0.000
1737564334.539,-30.273,-37.598,-15.137,-24.902,0.000
1737564334.543,-25.391,-22.461,-13.672,-31.250,0.000
1737564334.547,-43.945,-14.160,-40.039,-31.738,0.000
1737564334.551,-38.574,-9.277,-38.086,-11.230,0.000
1737564334.555,-8.301,-12.695,-11.230,-33.691,0.000
1737564334.559,-1.465,-17.578,-6.348,-22.949,0.000
1737564334.563,-4.395,-19.531,-9.766,16.113,0.000
1737564334.567,-46.875,-28.809,-9.277,-3.418,0.000
1737564334.571,-56.641,-28.809,-1.465,-34.668,0.000
1737564334.574,-41.016,-19.531,-0.977,-17.090,0.000
1737564334.579,0.000,-12.207,-13.184,0.488,0.000
1737564334.582,16.602,-12.695,-17.090,-11.719,0.000
1737564334.586,-22.461,-11.230,-12.695,-62.988,0.000
1737564334.590,-49.316,-5.859,-18.555,-62.500,0.000
1737564334.594,-62.988,-7.812,-29.785,-19.531,0.000
1737564334.598,-19.043,-7.812,-30.762,-14.648,0.000
1737564334.602,19.043,-11.719,-21.973,22.461,0.000
1737564334.606,-2.441,-22.949,-20.508,17.090,0.000
1737564334.610,-34.180,-26.855,-21.973,-34.180,0.000
1737564334.614,-39.062,-23.926,-20.508,-31.250,0.000
1737564334.617,-41.992,-19.043,-25.879,-30.273,0.000
1737564334.621,-26.855,-17.090,-29.297,-41.992,0.000
1737564334.625,-26.367,-24.902,-32.715,-52.246,0.000
1737564334.629,-53.223,-33.691,-34.668,-51.270,0.000
1737564334.633,-31.738,-28.320,-26.367,-30.762,0.000
1737564334.637,12.207,-20.020,-27.344,-19.043,0.000
1737564334.641,-1.465,-23.926,-44.434,-8.301,0.000
1737564334.645,-52.734,-27.832,-45.410,-38.574,0.000
1737564334.649,-68.359,-30.273,-33.203,-41.992,0.000
1737564334.653,-45.898,-28.320,-23.926,-34.180,0.000
1737564334.657,-21.484,-14.648,-10.742,-43.945,0.000
1737564334.660,-16.602,1.465,-0.488,-4.883,0.000
1737564334.664,-16.602,-2.930,-10.742,-7.324,0.000
1737564334.668,-39.062,-19.043,-25.391,-39.062,0.000
1737564334.672,-58.594,-23.926,-24.414,-42.480,0.000
1737564334.676,-27.344,-21.484,-17.090,-20.020,0.000
1737564334.680,-25.391,-26.367,-17.090,-6.836,0.000
1737564334.684,-50.293,-26.855,-22.949,-23.438,0.000
1737564334.688,-40.527,-16.113,-27.832,-27.832,0.000
1737564334.692,-32.715,-5.859,-30.273,-12.695,0.000
1737564334.696,-36.133,-4.395,-24.902,-41.504,0.000
1737564334.700,-36.621,-16.602,-16.113,-64.941,0.000
1737564334.703,-37.109,-21.484,-12.695,-43.457,0.000
1737564334.707,-30.762,-21.973,-10.254,-32.227,0.000
1737564334.711,-61.523,-22.461,-11.719,-18.555,0.000
1737564334.715,-60.059,-20.996,-12.207,-4.883,0.000
1737564334.719,11.230,-13.184,0.000,-0.488,0.000
1737564334.723,0.977,-10.742,0.000,-17.090,0.000
1737564334.727,-14.160,-17.090,0.000,-57.129,0.000
1737564334.731,-24.414,-17.090,0.000,-74.707,0.000
1737564334.735,-65.918,-20.020,0.000,-41.016,0.000
1737564334.739,-11.719,-14.648,0.000,-1.953,0.000
1737564334.743,27.344,-14.160,0.000,-0.488,0.000
1737564334.746,-31.738,-30.273,0.000,-25.391,0.000
1737564334.750,-59.082,-21.484,0.000,-26.367,0.000
1737564334.754,-33.691,-10.254,0.000,-19.531,0.000
1737564334.758,-2.930,-12.207,0.000,-14.160,0.000
1737564334.762,-6.836,-15.625,0.000,-15.625,0.000
1737564334.766,-50.293,-20.020,-30.273,-21.484,0.000
1737564334.770,-45.898,-26.855,-26.367,-32.227,0.000
1737564334.774,-31.738,-28.320,-24.414,-42.969,0.000
1737564334.778,-29.785,-25.879,-20.508,-15.137,0.000
1737564334.782,5.371,-28.809,-21.973,0.488,0.000
1737564334.785,0.488,-20.020,-24.902,-20.020,0.000
1737564334.789,-20.020,-14.160,-11.719,-27.832,0.000
1737564334.793,-42.480,-11.230,-7.324,-16.602,0.000
1737564334.797,-39.551,-10.254,-22.949,-16.602,0.000
1737564334.801,-40.039,-14.160,-33.691,-15.137,0.000
1737564334.805,-60.547,-14.160,-31.738,-39.062,0.000
1737564334.809,-19.043,-17.090,-20.508,-62.988,0.000
1737564334.813,-9.277,-16.602,-12.207,-25.879,0.000
1737564334.817,-6.836,-11.230,-9.277,-25.391,0.000
1737564334.821,-8.301,-17.090,-5.371,-47.852,0.000
1737564334.825,-42.480,-24.902,-18.066,-20.508,0.000
1737564334.828,-31.250,-18.555,-22.461,0.000,0.000
1737564334.832,-23.926,-18.066,-12.207,3.418,0.000
1737564334.836,-44.922,-24.902,-15.137,-25.879,0.000
1737564334.840,-22.461,-22.461,-19.043,-15.625,0.000
1737564334.844,-17.578,-15.625,-19.531,-25.879,0.000
1737564334.848,-31.250,-14.648,-20.508,-69.824,0.000
1737564334.852,-46.387,-17.090,-31.738,-30.762,0.000
1737564334.856,-32.715,-20.020,-41.992,5.859,0.000
1737564334.860,-7.324,-40.039,-34.668,-3.418,0.000
1737564334.864,-29.297,-44.434,-19.531,-26.367,0.000
1737564334.867,-49.805,-30.273,-1.465,-37.109,0.000
1737564334.871,-34.180,-26.367,1.465,-13.184,0.000
1737564334.875,-7.812,-15.625,-12.207,4.883,0.000
1737564334.879,-3.418,-5.859,-30.273,0.488,0.000
1737564334.883,-3.906,-5.371,-32.227,-42.480,0.000
1737564334.887,-11.719,-11.719,-18.555,-81.543,0.000
1737564334.891,-34.180,-16.113,-10.742,-59.082,0.000
1737564334.895,-29.297,-17.090,-8.301,6.836,0.000
1737564334.899,-4.883,-18.555,-10.742,9.277,0.000
1737564334.902,-18.066,-20.508,-11.719,-4.883,0.000
1737564334.907,-48.828,-21.973,-18.066,-11.230,0.000
1737564334.910,-40.527,-16.113,-22.949,-34.180,0.000
1737564334.914,-13.184,-18.555,-10.254,-18.555,0.000
1737564334.918,-19.043,-21.973,-5.859,12.695,0.000
1737564334.922,-19.531,-14.648,-7.324,1.465,0.000
1737564334.926,-10.742,-11.719,-4.883,-32.715,0.000
1737564334.930,-25.391,-17.578,-10.254,-29.785,0.000
1737564334.934,-0.488,-18.555,-12.695,-15.137,0.000
1737564334.938,49.805,-8.301,-26.855,12.207,0.000
1737564334.942,13.672,-6.836,-37.109,20.508,0.000
1737564334.945,-7.324,-10.742,-18.555,-42.480,0.000
1737564334.949,-13.672,-17.090,-9.277,-59.570,0.000
1737564334.953,0.000,-17.090,-8.301,-20.508,0.000
1737564334.957,0.000,-19.531,-2.930,0.000,0.000
1737564334.961,0.000,-16.602,-6.348,-17.578,0.000
1737564334.965,0.000,-24.414,-11.230,-17.578,0.000
1737564334.969,0.000,-38.086,-15.137,0.488,0.000
1737564334.973,0.000,-16.602,-25.391,4.395,0.000
1737564334.977,0.000,-12.695,-34.668,-5.859,0.000
1737564334.981,0.000,-27.832,-37.598,-40.527,0.000
1737564334.985,0.000,-23.438,-33.691,-27.344,0.000
1737564334.988,0.000,-24.414,-23.926,-14.648,0.000
1737564334.992,0.000,-28.320,-24.902,-25.879,0.000
1737564334.996,0.000,-22.949,-37.109,-22.461,0.000
1737564335.000,31.250,-16.113,-20.020,-15.137,0.000
1737564335.004,-2.441,-28.809,-1.465,-36.133,0.000
1737564335.008,-73.730,-40.527,-8.789,-42.969,0.000
1737564335.012,-87.402,-34.668,-22.461,-32.227,0.000
1737564335.016,-39.062,-26.367,-29.297,-34.668,0.000
1737564335.020,11.230,-25.391,-20.508,-1.465,0.000
1737564335.024,-14.648,-27.832,-18.555,8.301,0.000
1737564335.028,-32.227,-24.902,-30.273,-24.902,0.000
1737564335.031,-31.250,-19.043,-31.738,-33.203,0.000
1737564335.035,-20.020,-15.625,-26.367,-13.672,0.000
1737564335.039,-5.859,-19.531,-19.531,-0.977,0.000
1737564335.043,-15.137,-19.531,-10.742,-15.625,0.000
1737564335.047,-46.875,-18.555,-8.301,-39.062,0.000
1737564335.051,-48.828,-18.066,-15.625,-38.086,0.000
1737564335.055,-24.414,-22.461,-26.367,-19.043,0.000
1737564335.059,10.742,-23.438,-21.484,6.836,0.000
1737564335.063,28.320,-21.484,-12.207,15.137,0.000
1737564335.067,-23.926,-22.949,-20.508,-8.789,0.000
1737564335.071,-50.293,-22.461,-32.227,-24.902,0.000
1737564335.074,-19.531,-24.414,-19.043,7.324,0.000
1737564335.078,14.160,-29.785,-3.418,23.438,0.000
1737564335.082,6.348,-35.156,-9.277,-9.277,0.000
1737564335.086,-54.688,-28.320,-18.555,-29.297,0.000
1737564335.090,-53.711,-20.020,-20.996,-24.414,0.000
1737564335.094,5.371,-11.719,-19.531,-5.859,0.000
1737564335.098,22.949,-6.836,-23.438,2.441,0.000
1737564335.102,17.090,-7.812,-20.020,-24.414,0.000
1737564335.106,-9.766,-12.207,-14.160,-42.969,0.000
1737564335.110,-35.156,-21.973,-16.602,-32.227,0.000
1737564335.114,4.883,-22.949,-14.160,-28.809,0.000
1737564335.117,-0.488,-21.484,-10.254,-16.602,0.000
1737564335.121,-54.199,-18.555,-11.230,6.836,0.000
1737564335.125,-32.227,-12.207,-13.672,-7.812,0.000
1737564335.129,-8.789,-4.395,-20.996,-15.625,0.000
1737564335.133,-14.160,-10.742,-26.367,-3.418,0.000
1737564335.137,-8.789,-19.043,-10.742,10.254,0.000
1737564335.141,20.020,-11.719,0.977,10.742,0.000
1737564335.145,-3.418,-10.742,0.488,-6.836,0.000
1737564335.149,-22.949,-16.113,-2.441,-37.109,0.000
1737564335.153,-24.414,-18.066,-6.836,-51.270,0.000
1737564335.156,-25.391,-20.996,-13.672,-12.207,0.000
1737564335.160,8.301,-22.461,-20.996,-3.906,0.000
1737564335.164,13.672,-20.996,-34.668,-34.668,0.000
1737564335.168,-13.672,-21.484,-36.621,-29.785,0.000
1737564335.172,-40.527,-21.484,-25.879,-21.484,0.000
1737564335.176,-35.645,-34.180,-21.973,-17.578,0.000
1737564335.180,-15.137,-41.504,-24.414,-4.395,0.000
1737564335.184,-31.738,-34.180,-23.926,-26.367,0.000
1737564335.188,-71.289,-39.551,-26.855,-55.664,0.000
1737564335.192,-60.059,-37.598,-37.598,-32.715,0.000
1737564335.196,-0.977,-18.066,-34.668,-8.789,0.000
1737564335.199,8.301,-9.766,-25.879,-3.906,0.000
1737564335.203,-14.648,-14.160,-23.438,-15.625,0.000
1737564335.207,-3.418,-16.602,-33.691,-32.715,0.000
1737564335.211,-55.664,-20.020,-32.227,-34.180,0.000
1737564335.215,-65.430,-25.879,-20.996,-10.254,0.000
1737564335.219,-4.883,-24.902,-24.902,-1.953,0.000
1737564335.223,8.789,-20.508,-21.973,-12.695,0.000
1737564335.227,-19.043,-15.625,-17.090,-28.809,0.000
1737564335.231,-36.133,-17.578,-16.113,-46.875,0.000
1737564335.235,8.789,-24.902,-16.602,-37.109,0.000
1737564335.238,-1.953,-19.531,-19.043,-22.949,0.000
1737564335.242,-41.016,-10.742,-19.043,-28.809,0.000
1737564335.246,-42.969,-15.137,-14.160,-24.414,0.000
1737564335.250,-62.012,-21.484,-18.555,-25.879,0.000
1737564335.254,-41.504,-13.184,-27.344,-31.250,0.000
1737564335.258,25.391,-6.348,-29.297,-20.996,0.000
1737564335.262,43.945,-10.742,-28.809,6.836,0.000
1737564335.266,-6.348,-12.207,-21.484,-11.719,0.000
1737564335.270,-46.387,-16.113,-15.625,-50.781,0.000
1737564335.274,-45.898,-25.391,-17.090,-46.387,0.000
1737564335.277,2.930,-18.066,-19.043,-25.879,0.000
1737564335.282,0.000,-15.625,0.000,-27.344,0.000
1737564335.285,0.000,-21.973,0.000,-49.805,0.000
1737564335.289,0.000,-17.578,0.000,-54.199,0.000
1737564335.293,0.000,-11.719,0.000,-47.363,0.000
1737564335.297,0.000,-13.184,0.000,-31.738,0.000
1737564335.301,0.000,-16.602,0.000,-10.742,0.000
1737564335.305,0.000,-22.949,0.000,-12.207,0.000
1737564335.309,0.000,-36.133,0.000,-36.621,0.000
1737564335.313,0.000,-30.273,0.000,-48.828,0.000
1737564335.317,0.000,-22.949,0.000,-30.762,0.000
1737564335.320,0.000,-15.625,0.000,-29.297,0.000
1737564335.324,0.000,-5.371,0.000,-28.809,0.000
1737564335.328,-51.758,-5.859,-24.414,-54.688,0.000
1737564335.332,-91.797,-15.137,-10.254,-65.918,0.000
1737564335.336,-70.801,-24.902,-5.859,-19.531,0.000
1737564335.340,2.441,-19.531,-11.230,5.371,0.000
1737564335.344,0.000,-14.648,-15.625,-3.418,0.000
1737564335.348,-30.273,-17.090,-23.438,-23.926,0.000
1737564335.352,-22.461,-16.602,-28.320,-33.691,0.000
1737564335.356,-23.926,-17.578,-24.414,-8.789,0.000
1737564335.360,-26.855,-26.367,-17.578,4.883,0.000
1737564335.363,-30.762,-40.039,-21.484,-3.418,0.000
1737564335.367,-34.668,-30.273,-19.043,-39.551,0.000
1737564335.371,-34.180,-18.555,-8.301,-49.805,0.000
1737564335.375,-26.367,-20.020,0.000,-19.531,0.000
1737564335.379,-28.809,-18.555,0.000,-5.371,0.000
1737564335.383,-55.664,-22.949,0.000,-29.297,0.000
1737564335.387,-37.598,-29.297,0.000,-55.664,0.000
1737564335.391,-31.250,-20.508,0.000,-33.203,0.000
1737564335.395,-7.812,-3.906,0.000,10.254,0.000
1737564335.399,14.648,-8.789,0.000,8.789,0.000
1737564335.403,-9.277,-19.531,0.000,-41.504,0.000
1737564335.406,-64.453,-21.484,0.000,-44.922,0.000
1737564335.410,-66.895,-20.508,0.000,-16.113,0.000
1737564335.414,-7.812,-16.113,0.000,-11.230,0.000
1737564335.418,30.762,-7.812,0.000,11.230,0.000
1737564335.422,12.207,-0.488,0.000,14.648,0.000
1737564335.426,-49.316,-1.953,-16.113,-22.949,0.000
1737564335.430,-41.016,-1.953,-19.531,-48.828,0.000
1737564335.434,-15.137,0.488,-14.648,-40.527,0.000
1737564335.438,-9.766,-4.883,-13.672,-14.648,0.000
1737564335.442,-1.465,-13.672,-11.719,-13.672,0.000
1737564335.446,-3.418,-14.648,-18.555,-33.203,0.000
1737564335.449,-24.414,-12.207,-23.438,-16.113,0.000
1737564335.453,-19.531,-11.719,-19.043,-21.973,0.000
1737564335.457,-7.324,-22.949,-21.973,-17.578,0.000
1737564335.461,-17.578,-32.715,-15.625,-10.254,0.000
1737564335.465,-10.742,-29.785,-8.301,-30.273,0.000
1737564335.469,-20.996,-23.926,-7.324,-35.156,0.000
1737564335.473,-20.996,-10.254,-7.812,-29.785,0.000
1737564335.477,-14.160,-14.160,-15.625,-4.883,0.000
1737564335.481,-24.414,-22.461,-13.184,-9.766,0.000
1737564335.485,-19.043,-12.695,-8.789,-56.152,0.000
1737564335.488,-31.738,-8.789,-17.090,-45.898,0.000
1737564335.492,-63.477,-13.184,-14.160,-26.855,0.000
1737564335.496,-41.504,-18.066,-12.207,-8.789,0.000
1737564335.500,-10.742,-23.438,-23.438,21.484,0.000
1737564335.504,-21.484,-21.484,-24.414,-10.254,0.000
1737564335.508,-35.645,-29.297,-27.832,-66.406,0.000
1737564335.512,-28.809,-26.855,-27.832,-45.410,0.000
1737564335.516,-9.766,-10.742,-19.043,-12.695,0.000
1737564335.520,-24.414,-2.441,-14.648,-11.230,0.000
1737564335.524,-43.457,-5.859,-12.695,-20.508,0.000
1737564335.528,-53.223,-18.066,-20.996,-51.270,0.000
1737564335.531,-46.387,-18.555,-29.785,-41.992,0.000
1737564335.535,-18.555,-17.578,-27.832,-12.695,0.000
1737564335.539,0.977,-18.066,-26.855,-24.902,0.000
1737564335.543,-14.160,-21.973,-26.855,-37.109,0.000
1737564335.547,-51.270,-21.973,-21.973,-29.297,0.000
1737564335.551,-63.477,-26.367,-20.020,-36.133,0.000
1737564335.555,-19.531,-32.715,-17.578,-35.156,0.000
1737564335.559,-7.324,-23.926,-12.695,-22.949,0.000
1737564335.563,12.695,-14.648,-11.230,-23.438,0.000
1737564335.567,-8.789,-13.672,-14.648,-29.785,0.000
1737564335.570,-48.340,-4.883,-14.648,-43.945,0.000
1737564335.574,-38.086,-3.906,-20.020,-4.883,0.000
1737564335.578,-13.672,-14.648,-23.438,10.254,0.000
1737564335.582,3.906,-14.160,-22.461,-24.902,0.000
1737564335.586,-15.137,-19.531,-26.855,-37.109,0.000
1737564335.590,-33.203,-29.785,-25.391,-28.809,0.000
1737564335.594,-31.738,-23.926,-27.832,-15.625,0.000
1737564335.598,-19.531,-10.254,-23.438,-9.277,0.000
1737564335.602,12.207,-6.836,-17.578,-3.418,0.000
1737564335.606,-29.785,-6.836,-21.484,-33.203,0.000
1737564335.610,-73.242,-10.742,-17.578,-62.988,0.000
1737564335.613,-55.664,-17.578,-17.090,-30.762,0.000
1737564335.617,2.930,-11.230,-23.926,-2.930,0.000
1737564335.621,23.926,-4.883,-14.648,-16.113,0.000
1737564335.625,-9.277,-8.789,-16.113,-44.922,0.000
1737564335.629,-42.969,-16.113,-28.809,-43.457,0.000
1737564335.633,-38.086,-19.043,-27.344,-31.250,0.000
1737564335.637,-30.273,-17.090,-28.809,-20.508,0.000
1737564335.641,-19.531,-18.555,-28.809,-6.836,0.000
1737564335.645,-10.254,-21.484,-19.531,-22.949,0.000
1737564335.648,-26.855,-23.926,-24.902,-29.297,0.000
1737564335.652,-25.391,-22.949,-39.551,-20.508,0.000
1737564335.656,0.000,-23.926,0.000,-20.020,0.000
1737564335.660,0.000,-25.391,0.000,-12.207,0.000
1737564335.664,0.000,-18.066,0.000,-24.414,0.000
1737564335.668,0.000,-14.648,0.000,-33.691,0.000
1737564335.672,0.000,-16.602,0.000,-23.926,0.000
1737564335.676,0.000,-21.484,0.000,-24.414,0.000
1737564335.680,0.000,-29.297,0.000,-24.414,0.000
1737564335.684,0.000,-29.297,0.000,-41.016,0.000
1737564335.688,0.000,-20.996,0.000,-51.270,0.000
1737564335.691,0.000,-14.160,0.000,-23.438,0.000
1737564335.695,0.000,-20.508,0.000,-4.395,0.000
1737564335.699,0.000,-24.414,0.000,-32.715,0.000
1737564335.703,-13.184,-27.344,-7.324,-49.805,0.000
1737564335.707,-31.250,-26.855,-10.254,-25.879,0.000
1737564335.711,-32.715,-15.625,-13.184,-17.578,0.000
1737564335.715,-26.367,-11.230,-8.789,-4.883,0.000
1737564335.719,1.465,-12.695,-5.859,14.648,0.000
1737564335.723,6.348,-15.137,-4.883,7.812,0.000
1737564335.727,-47.363,-22.949,-11.719,-6.836,0.000
1737564335.731,-54.199,-26.367,-19.531,-15.137,0.000
1737564335.734,-23.438,-26.855,-21.484,-12.207,0.000
1737564335.738,10.254,-30.273,-12.695,-3.906,0.000
1737564335.742,-7.812,-24.902,-11.230,-9.277,0.000
1737564335.746,-47.852,-20.996,-24.902,-33.691,0.000
1737564335.750,-41.992,-14.648,-26.855,-18.555,0.000
1737564335.754,-29.785,-15.137,-17.090,-4.395,0.000
1737564335.758,-22.461,-16.602,-9.277,6.348,0.000
1737564335.762,-11.719,-20.020,-10.254,17.090,0.000
1737564335.766,-25.879,-20.020,-16.602,-31.250,0.000
1737564335.770,-50.293,-16.113,-19.043,-53.711,0.000
1737564335.774,-27.344,-22.949,-18.555,-34.668,0.000
1737564335.777,-7.324,-21.484,-20.020,-6.836,0.000
1737564335.781,-20.508,-16.113,-23.926,-11.719,0.000
1737564335.785,-19.531,-15.625,-20.020,-31.738,0.000
1737564335.789,-21.973,-11.230,-9.766,-7.324,0.000
1737564335.793,-26.855,-9.766,-11.719,-12.695,0.000
1737564335.797,0.000,-12.207,0.000,-4.395,0.000
1737564335.801,0.000,-15.625,0.000,6.348,0.000
1737564335.805,0.000,-14.160,0.000,-22.949,0.000
1737564335.809,0.000,-14.160,0.000,-30.762,0.000
1737564335.813,0.000,-20.996,0.000,-24.414,0.000
1737564335.817,0.000,-20.996,0.000,-19.043,0.000
1737564335.820,0.000,-20.020,0.000,-17.090,0.000
1737564335.824,0.000,-26.367,0.000,-26.367,0.000
1737564335.828,0.000,-27.832,0.000,-49.316,0.000
1737564335.832,0.000,-22.461,0.000,-34.668,0.000
1737564335.836,0.000,-8.301,0.000,-18.555,0.000
1737564335.840,0.000,-1.953,0.000,-11.719,0.000
1737564335.844,-4.883,-9.766,-27.832,-8.789,0.000
1737564335.848,-18.066,-20.020,-35.156,-31.250,0.000
1737564335.852,-25.391,-22.949,-31.250,-40.039,0.000
1737564335.856,-24.414,-19.043,-27.832,-33.691,0.000
1737564335.860,-19.043,-20.020,-20.508,-11.230,0.000
1737564335.863,-15.137,-23.438,-6.348,-6.348,0.000
1737564335.867,-31.250,-25.391,-0.488,-15.137,0.000
1737564335.871,-45.410,-17.578,-7.812,-20.508,0.000
1737564335.875,-17.090,-13.672,-18.555,-16.602,0.000
1737564335.879,24.414,-11.230,-27.344,-7.324,0.000
1737564335.883,15.137,-6.348,-34.180,-20.020,0.000
1737564335.887,-37.109,-7.324,-30.762,-49.316,0.000
1737564335.891,-54.199,-18.066,-18.555,-43.945,0.000
1737564335.895,-19.531,-25.391,-20.020,-22.949,0.000
1737564335.899,4.395,-19.043,-24.414,-18.555,0.000
1737564335.902,-0.488,-13.672,-26.367,-22.949,0.000
1737564335.906,-21.484,-17.578,-34.668,-21.484,0.000
1737564335.910,-42.480,-17.578,-30.762,-11.230,0.000
1737564335.914,-33.691,-19.531,-23.926,-11.230,0.000
1737564335.918,-6.348,-19.043,-19.043,-16.113,0.000
1737564335.922,16.113,-11.719,-13.184,-17.578,0.000
1737564335.926,-24.414,-15.625,-19.043,-41.016,0.000
1737564335.930,-69.336,-20.508,-13.672,-44.922,0.000
1737564335.934,-50.781,-17.578,-9.277,-27.832,0.000
1737564335.938,-10.742,-17.578,-16.113,-3.418,0.000
1737564335.942,1.465,-23.438,-11.230,-2.930,0.000
1737564335.945,-12.695,-18.555,-12.207,-20.020,0.000
1737564335.949,-27.832,-16.113,-20.020,-30.273,0.000
1737564335.953,-20.020,-18.066,-27.344,-22.461,0.000
1737564335.957,-12.695,-17.090,-28.320,-6.348,0.000
1737564335.961,-10.742,-29.297,-24.902,0.488,0.000
1737564335.965,-39.062,-33.691,-21.973,-14.648,0.000
1737564335.969,-61.523,-30.762,-28.320,-35.645,0.000
1737564335.973,-31.738,-24.902,-34.668,-19.531,0.000
1737564335.977,1.953,-19.043,-21.484,-11.230,0.000
1737564335.980,0.000,-17.578,-12.207,-13.184,0.000
1737564335.985,-11.230,-21.484,-15.137,-42.480,0.000
1737564335.988,-33.203,-27.344,-17.090,-59.082,0.000
1737564335.992,-44.434,-25.879,-24.902,-19.043,0.000
1737564335.996,-22.461,-24.902,-28.809,-3.906,0.000
1737564336.000,-6.348,-25.391,-24.414,0.000,0.000
1737564336.004,-15.625,-21.973,-23.926,-18.066,0.000
1737564336.008,-37.598,-23.926,-27.344,-40.039,0.000
1737564336.012,-51.758,-21.973,-11.719,-28.320,0.000
1737564336.016,-61.523,-30.762,-1.953,-41.504,0.000
1737564336.020,15.625,-5.371,66.895,-26.367,0.000
1737564336.023,37.109,21.973,88.867,-7.812,0.000
1737564336.027,-34.180,20.508,60.547,-32.715,0.000
1737564336.031,-18.066,87.891,119.629,-7.812,0.000
1737564336.035,0.488,66.406,129.395,-5.859,0.000
1737564336.039,-23.438,48.340,97.656,-30.273,0.000
1737564336.043,-22.461,186.523,-64.941,-23.926,0.000
1737564336.047,-107.422,42.480,-158.203,-112.793,0.000
1737564336.051,-210.449,-150.879,39.551,-208.984,0.000
1737564336.055,-237.305,81.543,318.848,-244.141,0.000
1737564336.059,-234.375,649.902,634.277,-250.488,0.000
1737564336.063,-204.102,972.656,925.293,-218.262,0.000
1737564336.066,-252.441,959.473,975.586,-276.855,0.000
1737564336.070,-346.680,965.820,961.914,-329.590,0.000
1737564336.074,-339.844,972.168,972.168,-289.551,0.000
1737564336.078,-300.781,970.703,970.215,-293.457,0.000
1737564336.082,-288.086,970.703,970.703,-312.500,0.000
1737564336.086,-267.578,970.703,970.703,-346.680,0.000
1737564336.090,-297.363,970.703,970.703,-345.215,0.000
1737564336.094,-377.930,970.703,970.703,-347.656,0.000
1737564336.098,-340.820,970.703,970.703,-310.547,0.000
1737564336.102,-292.969,970.215,970.703,-296.387,0.000
1737564336.106,-321.777,970.703,970.703,-359.863,0.000
1737564336.109,-376.953,970.703,970.703,-384.277,0.000
1737564336.113,-339.355,970.703,970.703,-365.723,0.000
1737564336.117,-286.133,970.703,970.703,-333.008,0.000
1737564336.121,-274.902,970.703,970.703,-279.785,0.000
1737564336.125,0.000,970.703,0.000,-248.535,0.000
1737564336.129,0.000,970.703,0.000,-254.883,0.000
1737564336.133,0.000,971.680,0.000,-200.684,0.000
1737564336.137,0.000,963.379,0.000,-148.438,0.000
1737564336.141,0.000,976.562,0.000,-138.672,0.000
1737564336.145,0.000,926.270,0.000,-145.508,0.000
1737564336.149,0.000,666.504,0.000,-155.762,0.000
1737564336.152,0.000,448.242,0.000,-94.727,0.000
1737564336.156,0.000,337.891,0.000,-24.902,0.000
1737564336.160,0.000,211.426,0.000,-33.691,0.000
1737564336.164,0.000,95.215,0.000,-40.527,0.000
1737564336.168,0.000,-16.602,0.000,-19.043,0.000
1737564336.172,-278.809,-142.578,361.816,3.906,0.000
1737564336.176,-258.301,-272.461,240.723,43.457,0.000
1737564336.180,-244.629,-388.672,144.531,52.734,0.000
1737564336.184,-239.258,-492.676,73.242,38.086,0.000
1737564336.187,-204.102,-569.336,-11.719,39.062,0.000
1737564336.191,-170.410,-626.465,-65.430,71.777,0.000
1737564336.195,-181.152,-674.805,-90.820,108.887,0.000
1737564336.199,-148.926,-703.125,-133.301,149.902,0.000
1737564336.203,-117.676,-729.492,-188.965,157.227,0.000
1737564336.207,-109.863,-750.977,-228.027,124.023,0.000
1737564336.211,-48.828,-756.348,-246.582,116.699,0.000
1737564336.215,-66.895,-770.020,-268.555,136.719,0.000
1737564336.219,124.023,-776.367,-308.105,151.855,0.000
1737564336.223,142.578,-758.789,-321.289,167.480,0.000
1737564336.226,127.441,-747.559,-327.637,146.484,0.000
1737564336.230,102.051,-740.234,-334.473,123.535,0.000
1737564336.234,108.398,-743.652,-327.637,122.559,0.000
1737564336.238,116.699,-740.723,-340.332,132.812,0.000
1737564336.242,138.672,-710.449,-353.516,148.438,0.000
1737564336.246,119.141,-686.523,-351.074,120.605,0.000
1737564336.250,95.215,-680.664,-339.355,112.793,0.000
1737564336.254,128.906,-669.922,-341.309,145.996,0.000
1737564336.258,138.184,-653.320,-351.074,155.273,0.000
1737564336.262,124.023,-629.883,-345.215,141.113,0.000
1737564336.266,118.652,-611.328,-334.961,111.816,0.000
1737564336.269,89.844,-612.793,-333.008,111.816,0.000
1737564336.273,56.152,-592.773,-338.379,122.070,0.000
1737564336.277,104.980,-565.918,-337.891,128.418,0.000
1737564336.281,140.137,-553.223,-332.520,109.375,0.000
1737564336.285,99.121,-549.316,-348.145,79.590,0.000
1737564336.289,53.711,-545.410,-359.863,69.824,0.000
1737564336.293,63.965,-536.133,-343.750,84.961,0.000
1737564336.297,84.961,-520.996,-306.152,95.215,0.000
1737564336.301,86.914,-500.000,-274.902,90.332,0.000
1737564336.305,88.867,-484.375,-281.250,72.266,0.000
1737564336.308,45.410,-474.121,-292.480,58.594,0.000
1737564336.312,33.691,-478.516,-281.250,67.871,0.000
1737564336.316,39.062,-461.914,-280.273,83.984,0.000
1737564336.320,43.457,-441.895,-287.598,65.430,0.000
1737564336.324,30.273,-444.824,-276.367,34.668,0.000
1737564336.328,27.832,-423.340,-257.324,45.898,0.000
1737564336.332,72.266,-390.625,-248.047,46.875,0.000
1737564336.336,47.852,-389.160,-253.906,22.461,0.000
1737564336.340,46.387,-387.207,-264.160,38.086,0.000
1737564336.344,49.316,-370.605,-250.000,56.152,0.000
1737564336.347,-24.414,-372.070,-226.562,63.965,0.000
1737564336.351,-22.461,-370.605,-224.609,56.641,0.000
1737564336.355,33.691,-358.887,-225.586,7.812,0.000
1737564336.359,37.109,-344.727,-231.445,9.277,0.000
1737564336.363,52.246,-336.914,-247.559,17.090,0.000
1737564336.367,31.738,-340.820,-241.211,12.207,0.000
1737564336.371,-3.906,-333.008,-214.844,23.438,0.000
1737564336.375,-3.906,-312.988,-211.914,29.785,0.000
1737564336.379,5.371,-301.758,-224.609,29.297,0.000
1737564336.383,21.484,-297.363,-205.566,26.367,0.000
1737564336.386,19.531,-290.527,-169.922,16.113,0.000
1737564336.390,-3.906,-286.133,-166.504,1.465,0.000
1737564336.394,-1.953,-291.504,-180.664,-3.418,0.000
1737564336.398,14.160,-286.133,-173.828,14.160,0.000
1737564336.402,30.762,-279.785,-163.574,59.570,0.000
1737564336.406,5.859,-288.574,-164.551,24.414,0.000
1737564336.410,-25.391,-273.438,-178.711,-39.551,0.000
1737564336.414,30.273,-246.582,-187.012,10.254,0.000
1737564336.418,48.828,-231.445,-190.918,37.598,0.000
1737564336.422,12.695,-224.609,-181.641,7.812,0.000
1737564336.426,-5.859,-227.539,-143.555,4.883,0.000
1737564336.429,-5.859,-236.328,-139.648,10.742,0.000
1737564336.433,22.949,-231.445,-153.320,15.625,0.000
1737564336.437,49.805,-226.074,-145.020,47.363,0.000
1737564336.441,51.270,-230.469,-132.812,51.270,0.000
1737564336.445,13.184,-220.703,-149.902,0.000,0.000
1737564336.449,-3.906,-208.008,-156.738,-30.273,0.000
1737564336.453,16.113,-199.707,-125.000,-5.859,0.000
1737564336.457,-1.953,-205.078,-106.934,40.039,0.000
1737564336.461,-10.254,-211.426,-115.723,13.184,0.000
1737564336.465,5.371,-202.637,-127.930,-9.277,0.000
1737564336.469,-16.113,-191.895,-130.371,9.277,0.000
1737564336.472,-9.277,-183.594,-130.859,-9.277,0.000
1737564336.476,10.254,-174.316,-135.742,28.809,0.000
1737564336.480,9.277,-171.875,-136.230,37.109,0.000
1737564336.484,-1.953,-175.293,-122.559,-14.160,0.000
1737564336.488,-41.016,-172.852,-125.488,-29.297,0.000
1737564336.492,-52.734,-173.340,-121.094,6.836,0.000
1737564336.496,3.418,-170.410,-106.445,17.090,0.000
1737564336.500,28.320,-162.598,-95.215,12.695,0.000
1737564336.504,-4.883,-160.645,-96.680,12.695,0.000
1737564336.508,1.953,-157.715,-109.375,3.906,0.000
1737564336.512,15.625,-148.926,-103.516,33.691,0.000
1737564336.515,-17.090,-147.949,-92.285,0.000,0.000
1737564336.519,7.324,-145.996,-96.191,10.254,0.000
1737564336.523,13.184,-136.719,-106.934,39.062,0.000
1737564336.527,-29.297,-135.742,-104.492,-14.648,0.000
1737564336.531,-24.902,-135.742,-92.285,-11.719,0.000
1737564336.535,4.395,-136.719,-91.797,5.859,0.000
1737564336.539,22.949,-143.555,-88.379,16.113,0.000
1737564336.543,-1.953,-145.996,-92.285,3.906,0.000
1737564336.547,-38.574,-133.789,0.000,0.000,0.000
1737564336.551,-16.113,-121.582,0.000,0.000,0.000
1737564336.555,-20.020,-120.117,0.000,0.000,0.000
1737564336.558,11.230,-119.629,0.000,0.000,0.000
1737564336.562,30.273,-117.188,0.000,0.000,0.000
1737564336.566,-5.859,-122.559,0.000,0.000,0.000
1737564336.570,-19.043,-125.488,0.000,0.000,0.000
1737564336.574,-11.719,-116.699,0.000,0.000,0.000
1737564336.578,2.441,-109.863,0.000,0.000,0.000
1737564336.582,11.719,-115.234,0.000,0.000,0.000
1737564336.586,5.859,-123.535,0.000,0.000,0.000
1737564336.590,-40.527,-125.488,0.000,0.000,0.000
1737564336.594,-44.434,-124.512,-64.453,4.395,0.000
1737564336.598,12.695,-112.305,-63.477,-3.418,0.000
1737564336.602,19.043,-106.934,-61.035,-12.695,0.000
1737564336.605,-14.160,-108.398,-59.570,-16.602,0.000
1737564336.609,-40.527,-106.445,-64.453,-16.602,0.000
1737564336.613,-25.391,-107.910,-71.289,-8.789,0.000
1737564336.617,-7.324,-98.145,-67.871,-3.906,0.000
1737564336.621,10.742,-93.262,-65.430,-10.254,0.000
1737564336.625,-7.324,-96.680,-75.195,-27.832,0.000
1737564336.629,-30.762,-91.309,-83.496,-20.508,0.000
1737564336.633,-18.555,-90.820,-74.219,-10.254,0.000
1737564336.637,28.320,-83.496,-60.059,-6.836,0.000
1737564336.641,19.531,-95.215,-57.129,10.254,0.000
1737564336.645,-37.598,-105.957,-60.547,-30.762,0.000
1737564336.648,-40.527,-90.332,-64.941,-62.500,0.000
1737564336.652,-30.273,-92.285,-58.105,-9.277,0.000
1737564336.656,2.441,-91.309,-50.293,4.395,0.000
1737564336.660,39.551,-81.543,-53.711,-2.441,0.000
1737564336.664,-10.254,-79.102,-52.246,-5.371,0.000
1737564336.668,-46.387,-75.195,-45.410,-18.555,0.000
1737564336.672,-2.930,-75.195,-49.805,-18.555,0.000
1737564336.676,31.250,-75.195,-47.363,9.766,0.000
1737564336.680,24.902,-66.406,-50.293,7.812,0.000
1737564336.683,-8.789,-66.895,-56.641,-40.527,0.000
1737564336.687,-37.109,-83.496,-44.922,-43.457,0.000
1737564336.691,-33.691,-83.984,-38.086,-14.160,0.000
1737564336.695,-10.742,-68.848,-41.504,10.742,0.000
1737564336.699,-5.859,-62.012,-40.527,24.414,0.000
1737564336.703,3.418,-60.059,-36.621,16.602,0.000
1737564336.707,-21.484,-61.035,-36.621,-6.348,0.000
1737564336.711,-34.180,-66.895,-44.922,-25.391,0.000
1737564336.715,-6.348,-73.242,-55.176,-16.602,0.000
1737564336.719,26.855,-75.195,-59.082,9.277,0.000
1737564336.723,42.969,-67.383,-51.758,8.789,0.000
1737564336.726,-6.836,-59.082,-53.711,9.277,0.000
1737564336.730,-52.246,-72.266,-55.664,-3.906,0.000
1737564336.734,-15.137,-82.520,-41.504,-15.137,0.000
1737564336.738,12.695,-66.895,-34.180,-8.301,0.000
1737564336.742,1.465,-63.477,-33.203,2.441,0.000
1737564336.746,-20.020,-68.359,-35.645,-2.441,0.000
1737564336.750,-26.855,-68.359,-44.434,-11.719,0.000
1737564336.754,-17.090,-70.312,-51.270,-2.441,0.000
1737564336.758,-8.301,-83.984,-62.988,-11.230,0.000
1737564336.762,11.230,-77.148,-59.570,-18.066,0.000
1737564336.765,-4.395,-62.988,-45.898,-48.828,0.000
1737564336.769,-35.645,-66.895,-45.898,-55.176,0.000
1737564336.773,-29.297,-67.383,-41.504,-5.859,0.000
1737564336.777,-8.789,-64.453,-24.414,23.926,0.000
1737564336.781,10.742,-63.477,-20.508,12.207,0.000
1737564336.785,-25.391,-69.336,-30.273,-18.555,0.000
1737564336.789,-51.270,-73.242,-40.527,-35.645,0.000
1737564336.793,-19.531,-66.406,-52.734,-31.738,0.000
1737564336.797,-0.977,-65.430,-52.246,-11.719,0.000
1737564336.801,3.418,-65.430,-44.922,-11.230,0.000
1737564336.805,-22.461,-59.082,-43.945,-22.461,0.000
1737564336.808,-37.109,-60.547,-42.969,-20.020,0.000
1737564336.812,-27.832,-65.430,-43.945,-21.484,0.000
1737564336.816,-15.137,-56.641,-50.293,-10.254,0.000
1737564336.820,7.324,-47.363,-46.387,-0.977,0.000
1737564336.824,4.883,-58.594,-43.457,-29.297,0.000
1737564336.828,-19.531,-56.152,-41.016,-53.223,0.000
1737564336.832,-43.945,-59.570,-12.695,-66.406,0.000
1737564336.836,-28.320,-43.457,62.988,-46.387,0.000
1737564336.840,33.691,43.457,80.566,22.949,0.000
1737564336.844,-2.441,-18.066,-3.418,-7.812,0.000
1737564336.848,-59.570,-31.250,41.016,-32.715,0.000
1737564336.851,-60.059,71.289,102.051,-13.672,0.000
1737564336.855,-40.039,128.418,51.270,-37.109,0.000
1737564336.859,-16.602,7.324,-25.391,-35.645,0.000
1737564336.863,-78.613,-132.324,-138.184,-92.773,0.000
1737564336.867,-138.184,47.363,-44.922,-168.457,0.000
1737564336.871,-229.980,291.992,145.508,-235.352,0.000
1737564336.875,-227.539,584.961,82.031,-235.840,0.000
1737564336.879,-154.785,886.230,90.820,-220.215,0.000
1737564336.883,-300.293,974.609,350.098,-334.473,0.000
1737564336.887,-333.496,963.867,504.883,-354.980,0.000
1737564336.891,-282.227,970.215,573.242,-353.516,0.000
1737564336.894,-324.219,971.191,757.812,-394.531,0.000
1737564336.898,-318.359,970.703,938.965,-399.414,0.000
1737564336.902,-339.844,970.703,969.238,-432.129,0.000
1737564336.906,-365.723,970.703,967.773,-447.754,0.000
1737564336.910,-329.102,970.703,970.703,-441.406,0.000
1737564336.914,-343.750,970.703,971.191,-514.160,0.000
1737564336.918,-409.180,970.703,970.703,-587.402,0.000
1737564336.922,0.000,970.703,970.703,-547.852,0.000
1737564336.926,0.000,970.703,970.703,-576.172,0.000
1737564336.930,0.000,970.703,970.703,-727.539,0.000
1737564336.934,0.000,970.703,970.703,-809.570,0.000
1737564336.937,0.000,970.703,971.191,-838.867,0.000
1737564336.941,0.000,970.703,970.703,-813.477,0.000
1737564336.945,0.000,970.703,970.703,-814.941,0.000
1737564336.949,0.000,970.703,970.703,-805.176,0.000
1737564336.953,0.000,970.703,970.703,-708.496,0.000
1737564336.957,0.000,970.703,970.703,-637.207,0.000
1737564336.961,0.000,970.703,970.703,-565.430,0.000
1737564336.965,0.000,970.703,970.703,-511.230,0.000
1737564336.969,-327.637,970.703,970.703,-456.055,0.000
1737564336.973,-291.992,970.703,970.703,-360.352,0.000
1737564336.976,-285.645,970.703,970.703,-269.043,0.000
1737564336.980,-250.000,970.703,970.703,-213.379,0.000
1737564336.984,-243.164,970.703,970.703,-165.527,0.000
1737564336.988,-242.188,970.703,970.703,-116.211,0.000
1737564336.992,-215.332,970.703,970.703,-63.965,0.000
1737564336.996,-207.031,970.703,970.703,36.133,0.000
1737564337.000,-160.156,970.703,970.703,165.527,0.000
1737564337.004,-179.199,970.703,970.703,251.953,0.000
1737564337.008,-203.613,970.703,970.703,316.406,0.000
1737564337.012,-155.762,972.168,970.703,422.852,0.000
1737564337.016,0.000,961.914,970.215,463.867,0.000
1737564337.019,0.000,974.121,970.703,463.379,0.000
1737564337.023,0.000,918.945,971.680,492.188,0.000
1737564337.027,0.000,575.195,965.820,500.488,0.000
1737564337.031,0.000,153.320,970.703,469.727,0.000
1737564337.035,0.000,-179.688,948.242,446.777,0.000
1737564337.039,0.000,-454.102,750.000,458.984,0.000
1737564337.043,0.000,-666.992,468.750,462.402,0.000
1737564337.047,0.000,-879.395,206.543,454.102,0.000
1737564337.051,0.000,-998.047,-57.129,427.246,0.000
1737564337.054,0.000,-998.047,-289.062,405.273,0.000
1737564337.058,0.000,-998.047,-479.492,458.984,0.000
1737564337.062,164.062,-1000.000,0.000,469.238,0.000
1737564337.066,132.324,-1000.000,0.000,406.250,0.000
1737564337.070,139.160,-1000.000,0.000,402.832,0.000
1737564337.074,149.414,-1000.000,0.000,419.922,0.000
1737564337.078,166.504,-1000.000,0.000,414.062,0.000
1737564337.082,182.617,-1000.000,0.000,407.715,0.000
1737564337.086,177.734,-1000.000,0.000,387.207,0.000
1737564337.090,194.336,-1000.000,0.000,390.137,0.000
1737564337.094,199.219,-1000.000,0.000,376.953,0.000
1737564337.097,216.309,-1000.000,0.000,375.000,0.000
1737564337.101,239.258,-1000.000,0.000,362.793,0.000
1737564337.105,201.172,-1000.000,0.000,323.730,0.000
1737564337.109,155.273,-1000.000,-1000.000,293.457,0.000
1737564337.113,175.293,-1000.000,-1000.000,271.484,0.000
1737564337.117,197.754,-1000.000,-1000.000,268.066,0.000
1737564337.121,180.176,-1000.000,-1000.000,264.160,0.000
1737564337.125,154.297,-1000.000,-1000.000,233.398,0.000
1737564337.129,163.086,-1000.000,-1000.000,224.121,0.000
1737564337.133,149.414,-1000.000,-1000.000,229.980,0.000
1737564337.137,159.180,-1000.000,-1000.000,226.562,0.000
1737564337.140,195.801,-1000.000,-1000.000,220.703,0.000
1737564337.144,155.762,-1000.000,-1000.000,197.754,0.000
1737564337.148,124.512,-1000.000,-1000.000,156.738,0.000
1737564337.152,144.043,-1000.000,-1000.000,173.340,0.000
1737564337.156,185.059,-1000.000,-1000.000,0.000,0.000
1737564337.160,202.148,-1000.000,-1000.000,0.000,0.000
1737564337.164,169.434,-1000.000,-999.023,0.000,0.000
1737564337.168,109.863,-1000.000,-984.375,0.000,0.000
1737564337.172,116.699,-1000.000,-972.168,0.000,0.000
1737564337.176,164.551,-1000.000,-956.543,0.000,0.000
1737564337.180,148.926,-1000.000,-932.129,0.000,0.000
1737564337.183,130.371,-1000.000,-914.062,0.000,0.000
1737564337.187,132.812,-1000.000,-896.484,0.000,0.000
1737564337.191,106.445,-1000.000,-869.629,0.000,0.000
1737564337.195,104.004,-1000.000,-834.473,0.000,0.000
1737564337.199,101.074,-1000.000,-816.406,0.000,0.000
1737564337.203,116.699,-1000.000,-796.387,74.707,0.000
1737564337.207,112.793,-1000.000,-783.203,57.129,0.000
1737564337.211,79.102,-1000.000,-786.133,63.965,0.000
1737564337.215,121.582,-1000.000,-773.438,97.168,0.000
1737564337.219,109.863,-1000.000,-753.418,85.938,0.000
1737564337.223,87.402,-1000.000,-724.121,75.684,0.000
1737564337.226,69.824,-1000.000,-706.543,62.012,0.000
1737564337.230,46.387,-1000.000,-696.289,53.223,0.000
1737564337.234,60.059,-1000.000,-676.758,73.242,0.000
1737564337.238,83.008,-1000.000,-672.852,50.293,0.000
1737564337.242,90.820,-1000.000,-668.945,23.926,0.000
1737564337.246,50.781,-1000.000,-634.766,28.809,0.000
1737564337.250,24.902,-1000.000,-610.840,41.016,0.000
1737564337.254,64.453,-1000.000,-605.957,64.941,0.000
1737564337.258,116.699,-1000.000,-588.379,58.105,0.000
1737564337.262,113.770,-999.512,-579.590,52.734,0.000
1737564337.266,55.664,-1000.000,-584.961,53.223,0.000
1737564337.269,44.434,-994.629,-570.801,32.227,0.000
1737564337.273,72.754,-966.309,-544.922,18.555,0.000
1737564337.277,68.848,-946.777,-527.832,50.293,0.000
1737564337.281,54.688,-944.336,-505.371,63.477,0.000
1737564337.285,22.461,-925.293,-485.840,6.836,0.000
1737564337.289,13.672,-880.371,-479.004,-14.648,0.000
1737564337.293,49.805,-855.469,-478.516,23.926,0.000
1737564337.297,64.941,-845.215,-477.539,52.246,0.000
1737564337.301,69.824,-827.637,-477.539,41.504,0.000
1737564337.305,53.223,-801.758,-472.168,26.855,0.000
1737564337.309,11.719,-784.180,-458.984,-4.395,0.000
1737564337.312,33.691,-774.414,-458.008,-24.414,0.000
1737564337.316,71.777,-751.953,-439.941,33.203,0.000
1737564337.320,69.824,-739.746,-417.480,69.336,0.000
1737564337.324,59.082,-730.469,-421.875,38.574,0.000
1737564337.328,21.484,-719.727,-419.922,-17.090,0.000
1737564337.332,21.973,-708.984,-412.109,24.902,0.000
1737564337.336,24.902,-688.477,-405.762,65.430,0.000
1737564337.340,29.785,-672.363,-387.207,36.133,0.000
1737564337.344,31.738,-662.109,-373.047,-8.301,0.000
1737564337.348,20.508,-657.227,-370.117,-7.812,0.000
1737564337.352,25.391,-641.602,-377.930,18.555,0.000
1737564337.355,60.547,-620.605,-394.043,43.945,0.000
1737564337.359,70.801,-612.793,-383.301,50.781,0.000
1737564337.363,17.090,-607.422,-353.027,18.555,0.000
1737564337.367,4.883,-599.609,-339.355,5.859,0.000
1737564337.371,5.859,-594.238,-324.219,13.672,0.000
1737564337.375,25.879,-581.055,-307.617,23.926,0.000
1737564337.379,58.594,-565.430,-324.707,32.715,0.000
1737564337.383,52.246,-548.828,-347.168,47.852,0.000
1737564337.387,4.883,-540.039,-349.121,6.836,0.000
1737564337.391,0.000,-535.645,-349.121,-8.301,0.000
1737564337.394,0.000,-519.043,-332.031,3.906,0.000
1737564337.398,0.000,-510.742,-311.035,7.324,0.000
1737564337.402,0.000,-504.395,-299.316,41.992,0.000
1737564337.406,0.000,-505.371,-305.176,17.578,0.000
1737564337.410,0.000,-500.488,-308.105,-0.488,0.000
1737564337.414,0.000,-483.398,-300.293,-5.859,0.000
1737564337.418,0.000,-472.656,-300.293,0.000,0.000
1737564337.422,0.000,-454.590,-292.480,46.387,0.000
1737564337.426,0.000,-443.848,-301.758,33.691,0.000
1737564337.430,0.000,-441.895,-305.664,-20.996,0.000
1737564337.433,0.000,-439.941,-290.527,-22.461,0.000
1737564337.437,-22.461,-441.895,-273.438,37.598,0.000
1737564337.441,-12.695,-432.129,-271.484,42.969,0.000
1737564337.445,15.625,-422.363,-275.391,-33.203,0.000
1737564337.449,42.480,-421.387,-270.020,-24.902,0.000
1737564337.453,14.648,-409.668,-266.113,33.203,0.000
1737564337.457,-14.648,-395.996,-258.789,31.738,0.000
1737564337.461,-2.930,-401.367,-259.766,16.602,0.000
1737564337.464,24.414,-401.367,-262.207,-5.371,0.000
1737564337.468,37.109,-390.137,-270.996,-23.438,0.000
1737564337.472,20.020,-381.348,-276.855,-27.832,0.000
1737564337.476,6.836,-376.953,-257.324,-1.465,0.000
1737564337.480,20.996,-369.629,-245.117,38.574,0.000
1737564337.484,35.645,-357.422,-245.605,11.719,0.000
1737564337.488,-5.371,-365.723,-238.770,-53.711,0.000
1737564337.492,-63.477,-371.094,-229.492,-62.012,0.000
1737564337.496,-19.531,-354.980,-223.633,1.953,0.000
1737564337.500,38.574,-352.051,-225.098,32.715,0.000
1737564337.503,17.578,-351.562,-231.445,6.836,0.000
1737564337.507,1.465,-346.191,-230.469,-3.418,0.000
1737564337.511,2.930,-341.309,-223.145,-8.789,0.000
1737564337.515,24.414,-335.449,-219.727,9.766,0.000
1737564337.519,35.156,-330.078,-217.285,23.438,0.000
1737564337.523,-9.766,-322.754,-215.820,-5.371,0.000
1737564337.527,-43.457,-318.359,-225.098,-44.434,0.000
1737564337.531,-34.668,-312.988,-229.004,-49.805,0.000
1737564337.535,-6.348,-313.477,-214.355,-14.160,0.000
1737564337.539,35.156,-309.570,-197.754,-3.906,0.000
1737564337.543,31.250,-303.711,-192.383,-25.391,0.000
1737564337.546,-8.789,-306.641,-201.660,-30.273,0.000
1737564337.550,-9.766,-309.082,-207.031,-13.184,0.000
1737564337.554,-11.230,-316.406,-202.637,5.371,0.000
1737564337.558,-0.977,-306.641,-203.613,-15.625,0.000
1737564337.562,9.277,-280.273,-205.566,-28.809,0.000
1737564337.566,-33.691,-268.066,-192.871,-29.785,0.000
1737564337.570,-32.715,-265.625,-182.129,-30.273,0.000
1737564337.574,-19.531,-270.508,-182.129,-5.371,0.000
1737564337.578,5.371,-265.625,-182.129,4.395,0.000
1737564337.582,20.020,-257.324,-183.105,0.000,0.000
1737564337.586,-14.160,-256.836,-176.758,-20.508,0.000
1737564337.590,-24.902,-261.719,-173.340,-52.734,0.000
1737564337.593,-23.926,-261.230,-176.758,-53.711,0.000
1737564337.597,-9.766,-262.207,-190.430,-18.555,0.000
1737564337.601,15.625,-267.578,-200.195,-7.324,0.000
1737564337.605,-5.371,-266.602,-185.547,-14.648,0.000
1737564337.609,-55.664,-271.484,-166.992,-33.691,0.000
1737564337.613,-32.227,-267.578,-158.203,-23.926,0.000
1737564337.617,39.062,-254.395,-162.109,12.207,0.000
1737564337.621,22.461,-245.117,-166.504,7.324,0.000
1737564337.625,0.000,-241.699,0.000,-8.301,0.000
1737564337.629,0.000,-238.770,0.000,-13.672,0.000
1737564337.633,0.000,-231.445,0.000,-18.066,0.000
1737564337.636,0.000,-226.074,0.000,-19.043,0.000
1737564337.640,0.000,-230.469,0.000,-35.645,0.000
1737564337.644,0.000,-240.723,0.000,-70.801,0.000
1737564337.648,0.000,-249.023,0.000,-45.898,0.000
1737564337.652,0.000,-246.094,0.000,-21.973,0.000
1737564337.656,0.000,-235.352,0.000,-20.020,0.000
1737564337.660,0.000,-237.793,0.000,-23.926,0.000
1737564337.664,0.000,-239.258,0.000,-44.434,0.000
1737564337.668,0.000,-232.910,0.000,-25.391,0.000
1737564337.672,-33.203,-227.051,-141.113,-10.742,0.000
1737564337.676,-11.719,-227.539,-131.836,-8.301,0.000
1737564337.679,17.090,-225.098,-126.465,3.418,0.000
1737564337.683,2.441,-216.797,-140.625,-17.090,0.000
1737564337.687,-8.301,-209.473,-161.133,-54.199,0.000
1737564337.691,1.465,-204.590,-168.457,-59.570,0.000
1737564337.695,12.207,-204.102,-152.832,-25.391,0.000
1737564337.699,41.504,-209.961,-130.371,0.977,0.000
1737564337.703,7.324,-213.867,-134.277,-27.832,0.000
1737564337.707,-62.988,-205.078,-133.789,-58.105,0.000
1737564337.711,-59.570,-209.473,-141.113,-43.457,0.000
1737564337.714,-37.598,-214.355,-149.414,-7.812,0.000
1737564337.719,-0.977,-208.008,-150.879,2.930,0.000
1737564337.722,-13.672,-210.938,-154.785,-27.832,0.000
1737564337.726,-41.016,-207.520,-134.766,-59.082,0.000
1737564337.730,-10.254,-200.195,-120.117,-61.523,0.000
1737564337.734,-0.488,-203.613,-114.258,-18.555,0.000
1737564337.738,0.488,-201.660,-105.957,16.602,0.000
1737564337.742,28.809,-190.430,-117.188,9.766,0.000
1737564337.746,-4.883,-190.430,-132.324,-29.785,0.000
1737564337.750,-43.945,-194.336,-133.301,-55.664,0.000
1737564337.754,-32.715,-189.453,-127.441,-26.855,0.000
1737564337.757,-5.371,-186.035,-117.188,16.113,0.000
1737564337.761,3.906,-194.336,-117.188,-0.977,0.000
1737564337.765,-11.719,-194.824,-124.023,-28.320,0.000
1737564337.769,-15.137,-189.453,-117.676,-30.762,0.000
1737564337.773,0.977,-181.152,-116.211,-46.875,0.000
1737564337.777,-5.859,-181.152,-122.070,-31.738,0.000
1737564337.781,-12.207,-187.500,-125.977,-20.996,0.000
1737564337.785,-27.344,-182.617,-124.023,-39.551,0.000
1737564337.789,-31.738,-167.969,-114.258,-22.461,0.000
1737564337.793,-28.809,-170.898,-110.840,-10.742,0.000
1737564337.797,-26.367,-175.781,-120.605,-23.438,0.000
1737564337.800,10.254,-167.969,-131.836,-23.926,0.000
1737564337.804,13.184,-171.875,-124.023,-41.504,0.000
1737564337.808,-14.648,-179.199,-107.422,-42.969,0.000
1737564337.812,0.000,-175.781,0.000,0.000,0.000
1737564337.816,0.000,-171.387,0.000,0.000,0.000
1737564337.820,0.000,-172.363,0.000,0.000,0.000
1737564337.824,0.000,-175.781,0.000,0.000,0.000
1737564337.828,0.000,-169.922,0.000,0.000,0.000
1737564337.832,0.000,-154.297,0.000,0.000,0.000
1737564337.836,0.000,-150.879,0.000,0.000,0.000
1737564337.840,0.000,-154.297,0.000,0.000,0.000
1737564337.843,0.000,-154.785,0.000,0.000,0.000
1737564337.847,0.000,-160.156,0.000,0.000,0.000
1737564337.851,0.000,-164.551,0.000,0.000,0.000
1737564337.855,0.000,-170.898,0.000,0.000,0.000
1737564337.859,25.879,-168.457,-89.355,-18.066,0.000
1737564337.863,-2.930,-152.344,-100.098,-10.254,0.000
1737564337.867,-43.945,-148.926,-112.793,-38.574,0.000
1737564337.871,-35.645,-146.484,-108.398,-36.621,0.000
1737564337.875,-0.488,-136.230,-103.027,5.371,0.000
1737564337.879,18.066,-140.625,-99.121,3.418,0.000
1737564337.882,18.555,-146.484,-97.656,0.977,0.000
1737564337.886,7.812,-143.066,-100.098,-14.648,0.000
1737564337.890,12.695,-144.043,-108.887,-24.414,0.000
1737564337.894,4.883,-151.367,-115.234,-14.160,0.000
1737564337.898,3.418,-150.879,-102.051,-9.277,0.000
1737564337.902,13.672,-145.508,-95.215,17.578,0.000
1737564337.906,4.395,-140.625,-94.727,-19.043,0.000
1737564337.910,-13.184,-131.348,-88.867,-42.969,0.000
1737564337.914,-24.414,-134.277,-81.055,-13.672,0.000
1737564337.918,-21.973,-146.973,-77.148,14.160,0.000
1737564337.922,-7.812,-145.996,-77.637,21.484,0.000
1737564337.925,-7.324,-142.578,-82.520,-36.621,0.000
1737564337.929,-9.766,-135.254,-91.309,-43.945,0.000
1737564337.933,21.484,-126.465,-94.727,-22.949,0.000
1737564337.937,-19.043,-132.812,-96.680,-8.789,0.000
1737564337.941,-19.531,-140.137,-106.934,-1.953,0.000
1737564337.945,-14.160,-143.066,-103.516,-23.438,0.000
1737564337.949,-59.082,-146.484,-93.262,-10.742,0.000
1737564337.953,-35.156,-147.949,-96.191,-12.207,0.000
1737564337.957,5.859,-128.418,-91.797,-33.691,0.000
1737564337.961,-1.465,-116.699,-84.473,-19.531,0.000
1737564337.965,-18.555,-126.465,-98.145,-29.297,0.000
1737564337.968,-36.133,-130.371,-115.234,-62.012,0.000
1737564337.972,-47.363,-136.230,-104.004,-76.172,0.000
1737564337.976,-11.719,-142.578,-80.078,-33.203,0.000
1737564337.980,49.805,-138.184,-73.242,31.250,0.000
1737564337.984,35.645,-121.582,-72.754,7.812,0.000
1737564337.988,-20.020,-122.559,-82.031,-33.691,0.000
1737564337.992,-40.527,-129.883,-88.867,-29.297,0.000
1737564337.996,1.953,-121.094,-88.867,-3.418,0.000
1737564338.000,4.395,-119.629,-100.098,-1.465,0.000
1737564338.004,-18.066,-122.070,-100.098,-34.668,0.000
1737564338.008,-25.879,-123.047,-84.473,-39.551,0.000
1737564338.011,-34.180,-128.418,-80.566,-0.488,0.000
1737564338.015,5.859,-133.301,-75.684,-18.555,0.000
1737564338.019,-27.832,-132.812,-74.707,-42.969,0.000
1737564338.023,-22.949,-127.441,-87.891,6.348,0.000
1737564338.027,19.043,-129.395,-87.891,4.395,0.000
1737564338.031,-24.414,-127.441,-68.848,-7.812,0.000
1737564338.035,-28.320,-128.418,-59.570,12.695,0.000
1737564338.039,9.766,-127.441,-70.801,15.625,0.000
1737564338.043,-11.230,-120.117,-83.496,-14.648,0.000
1737564338.047,-47.852,-120.117,-84.473,-47.363,0.000
1737564338.051,-25.879,-122.070,-86.426,-49.805,0.000
1737564338.054,-2.930,-120.605,-90.820,-47.363,0.000
1737564338.058,16.113,-126.465,-87.891,-21.973,0.000
1737564338.062,-4.883,-133.301,-89.844,-11.230,0.000
1737564338.066,-28.320,-128.906,-90.332,-22.461,0.000
1737564338.070,-44.922,-127.930,-88.867,-18.066,0.000
1737564338.074,-18.066,-120.605,-91.797,-30.273,0.000
1737564338.078,5.859,-115.723,-98.633,8.789,0.000
1737564338.082,-4.883,-111.328,-88.867,16.602,0.000
1737564338.086,-9.766,-103.027,-62.988,-40.039,0.000
1737564338.090,-22.461,-102.051,-71.777,-39.062,0.000
1737564338.094,-21.484,-119.141,-91.309,0.000,0.000
1737564338.097,-8.301,-124.512,-81.543,0.000,0.000
1737564338.101,-25.879,-113.281,-78.613,0.000,0.000
1737564338.105,-26.367,-120.605,-80.078,0.000,0.000
1737564338.109,-28.320,-126.953,-84.473,0.000,0.000
1737564338.113,-37.598,-110.352,-101.074,0.000,0.000
1737564338.117,18.066,-103.027,-87.891,0.000,0.000
1737564338.121,44.922,-112.305,-60.547,0.000,0.000
1737564338.125,-47.363,-112.793,-61.523,0.000,0.000
1737564338.129,-89.355,-111.328,-70.312,0.000,0.000
1737564338.132,-36.133,-108.398,-78.613,0.000,0.000
1737564338.136,15.137,-104.004,-85.449,0.000,0.000
1737564338.140,0.000,-101.562,-80.078,-28.809,0.000
1737564338.144,0.000,-104.980,-70.312,-20.508,0.000
1737564338.148,0.000,-109.375,-81.543,-58.105,0.000
1737564338.152,0.000,-106.934,-81.543,-101.074,0.000
1737564338.156,0.000,-107.422,-66.406,-30.762,0.000
1737564338.160,0.000,-106.934,-71.289,34.180,0.000
1737564338.164,0.000,-110.352,-68.848,24.414,0.000
1737564338.168,0.000,-121.582,-66.895,-17.090,0.000
1737564338.172,0.000,-113.770,-67.383,-30.762,0.000
1737564338.175,0.000,-100.098,-60.547,-14.648,0.000
1737564338.179,0.000,-93.750,-54.688,-14.648,0.000
1737564338.183,0.000,-92.285,-56.641,-40.039,0.000
1737564338.187,23.926,-102.051,0.000,-61.523,0.000
1737564338.191,-4.883,-104.980,0.000,-24.902,0.000
1737564338.195,-13.184,-107.422,0.000,-10.742,0.000
1737564338.199,-32.715,-106.934,0.000,1.953,0.000
1737564338.203,-21.484,-99.121,0.000,15.137,0.000
1737564338.206,-8.789,-88.867,0.000,-25.391,0.000
1737564338.210,2.441,-90.820,0.000,-60.547,0.000
1737564338.214,-21.973,-97.656,0.000,-48.340,0.000
1737564338.218,-40.527,-97.656,0.000,-3.906,0.000
1737564338.222,9.766,-95.215,0.000,-38.086,0.000
1737564338.226,8.789,-89.844,0.000,-78.613,0.000
1737564338.230,-3.906,-89.844,0.000,-41.016,0.000
1737564338.234,-50.293,-102.539,-88.379,-5.371,0.000
1737564338.238,-22.461,-106.445,-87.891,-20.996,0.000
1737564338.242,-2.441,-98.633,-83.496,-49.316,0.000
1737564338.246,-15.625,-94.727,-95.703,-44.434,0.000
1737564338.249,-10.742,-90.332,-104.980,-45.410,0.000
1737564338.253,6.836,-89.355,-93.750,-29.785,0.000
1737564338.257,3.906,-89.844,-96.191,-12.207,0.000
1737564338.261,-29.297,-101.074,-83.008,-11.719,0.000
1737564338.265,-60.059,-116.699,-57.129,-29.297,0.000
1737564338.269,-61.523,-116.211,-52.734,-57.129,0.000
1737564338.273,-2.930,-106.445,-56.152,-68.848,0.000
1737564338.277,28.320,-101.074,-75.684,-25.391,0.000
1737564338.281,-7.812,-102.539,-96.191,15.137,0.000
1737564338.285,-18.555,-98.633,-96.191,7.324,0.000
1737564338.289,-19.043,-99.609,-91.797,-34.180,0.000
1737564338.292,-29.297,-103.027,-75.684,-54.688,0.000
1737564338.296,-4.883,-102.051,-61.523,-25.879,0.000
1737564338.300,-11.230,-103.516,-66.895,-23.926,0.000
1737564338.304,-38.086,-99.121,-68.848,-28.320,0.000
1737564338.308,-4.883,-97.168,-72.754,-34.180,0.000
1737564338.312,5.371,-100.098,-83.984,-20.508,0.000
1737564338.316,-23.926,-104.004,-75.195,-1.953,0.000
1737564338.320,1.953,-104.004,-58.594,-2.441,0.000
1737564338.324,2.441,-89.355,-55.176,-22.461,0.000
1737564338.328,-39.062,-92.285,-66.895,-32.715,0.000
1737564338.332,-38.574,-99.609,-79.590,-24.902,0.000
1737564338.335,-18.066,-91.797,-78.125,-3.906,0.000
1737564338.339,4.395,-79.590,-79.590,10.254,0.000
1737564338.343,-18.066,-83.008,-75.195,-31.738,0.000
1737564338.347,-78.613,-92.773,-53.711,-46.875,0.000
1737564338.351,-39.062,-103.027,-48.340,-34.180,0.000
1737564338.355,29.785,-108.887,-54.199,-20.020,0.000
1737564338.359,34.180,-96.680,-63.965,0.977,0.000
1737564338.363,-22.949,-86.914,-78.125,-9.766,0.000
1737564338.367,-44.922,-86.914,-85.449,-39.551,0.000
1737564338.371,-8.301,-85.938,-77.148,-36.621,0.000
1737564338.375,-14.160,-90.332,-68.359,-26.855,0.000
1737564338.378,16.113,-96.191,-73.730,-10.742,0.000
1737564338.382,12.207,-85.938,-68.848,-0.977,0.000
1737564338.386,-28.809,-75.195,-49.805,0.977,0.000
1737564338.390,-47.363,-80.078,-48.828,-15.625,0.000
1737564338.394,-23.926,-91.797,-59.570,-40.039,0.000
1737564338.398,30.762,-87.402,-60.059,-24.902,0.000
1737564338.402,-11.719,-88.867,-67.383,-15.137,0.000
1737564338.406,-55.176,-92.285,-76.660,-34.180,0.000
1737564338.410,-37.109,-85.938,-68.359,-29.297,0.000
1737564338.414,3.906,-89.355,-65.918,-12.695,0.000
1737564338.417,8.789,-92.773,-71.777,-18.066,0.000
1737564338.421,0.000,-97.168,-65.918,-16.113,0.000
1737564338.425,0.000,-94.727,-64.453,-24.902,0.000
1737564338.429,0.000,-83.496,-68.359,-17.090,0.000
1737564338.433,0.000,-74.707,-57.129,-11.230,0.000
1737564338.437,0.000,-76.660,-49.316,-4.883,0.000
1737564338.441,0.000,-88.379,-54.688,14.160,0.000
1737564338.445,0.000,-90.820,-61.035,-14.160,0.000
1737564338.449,0.000,-92.773,-68.359,-48.828,0.000
1737564338.453,0.000,-89.844,-64.453,-40.527,0.000
1737564338.457,0.000,-84.473,-58.105,-34.668,0.000
1737564338.460,0.000,-83.496,-62.012,-15.625,0.000
1737564338.464,0.000,-88.379,-66.895,6.836,0.000
1737564338.468,-37.598,-93.262,-61.035,-6.836,0.000
1737564338.472,-6.836,-84.473,-51.758,-34.668,0.000
1737564338.476,0.000,-78.613,-55.664,-34.180,0.000
1737564338.480,10.742,-78.125,-64.453,-5.371,0.000
1737564338.484,4.883,-80.566,-73.242,-20.508,0.000
1737564338.488,-22.949,-88.867,-80.566,-58.105,0.000
1737564338.492,-52.734,-99.121,-83.496,-23.438,0.000
1737564338.496,-25.391,-100.098,-81.543,12.695,0.000
1737564338.500,9.766,-90.820,-74.707,1.465,0.000
1737564338.503,-14.648,-84.961,-62.012,-46.387,0.000
1737564338.507,-50.293,-85.449,-48.828,-37.598,0.000
1737564338.511,-56.641,-84.961,-44.434,-6.348,0.000
1737564338.515,-41.504,-83.984,-50.781,-36.621,0.000
1737564338.519,-12.207,-80.566,-63.477,-28.809,0.000
1737564338.523,-27.832,-86.426,-69.336,-15.137,0.000
1737564338.527,-42.969,-92.773,-62.500,-23.438,0.000
1737564338.531,-44.922,-97.656,-68.359,-26.367,0.000
1737564338.535,-17.578,-97.656,-77.637,-44.434,0.000
1737564338.539,12.207,-87.402,-68.359,-19.043,0.000
1737564338.542,-13.184,-83.008,-66.406,9.277,0.000
1737564338.546,-41.016,-81.543,-69.336,-5.859,0.000
1737564338.550,-35.156,-75.684,-54.199,-33.691,0.000
1737564338.554,-7.812,-70.801,-44.922,-31.738,0.000
1737564338.558,4.883,-69.824,-48.340,-9.277,0.000
1737564338.562,-6.836,-75.195,-61.035,-19.043,0.000
1737564338.566,-11.230,-75.684,-67.383,-23.926,0.000
1737564338.570,-35.645,-77.637,-62.988,-26.855,0.000
1737564338.574,-35.156,-83.984,-69.336,-28.809,0.000
1737564338.578,-15.625,-80.566,-82.031,-14.160,0.000
1737564338.582,-12.695,-80.566,-76.660,-36.133,0.000
1737564338.585,-45.410,-91.309,-47.852,-49.316,0.000
1737564338.589,-62.500,-96.191,-41.016,-41.992,0.000
1737564338.593,-26.367,-96.191,-45.898,-12.695,0.000
1737564338.597,-28.320,-98.145,-42.969,-1.953,0.000
1737564338.601,-9.277,-97.168,-45.410,-29.297,0.000
1737564338.605,-20.508,-99.609,-48.828,-52.246,0.000
1737564338.609,-37.598,-92.773,-59.570,-46.875,0.000
1737564338.613,1.953,-83.008,-77.637,-11.719,0.000
1737564338.617,27.344,-75.684,-69.824,13.672,0.000
1737564338.621,16.602,-80.566,-69.336,18.555,0.000
1737564338.625,-20.020,-83.008,-87.402,-7.812,0.000
1737564338.628,-18.066,-80.078,-82.031,-36.621,0.000
1737564338.632,-5.371,-82.031,-58.105,-26.367,0.000
1737564338.636,-31.250,-85.938,-40.527,-18.066,0.000
1737564338.640,-28.320,-88.379,-44.434,3.906,0.000
1737564338.644,-39.062,-89.844,-51.270,49.805,0.000
1737564338.648,-59.570,-94.238,-28.320,-20.020,0.000
1737564338.652,-37.109,-102.539,-14.160,-61.523,0.000
1737564338.656,-28.320,-109.863,-19.531,-11.230,0.000
1737564338.660,-31.250,-110.840,-24.414,-49.805,0.000
1737564338.664,-25.391,-124.512,-26.367,-25.879,0.000
1737564338.668,-55.664,-135.254,-22.461,12.207,0.000
1737564338.671,-69.824,-139.648,-21.484,21.484,0.000
1737564338.675,-45.898,-147.949,-20.020,25.391,0.000
1737564338.679,-34.180,-154.297,-15.137,21.484,0.000
1737564338.683,-34.668,-157.227,-12.207,23.926,0.000
1737564338.687,-32.715,-154.297,-18.555,12.695,0.000
1737564338.691,-50.293,-164.551,-17.090,40.039,0.000
1737564338.695,-62.012,-171.875,4.883,50.293,0.000
1737564338.699,-40.039,-163.574,9.277,44.434,0.000
1737564338.703,-8.301,-160.156,-2.441,61.523,0.000
1737564338.707,-13.672,-153.809,2.930,34.180,0.000
1737564338.711,-10.742,-146.973,3.418,-0.977,0.000
1737564338.714,-21.973,-145.508,0.488,28.320,0.000
1737564338.718,-13.184,-135.254,0.000,64.453,0.000
1737564338.722,19.531,-125.000,-4.395,53.711,0.000
1737564338.726,-17.090,-122.559,-9.277,38.574,0.000
1737564338.730,-36.621,-122.559,-21.484,1.465,0.000
1737564338.734,-8.789,-120.117,-27.344,14.160,0.000
1737564338.738,-6.836,-113.770,-26.367,64.941,0.000
1737564338.742,-12.207,-110.352,-25.879,110.352,0.000
1737564338.746,-0.488,-103.516,-36.621,18.066,0.000
1737564338.750,-6.836,-97.168,-57.129,-65.918,0.000
1737564338.754,-8.301,-93.262,-53.223,24.414,0.000
1737564338.757,40.527,-87.891,-30.762,38.086,0.000
1737564338.761,33.203,-89.844,-27.832,23.438,0.000
1737564338.765,-2.930,-89.844,-36.621,70.801,0.000
1737564338.769,-16.113,-79.590,-43.945,17.090,0.000
1737564338.773,-67.871,-83.008,-38.574,-13.672,0.000
1737564338.777,-41.016,-86.426,-27.344,43.945,0.000
1737564338.781,-10.742,-86.426,-33.203,18.066,0.000
1737564338.785,-15.137,-85.938,-48.828,-16.113,0.000
1737564338.789,-11.719,-81.543,-54.688,-0.488,0.000
1737564338.793,-4.395,-77.637,-47.852,32.227,0.000
1737564338.797,-19.531,-79.102,-48.340,16.113,0.000
1737564338.800,-37.598,-82.031,-56.152,-44.434,0.000
1737564338.804,-48.340,-82.031,-61.523,-34.180,0.000
1737564338.808,-35.156,-75.684,-61.523,0.977,0.000
1737564338.812,8.301,-65.918,-57.617,-0.488,0.000
1737564338.816,-8.301,-66.895,-62.012,-20.508,0.000
1737564338.820,-60.547,-68.848,-64.453,-20.508,0.000
1737564338.824,-54.199,-67.871,-59.570,2.441,0.000
1737564338.828,-14.648,-67.383,-61.523,4.883,0.000
1737564338.832,-20.996,-67.871,-61.035,15.625,0.000
1737564338.836,-21.484,-66.406,-52.246,7.812,0.000
1737564338.839,-23.926,-63.477,-60.059,-35.156,0.000
1737564338.843,0.000,-62.500,-64.453,-2.441,0.000
1737564338.847,0.000,-65.918,-54.688,-10.742,0.000
1737564338.851,0.000,-69.336,-54.199,-47.852,0.000
1737564338.855,0.000,-62.500,-54.199,-22.949,0.000
1737564338.859,0.000,-66.895,-49.316,-40.039,0.000
1737564338.863,0.000,-65.918,-45.410,-61.523,0.000
1737564338.867,0.000,-59.570,-68.359,-40.039,0.000
1737564338.871,0.000,-64.453,-79.590,-67.383,0.000
1737564338.875,0.000,-63.965,-74.219,-12.695,0.000
1737564338.879,0.000,-59.082,-82.520,100.586,0.000
1737564338.882,0.000,-55.664,-60.547,20.020,0.000
1737564338.886,0.000,-55.664,-54.199,-49.316,0.000
1737564338.890,-75.684,-64.453,-66.895,-56.641,0.000
1737564338.894,-18.066,-66.406,-49.316,-43.945,0.000
1737564338.898,33.691,-52.734,-38.086,46.387,0.000
1737564338.902,-15.625,-57.617,-42.969,-0.488,0.000
1737564338.906,-60.547,-69.824,-50.781,-106.445,0.000
1737564338.910,-31.738,-59.570,-79.102,-72.754,0.000
1737564338.914,0.977,-46.387,-67.383,-5.371,0.000
1737564338.918,-5.371,-41.016,-28.320,-16.602,0.000
1737564338.921,-7.324,-43.945,-34.668,-72.266,0.000
1737564338.925,3.418,-41.016,-69.824,-87.891,0.000
1737564338.929,-2.930,-43.945,-90.332,-69.336,0.000
1737564338.933,-0.488,-51.758,-64.941,-4.883,0.000
1737564338.937,0.000,-51.758,-40.039,21.484,0.000
1737564338.941,0.000,-59.570,-47.852,-26.367,0.000
1737564338.945,0.000,-62.012,-40.527,-3.418,0.000
1737564338.949,0.000,-63.477,-35.156,16.602,0.000
1737564338.953,0.000,-56.641,-56.152,4.883,0.000
1737564338.957,0.000,-51.270,-61.523,-12.207,0.000
1737564338.961,0.000,-57.617,-45.898,-10.742,0.000
1737564338.964,0.000,-70.312,-41.016,-5.371,0.000
1737564338.968,0.000,-71.777,-49.316,4.395,0.000
1737564338.972,0.000,-61.035,-52.246,28.809,0.000
1737564338.976,0.000,-64.941,-51.270,5.859,0.000
1737564338.980,0.000,-75.684,-50.293,-10.742,0.000
1737564338.984,-9.277,-67.383,-54.199,-4.883,0.000
1737564338.988,-33.203,-64.941,-63.965,31.738,0.000
1737564338.992,1.465,-62.988,-84.473,-7.812,0.000
1737564338.996,20.996,-58.594,-79.590,-43.945,0.000
1737564339.000,-20.996,-62.988,-50.781,-25.879,0.000
1737564339.004,-7.812,-56.152,-46.387,-68.359,0.000
1737564339.007,11.719,-57.617,-48.828,-16.602,0.000
1737564339.011,-14.648,-55.176,-49.316,62.012,0.000
1737564339.015,-24.902,-60.059,-46.875,72.754,0.000
1737564339.019,10.254,-71.777,-45.898,87.891,0.000
1737564339.023,24.902,-67.871,-50.293,18.555,0.000
1737564339.027,0.488,-61.523,-50.293,-64.453,0.000
1737564339.031,13.184,-59.570,-47.852,-46.875,0.000
1737564339.035,28.809,-64.453,-55.176,21.484,0.000
1737564339.039,56.641,-61.523,-65.918,13.184,0.000
1737564339.043,63.965,-60.059,-61.523,-30.762,0.000
1737564339.047,16.602,-58.594,-50.293,-2.441,0.000
1737564339.050,-15.625,-55.176,-52.734,14.648,0.000
1737564339.054,12.207,-54.199,-53.223,32.227,0.000
1737564339.058,15.137,-55.664,-51.270,61.523,0.000
1737564339.062,7.812,-57.129,-59.082,25.391,0.000
1737564339.066,30.273,-53.223,-58.594,-13.672,0.000
1737564339.070,94.727,-43.945,-59.570,7.812,0.000
1737564339.074,51.758,-54.199,-58.105,40.039,0.000
1737564339.078,-19.531,-63.477,-55.176,9.277,0.000
1737564339.082,-15.137,-62.012,-62.988,-16.113,0.000
1737564339.086,-0.488,-62.988,-67.383,-30.273,0.000
1737564339.090,6.836,-62.012,-61.523,-36.133,0.000
1737564339.093,11.230,-63.477,-56.152,-35.645,0.000
1737564339.097,68.848,-62.012,-57.129,28.809,0.000
1737564339.101,57.129,-56.641,-55.664,48.340,0.000
1737564339.105,44.922,-48.828,-53.711,19.531,0.000
1737564339.109,41.016,-50.781,-52.734,35.156,0.000
1737564339.113,72.754,-55.664,-46.875,14.160,0.000
1737564339.117,99.121,-49.316,-47.363,19.531,0.000
1737564339.121,44.922,-51.270,-43.945,48.340,0.000
1737564339.125,14.160,-59.570,-51.758,27.344,0.000
1737564339.129,47.852,-52.734,-63.477,19.043,0.000
1737564339.133,62.012,-40.039,-61.523,26.855,0.000
1737564339.136,34.180,-43.457,-58.594,-6.348,0.000
1737564339.140,23.926,-52.734,-50.781,-13.184,0.000
1737564339.144,-14.160,-58.594,-43.945,-9.277,0.000
1737564339.148,-23.926,-60.059,-46.387,-19.531,0.000
1737564339.152,-33.203,-61.035,-47.852,-44.434,0.000
1737564339.156,-65.918,-64.453,-52.246,-53.223,0.000
1737564339.160,-51.270,-64.941,-59.570,-62.988,0.000
1737564339.164,-65.918,-66.406,-61.523,-80.078,0.000
1737564339.168,-63.965,-67.383,-62.988,-84.473,0.000
1737564339.172,-51.758,-68.359,-70.801,-151.855,0.000
1737564339.176,-88.867,-68.359,-71.289,-108.887,0.000
1737564339.179,-97.168,-68.848,-54.688,-36.621,0.000
1737564339.183,-73.730,-65.918,-62.500,-95.703,0.000
1737564339.187,-55.664,-65.918,-72.754,-113.770,0.000
1737564339.191,-21.484,-65.918,-58.594,-90.332,0.000
1737564339.195,-63.965,-67.871,-47.363,-88.379,0.000
1737564339.199,-125.488,-67.383,-47.363,-87.402,0.000
1737564339.203,-127.930,-64.453,-53.711,-171.387,0.000
1737564339.207,-107.422,-62.500,-52.246,-183.105,0.000
1737564339.211,-96.680,-62.988,-51.758,-71.777,0.000
1737564339.214,-79.102,-66.406,-63.477,-74.219,0.000
1737564339.218,-87.402,-64.941,-64.453,-116.699,0.000
1737564339.222,-100.586,-62.988,-60.547,-132.812,0.000
1737564339.226,-86.426,-66.406,-51.758,-106.934,0.000
1737564339.230,-90.332,-65.918,-41.992,-110.840,0.000
1737564339.234,-57.617,-60.059,-47.363,-67.871,0.000
1737564339.238,-55.176,-56.641,-47.852,-78.125,0.000
1737564339.242,-99.121,-61.035,-38.574,-168.945,0.000
1737564339.246,-113.770,-65.918,-39.551,-98.145,0.000
1737564339.250,-105.469,-67.383,-40.527,-22.949,0.000
1737564339.254,-93.750,-68.848,-36.133,-48.340,0.000
1737564339.257,-36.621,-62.500,-48.340,-101.074,0.000
1737564339.261,-8.789,-55.176,-57.617,-118.164,0.000
1737564339.265,-73.242,-57.129,-60.059,-106.445,0.000
1737564339.269,-83.496,-62.500,-75.195,-94.727,0.000
1737564339.273,-65.430,-54.688,-71.777,-180.176,0.000
1737564339.277,-68.848,-49.805,-52.734,-146.973,0.000
1737564339.281,-93.750,-61.035,-51.270,-19.043,0.000
1737564339.285,-60.547,-58.594,-57.129,-83.008,0.000
1737564339.289,-36.621,-57.129,-50.781,-112.305,0.000
1737564339.293,-62.988,-62.500,-45.898,-41.016,0.000
1737564339.297,-80.566,-58.594,-45.898,-104.492,0.000
1737564339.300,-79.590,-56.152,-51.758,-106.934,0.000
1737564339.304,-78.613,-58.594,-58.105,-61.035,0.000
1737564339.308,-102.051,-57.617,-53.223,-127.930,0.000
1737564339.312,-87.402,-55.664,-46.875,-85.938,0.000
1737564339.316,-67.383,-58.594,-50.781,-17.090,0.000
1737564339.320,-66.406,-60.547,-60.059,-43.457,0.000
1737564339.324,-63.477,-58.594,-61.523,-93.262,0.000
1737564339.328,-36.133,-54.688,-61.035,-118.652,0.000
1737564339.332,-37.109,-55.664,-68.359,-122.559,0.000
1737564339.336,-70.312,-62.988,-64.453,-33.203,0.000
1737564339.340,-52.734,-62.500,-54.199,-18.555,0.000
1737564339.343,-67.383,-55.664,-50.293,-98.633,0.000
1737564339.347,-113.770,-54.688,-54.199,-135.254,0.000
1737564339.351,-100.586,-62.012,-54.688,-101.562,0.000
1737564339.355,-56.641,-68.359,-50.293,-42.480,0.000
1737564339.359,-50.293,-68.359,-56.641,-41.992,0.000
1737564339.363,-38.086,-63.965,-61.523,-80.566,0.000
1737564339.367,-6.836,-66.406,-50.781,-89.844,0.000
1737564339.371,-4.395,-61.523,-45.410,-39.062,0.000
1737564339.375,-35.156,-60.059,-48.828,-41.016,0.000
1737564339.379,-103.516,-65.430,-51.270,-81.543,0.000
1737564339.382,-112.793,-60.547,-57.129,-81.055,0.000
1737564339.386,-59.082,-51.270,-54.199,-56.152,0.000
1737564339.390,-13.672,-48.828,-45.898,-51.758,0.000
1737564339.394,-24.902,-59.570,-41.504,-29.297,0.000
1737564339.398,-22.949,-62.988,-45.410,-33.691,0.000
1737564339.402,-39.551,-59.570,-56.152,-53.711,0.000
1737564339.406,-57.129,-62.012,-59.082,-80.566,0.000
1737564339.410,-53.223,-64.453,-61.523,-121.094,0.000
1737564339.414,-31.250,-64.453,-64.453,-24.414,0.000
1737564339.418,-36.133,-63.477,-55.176,-11.230,0.000
1737564339.422,-62.012,-67.383,-48.828,-75.195,0.000
1737564339.426,-43.457,-68.359,-51.270,-40.039,0.000
1737564339.429,32.227,-67.383,-53.711,-28.809,0.000
1737564339.433,6.348,-65.430,-55.664,-53.711,0.000
1737564339.437,-74.707,-72.754,-58.105,-56.152,0.000
1737564339.441,-59.570,-74.707,-54.199,-20.020,0.000
1737564339.445,-33.691,-65.918,-52.246,-62.012,0.000
1737564339.449,-22.461,-61.523,-45.410,-35.156,0.000
1737564339.453,0.000,-58.105,0.000,21.484,0.000
1737564339.457,0.000,-56.641,0.000,-56.152,0.000
1737564339.461,0.000,-58.594,0.000,-101.074,0.000
1737564339.465,0.000,-60.059,0.000,-101.074,0.000
1737564339.469,0.000,-64.941,0.000,-45.410,0.000
1737564339.472,0.000,-68.848,0.000,20.020,0.000
1737564339.476,0.000,-62.012,0.000,-39.062,0.000
1737564339.480,0.000,-64.453,0.000,-105.957,0.000
1737564339.484,0.000,-70.312,0.000,-95.703,0.000
1737564339.488,0.000,-67.871,0.000,-17.090,0.000
1737564339.492,0.000,-64.941,0.000,3.906,0.000
1737564339.496,0.000,-67.383,0.000,-8.789,0.000
1737564339.500,-74.219,-75.684,-59.082,-53.711,0.000
1737564339.504,-74.219,-71.777,-53.711,-87.891,0.000
1737564339.508,-26.367,-63.965,-48.828,-15.625,0.000
1737564339.512,68.359,-61.035,-44.434,-0.977,0.000
1737564339.515,-0.977,-55.664,-46.875,-45.898,0.000
1737564339.519,-78.125,-58.105,-53.223,-1.465,0.000
1737564339.523,-62.988,-61.523,-45.898,-14.648,0.000
1737564339.527,-32.227,-56.641,-40.039,-78.125,0.000
1737564339.531,-28.809,-58.105,-42.969,0.488,0.000
1737564339.535,-52.246,-56.641,-47.852,-4.395,0.000
1737564339.539,-46.387,-56.641,-42.969,-81.055,0.000
1737564339.543,-36.621,-61.035,-47.363,-79.590,0.000
1737564339.547,-15.625,-60.059,-51.758,-34.668,0.000
1737564339.551,41.016,-53.711,-48.340,9.766,0.000
1737564339.555,24.414,-53.223,-52.246,33.691,0.000
1737564339.558,-36.621,-62.012,-46.875,40.039,0.000
1737564339.562,-4.395,-61.523,-44.922,-9.277,0.000
1737564339.566,2.930,-59.570,-46.875,-45.410,0.000
1737564339.570,-16.113,-59.570,-52.246,-45.410,0.000
1737564339.574,-16.602,-62.012,-50.293,-3.906,0.000
1737564339.578,-29.297,-66.895,-45.410,52.246,0.000
1737564339.582,17.090,-62.988,-53.711,27.344,0.000
1737564339.586,35.156,-55.664,-53.223,-62.012,0.000
1737564339.590,-56.152,-61.523,-47.363,-46.387,0.000
1737564339.594,-25.391,-66.406,-44.922,8.789,0.000
1737564339.597,-41.504,-67.383,-50.293,0.977,0.000
1737564339.601,-37.109,-62.988,-58.105,-14.160,0.000
1737564339.605,-27.832,-57.617,-53.223,-40.039,0.000
1737564339.609,-8.789,-57.129,-51.758,-33.203,0.000
1737564339.613,4.883,-61.035,-52.734,-60.059,0.000
1737564339.617,4.883,-60.547,-47.852,-48.828,0.000
1737564339.621,3.418,-65.430,-39.551,26.855,0.000
1737564339.625,-25.391,-73.242,-44.434,0.977,0.000
1737564339.629,9.277,-62.988,-52.734,-1.465,0.000
1737564339.633,42.480,-56.641,-54.199,45.410,0.000
1737564339.636,14.160,-62.012,-55.176,-23.438,0.000
1737564339.640,-62.988,-64.453,-56.641,-111.816,0.000
1737564339.644,-41.992,-62.500,-52.734,-32.715,0.000
1737564339.648,31.250,-63.477,-54.688,-25.879,0.000
1737564339.652,35.645,-63.965,-57.617,-29.297,0.000
1737564339.656,-33.691,-65.430,-49.805,45.898,0.000
1737564339.660,-96.680,-63.965,-59.082,-38.574,0.000
1737564339.664,-31.738,-61.523,-63.965,-121.094,0.000
1737564339.668,-7.324,-62.012,-61.035,-30.273,0.000
1737564339.672,-47.363,-65.918,-64.941,-35.156,0.000
1737564339.676,-21.484,-69.824,-53.711,-62.012,0.000
1737564339.679,-9.277,-69.336,-41.992,41.504,0.000
1737564339.683,-73.730,-72.754,-45.898,-32.715,0.000
1737564339.687,-33.691,-65.430,-45.410,-53.711,0.000
1737564339.691,3.418,-56.641,-44.434,-22.461,0.000
1737564339.695,-66.406,-60.059,-54.199,-83.984,0.000
1737564339.699,-75.195,-67.383,-48.828,13.672,0.000
1737564339.703,-35.156,-66.895,-40.527,51.758,0.000
1737564339.707,5.371,-57.129,-44.434,-85.449,0.000
1737564339.711,14.648,-58.105,-44.922,-61.523,0.000
1737564339.715,-30.273,-61.523,-51.270,-17.090,0.000
1737564339.718,-34.668,-49.805,-57.129,-22.949,0.000
1737564339.722,-36.621,-48.828,-55.664,-23.926,0.000
1737564339.726,-28.320,-52.246,-57.129,-55.176,0.000
1737564339.730,2.441,-54.688,-49.805,-32.715,0.000
1737564339.734,-24.414,-65.430,-37.598,17.578,0.000
1737564339.738,-41.016,-64.941,-45.410,-41.016,0.000
1737564339.742,-48.828,-58.105,-54.199,-26.367,0.000
1737564339.746,17.090,-54.688,-52.246,-36.133,0.000
1737564339.750,44.434,-52.246,-48.340,-46.875,0.000
1737564339.754,-15.137,-56.152,-41.992,-19.531,0.000
1737564339.758,-25.391,-61.035,-43.945,-19.043,0.000
1737564339.761,-22.461,-62.012,-46.387,11.719,0.000
1737564339.765,-56.641,-66.406,-46.875,-5.859,0.000
1737564339.769,-51.758,-62.500,-49.805,-22.461,0.000
1737564339.773,27.344,-57.617,-54.688,-26.855,0.000
1737564339.777,-22.949,-61.523,-59.570,-63.477,0.000
1737564339.781,-58.594,-60.547,-53.223,-4.883,0.000
1737564339.785,-7.324,-58.594,-53.711,7.812,0.000
1737564339.789,-19.531,-62.012,-54.199,-23.926,0.000
1737564339.793,8.301,-59.082,-51.270,-0.488,0.000
1737564339.797,-20.508,-60.547,-46.387,26.855,0.000
1737564339.801,-29.785,-67.383,-42.969,6.348,0.000
1737564339.804,15.625,-66.406,-56.641,-67.871,0.000
1737564339.808,20.996,-66.406,-61.035,-27.344,0.000
1737564339.812,-9.766,-71.289,-50.293,69.824,0.000
1737564339.816,-17.578,-72.266,-58.105,11.230,0.000
1737564339.820,0.977,-66.406,-58.105,-5.371,0.000
1737564339.824,10.742,-60.547,-53.223,-10.742,0.000
1737564339.828,-12.207,-59.570,-55.664,-75.684,0.000
1737564339.832,-9.277,-63.477,-50.293,-27.832,0.000
1737564339.836,-66.406,-66.406,-50.293,-24.902,0.000
1737564339.840,-70.312,-61.035,-51.270,-28.809,0.000
1737564339.844,24.414,-55.176,-50.293,-28.809,0.000
1737564339.847,18.066,-56.152,-52.246,-61.035,0.000
1737564339.851,-0.977,-56.152,-50.781,13.672,0.000
1737564339.855,-8.789,-56.641,-49.805,2.930,0.000
1737564339.859,-27.832,-60.059,-46.875,4.883,0.000
1737564339.863,-31.738,-58.105,-54.688,5.859,0.000
1737564339.867,-77.637,-56.641,-57.617,-22.461,0.000
1737564339.871,-57.617,-57.617,-62.500,-32.227,0.000
1737564339.875,-6.348,-58.105,-66.895,-64.941,0.000
1737564339.879,-42.480,-61.523,-51.758,14.648,0.000
1737564339.883,-33.691,-59.570,-50.781,-12.695,0.000
1737564339.887,53.223,-53.223,-54.688,-57.617,0.000
1737564339.890,35.645,-48.340,-55.664,23.438,0.000
1737564339.894,9.277,-48.828,-56.152,48.828,0.000
1737564339.898,18.066,-56.641,-60.059,-9.766,0.000
1737564339.902,2.441,-54.688,-61.035,-21.484,0.000
1737564339.906,-34.668,-55.176,-59.082,-22.949,0.000
1737564339.910,-17.578,-59.570,-58.105,-65.430,0.000
1737564339.914,-11.719,-58.105,-59.570,-58.105,0.000
1737564339.918,-34.180,-62.012,-57.617,4.883,0.000
1737564339.922,-8.301,-54.688,-54.199,20.508,0.000
1737564339.926,8.789,-53.223,-59.570,-9.766,0.000
1737564339.929,30.762,-60.059,-56.152,22.949,0.000
1737564339.933,-16.602,-60.059,-52.246,67.383,0.000
1737564339.937,-55.664,-62.012,-55.176,-16.113,0.000
1737564339.941,-31.250,-62.500,-55.664,-63.477,0.000
1737564339.945,-25.391,-61.035,-55.664,-29.785,0.000
1737564339.949,21.484,-58.105,-57.617,0.488,0.000
1737564339.953,14.160,-62.500,-60.547,-15.625,0.000
1737564339.957,-16.113,-59.570,-60.547,-40.039,0.000
1737564339.961,-38.574,-59.570,-53.711,2.441,0.000
1737564339.965,-28.809,-64.941,-53.223,-1.465,0.000
1737564339.969,29.297,-57.617,-59.082,-10.742,0.000
1737564339.972,24.902,-55.664,-49.805,57.617,0.000
1737564339.976,-57.617,-58.594,-48.340,72.754,0.000
1737564339.980,-43.945,-60.547,-55.176,-10.254,0.000
1737564339.984,85.449,-58.105,-52.246,-14.648,0.000
1737564339.988,62.012,-52.734,-57.129,24.902,0.000
1737564339.992,44.434,-51.758,-59.082,14.648,0.000
1737564339.996,15.137,-57.617,-52.734,-12.207,0.000
1737564340.000,-68.359,-62.500,-51.270,-5.859,0.000
1737564340.004,-56.152,-60.547,-52.246,25.879,0.000
1737564340.008,-2.930,-58.594,-58.105,-37.598,0.000
1737564340.011,20.996,-58.594,-61.035,-25.391,0.000
1737564340.015,-23.926,-62.988,-52.246,0.000,0.000
1737564340.019,-2.930,-61.523,-56.641,0.000,0.000
1737564340.023,30.273,-59.570,-61.035,0.000,0.000
1737564340.027,17.090,-57.129,-56.152,0.000,0.000
1737564340.031,3.418,-55.176,-51.758,0.000,0.000
1737564340.035,-20.508,-54.688,-49.316,0.000,0.000
1737564340.039,-14.648,-56.152,-52.734,0.000,0.000
1737564340.043,-14.160,-58.594,-59.570,0.000,0.000
1737564340.047,0.000,-55.664,-57.129,0.000,0.000
1737564340.051,45.410,-52.246,-53.223,0.000,0.000
1737564340.054,4.395,-51.758,-52.246,0.000,0.000
1737564340.058,-39.551,-51.270,-56.152,0.000,0.000
1737564340.062,-47.852,-48.340,-61.523,-19.043,0.000
1737564340.066,-9.766,-45.410,-60.059,14.160,0.000
1737564340.070,23.926,-45.410,-55.664,14.648,0.000
1737564340.074,5.371,-47.852,-57.129,-14.160,0.000
1737564340.078,20.996,-50.781,-60.547,-15.137,0.000
1737564340.082,-53.223,-54.688,-58.105,-5.371,0.000
1737564340.086,-29.297,-58.105,-56.641,-41.016,0.000
1737564340.090,26.855,-58.594,-53.223,42.969,0.000
1737564340.093,-7.324,-57.617,-58.594,67.871,0.000
1737564340.097,-23.926,-58.105,-68.848,-44.434,0.000
1737564340.101,-44.922,-60.059,-59.570,-51.270,0.000
1737564340.105,-6.348,-61.523,-55.664,-51.758,0.000
1737564340.109,15.137,-59.570,-62.012,-27.832,0.000
1737564340.113,-24.414,-56.641,-56.641,41.504,0.000
1737564340.117,-25.879,-52.246,-54.688,54.688,0.000
1737564340.121,4.395,-52.246,-55.176,19.531,0.000
1737564340.125,28.320,-49.805,-51.270,-20.020,0.000
1737564340.129,46.387,-43.945,-42.480,-22.461,0.000
1737564340.133,28.809,-53.711,-38.574,19.043,0.000
1737564340.136,5.859,-52.734,-41.504,10.742,0.000
1737564340.140,0.000,-55.176,-46.387,-6.348,0.000
1737564340.144,-1.953,-56.641,-51.758,-18.555,0.000
1737564340.148,-23.438,-53.711,-45.898,-25.879,0.000
1737564340.152,-30.273,-59.082,-35.156,27.344,0.000
1737564340.156,3.418,-56.641,-42.969,65.430,0.000
1737564340.160,-63.477,-55.176,-50.293,1.953,0.000
1737564340.164,-64.941,-55.664,-49.805,8.301,0.000
1737564340.168,41.016,-50.293,-58.105,-7.324,0.000
1737564340.172,39.062,-47.363,-58.105,-45.410,0.000
1737564340.175,-15.625,-54.688,-55.176,-33.691,0.000
1737564340.179,-6.348,-60.059,-54.199,-20.996,0.000
1737564340.183,30.762,-55.664,-54.688,0.488,0.000
1737564340.187,32.715,-49.316,-60.059,39.062,0.000
1737564340.191,3.418,-53.711,-58.594,-21.484,0.000
1737564340.195,-53.223,-59.570,-59.570,-55.176,0.000
1737564340.199,-62.012,-56.152,-60.547,-5.859,0.000
1737564340.203,25.391,-56.641,-53.223,8.301,0.000
1737564340.207,42.969,-55.664,-52.734,2.441,0.000
1737564340.211,12.207,-50.781,-61.035,38.086,0.000
1737564340.215,-0.488,-49.805,-60.547,58.105,0.000
1737564340.218,-9.277,-49.805,-57.129,-38.086,0.000
1737564340.222,-14.648,-57.617,-56.152,-31.738,0.000
1737564340.226,-27.344,-62.988,-45.410,-3.906,0.000
1737564340.230,-6.348,-61.523,-40.039,-5.859,0.000
1737564340.234,-34.668,-67.383,-41.016,-32.227,0.000
1737564340.238,-79.590,-65.430,-46.387,-81.055,0.000
1737564340.242,-79.102,-60.059,-48.340,-41.992,0.000
1737564340.246,-23.926,-58.105,-50.293,-57.617,0.000
1737564340.250,10.742,-50.293,-47.852,-67.383,0.000
1737564340.254,5.859,-51.270,-45.898,-17.090,0.000
1737564340.258,-83.984,-59.082,-47.852,0.488,0.000
1737564340.261,-93.750,-56.641,-47.363,-19.043,0.000
1737564340.265,14.160,-49.316,-49.805,20.508,0.000
1737564340.269,20.508,-43.945,-44.922,3.906,0.000
1737564340.273,-9.277,-50.781,-38.086,-45.410,0.000
1737564340.277,-40.039,-60.547,-43.945,-59.082,0.000
1737564340.281,-62.988,-60.059,-50.293,-41.992,0.000
1737564340.285,-54.199,-54.199,-46.875,5.859,0.000
1737564340.289,4.883,-52.246,-44.434,-33.203,0.000
1737564340.293,23.926,-55.176,-49.316,-69.824,0.000
1737564340.297,-28.809,-60.547,-52.734,-9.277,0.000
1737564340.301,-17.090,-60.547,-55.176,0.488,0.000
1737564340.304,9.277,-62.012,-49.316,6.836,0.000
1737564340.308,-9.277,-66.895,-45.410,29.297,0.000
1737564340.312,-23.438,-62.988,-44.922,-6.836,0.000
1737564340.316,-33.203,-61.035,-50.293,-36.133,0.000
1737564340.320,-25.879,-64.453,-52.734,-60.059,0.000
1737564340.324,-14.648,-62.988,-51.270,-63.477,0.000
1737564340.328,0.000,-58.105,-52.246,-25.391,0.000
1737564340.332,26.367,-57.617,-49.805,30.762,0.000
1737564340.336,2.441,-61.035,-55.664,15.137,0.000
1737564340.339,-20.508,-60.547,-56.641,-12.695,0.000
1737564340.344,7.812,-54.688,-51.270,-9.277,0.000
1737564340.347,20.996,-49.805,-50.293,17.578,0.000
1737564340.351,23.926,-51.758,-53.223,53.223,0.000
1737564340.355,-0.977,-55.664,-52.246,29.297,0.000
1737564340.359,-0.977,-48.340,-48.828,-1.465,0.000
1737564340.363,7.324,-44.434,-46.875,-8.301,0.000
1737564340.367,7.324,-46.387,-51.270,-9.766,0.000
1737564340.371,35.645,-50.781,-54.199,14.648,0.000
1737564340.375,30.273,-51.270,-52.734,56.641,0.000
1737564340.379,35.645,-47.363,-51.270,47.363,0.000
1737564340.382,18.555,-50.781,-50.293,-18.066,0.000
1737564340.386,8.301,-53.711,-50.781,2.930,0.000
1737564340.390,0.000,-50.781,-55.664,27.344,0.000
1737564340.394,0.000,-52.246,-51.758,110.840,0.000
1737564340.398,0.000,-53.223,-47.363,70.801,0.000
1737564340.402,0.000,-54.688,-47.363,-103.027,0.000
1737564340.406,0.000,-55.176,-47.363,-87.402,0.000
1737564340.410,0.000,-54.688,-47.363,-2.930,0.000
1737564340.414,0.000,-56.641,-43.945,47.363,0.000
1737564340.418,0.000,-53.223,-47.852,50.293,0.000
1737564340.422,0.000,-55.664,-51.270,22.949,0.000
1737564340.425,0.000,-56.152,-51.758,-31.738,0.000
1737564340.429,0.000,-56.641,-47.852,-20.996,0.000
1737564340.433,0.000,-60.547,-43.945,12.695,0.000
1737564340.437,-47.852,-57.617,-43.457,37.109,0.000
1737564340.441,-11.719,-54.688,-42.480,26.367,0.000
1737564340.445,20.020,-55.176,-39.551,25.879,0.000
1737564340.449,48.340,-52.246,-45.410,19.531,0.000
1737564340.453,19.531,-57.129,-51.758,-88.379,0.000
1737564340.457,1.465,-62.500,-50.293,-82.031,0.000
1737564340.461,-24.902,-59.082,-48.340,27.832,0.000
1737564340.464,-27.832,-60.547,-44.434,62.012,0.000
1737564340.468,-1.465,-57.617,-48.828,20.020,0.000
1737564340.472,-16.113,-56.152,-55.176,-31.250,0.000
1737564340.476,10.742,-51.758,-53.223,-41.504,0.000
1737564340.480,-3.418,-50.293,-44.434,-18.066,0.000
1737564340.484,0.000,-59.082,0.000,-4.883,0.000
1737564340.488,0.000,-54.199,0.000,-64.941,0.000
1737564340.492,0.000,-49.805,0.000,-38.574,0.000
1737564340.496,0.000,-58.594,0.000,-7.812,0.000
1737564340.500,0.000,-59.082,0.000,-24.902,0.000
1737564340.504,0.000,-57.129,0.000,-1.465,0.000
1737564340.507,0.000,-52.246,0.000,25.879,0.000
1737564340.511,0.000,-51.758,0.000,13.184,0.000
1737564340.515,0.000,-58.105,0.000,21.973,0.000
1737564340.519,0.000,-63.965,0.000,42.969,0.000
1737564340.523,0.000,-67.871,0.000,22.949,0.000
1737564340.527,0.000,-62.500,0.000,-2.441,0.000
1737564340.531,41.504,-59.082,-53.711,-12.207,0.000
1737564340.535,46.387,-66.406,-51.270,0.488,0.000
1737564340.539,34.180,-63.965,-47.852,17.578,0.000
1737564340.543,12.207,-62.500,-48.828,-10.254,0.000
1737564340.546,-13.184,-65.430,-41.992,0.000,0.000
1737564340.550,-10.742,-58.594,-40.527,25.391,0.000
1737564340.554,11.230,-58.105,-46.875,36.621,0.000
1737564340.558,-23.438,-61.523,-49.316,44.434,0.000
1737564340.562,-21.973,-60.059,-44.922,64.453,0.000
1737564340.566,11.719,-60.547,-44.922,4.395,0.000
1737564340.570,15.137,-66.895,-45.410,-38.574,0.000
1737564340.574,-17.578,-69.336,-38.086,-49.805,0.000
1737564340.578,-78.613,-65.918,-38.086,-49.316,0.000
1737564340.582,-39.062,-65.430,-44.922,-6.836,0.000
1737564340.586,1.953,-64.941,-48.828,-20.508,0.000
1737564340.589,16.602,-63.477,-44.922,-21.973,0.000
1737564340.593,19.531,-64.941,-44.922,30.762,0.000
1737564340.597,-6.836,-63.965,-53.223,13.184,0.000
1737564340.601,-20.996,-58.594,-57.617,-16.113,0.000
1737564340.605,1.953,-54.199,-56.152,13.672,0.000
1737564340.609,10.254,-59.570,-52.246,15.137,0.000
1737564340.613,-4.395,-62.012,-50.781,-43.457,0.000
1737564340.617,-39.062,-59.082,-49.805,-36.621,0.000
1737564340.621,-40.527,-61.523,-43.945,-28.809,0.000
1737564340.625,4.395,-58.594,-43.945,-20.996,0.000
1737564340.629,-28.320,-58.105,-41.016,0.000,0.000
1737564340.632,-51.758,-60.059,-41.016,12.207,0.000
1737564340.636,-30.762,-54.199,-45.410,5.859,0.000
1737564340.640,-14.160,-50.781,-44.434,-60.059,0.000
1737564340.644,-10.254,-55.176,-39.062,-49.316,0.000
1737564340.648,-12.695,-59.570,-43.945,-25.391,0.000
1737564340.652,-9.766,-55.664,-53.711,-43.457,0.000
1737564340.656,-9.766,-50.781,-51.758,-32.715,0.000
1737564340.660,-11.230,-55.176,-44.922,0.977,0.000
1737564340.664,-49.316,-58.594,-41.992,-56.152,0.000
1737564340.668,-70.312,-53.711,-42.969,-56.152,0.000
1737564340.672,-87.402,-52.734,-56.152,-65.918,0.000
1737564340.675,-23.438,-51.270,-54.199,-102.539,0.000
1737564340.679,25.391,-50.781,-43.457,10.742,0.000
1737564340.683,-29.785,-51.758,-52.734,-15.625,0.000
1737564340.687,-41.992,-54.199,-55.664,-38.086,0.000
1737564340.691,-36.133,-56.641,-53.223,-17.578,0.000
1737564340.695,-46.387,-54.688,-54.688,-58.594,0.000
1737564340.699,-69.824,-54.199,-55.664,-59.082,0.000
1737564340.703,4.883,-54.199,-51.758,-48.828,0.000
1737564340.707,37.598,-53.711,-52.246,-42.969,0.000
1737564340.711,-84.961,-62.988,-50.781,-44.434,0.000
1737564340.714,-92.285,-57.129,-48.340,-73.242,0.000
1737564340.718,-37.109,-49.316,-46.875,-59.082,0.000
1737564340.722,-13.184,-53.711,-48.340,-71.777,0.000
1737564340.726,-25.879,-54.199,-43.945,-44.922,0.000
1737564340.730,-14.160,-54.688,-37.598,29.785,0.000
1737564340.734,1.953,-53.223,-40.039,-0.977,0.000
1737564340.738,-12.695,-50.781,-47.363,-30.762,0.000
1737564340.742,-30.762,-49.805,-54.688,-34.180,0.000
1737564340.746,-34.668,-51.270,-51.270,-26.367,0.000
1737564340.750,-33.691,-58.594,-41.016,-19.531,0.000
1737564340.754,-28.809,-54.199,-40.039,-26.367,0.000
1737564340.757,5.371,-46.387,-42.480,-10.254,0.000
1737564340.761,-26.855,-49.316,-42.480,-45.410,0.000
1737564340.765,-93.750,-47.363,-47.363,-35.645,0.000
1737564340.769,-59.082,-47.363,-50.781,-9.277,0.000
1737564340.773,11.719,-48.828,-47.852,-51.758,0.000
1737564340.777,11.230,-49.805,-50.781,-32.715,0.000
1737564340.781,-53.711,-54.688,-48.828,18.555,0.000
1737564340.785,-60.547,-53.711,-39.062,16.113,0.000
1737564340.789,-55.176,-48.828,-37.109,3.906,0.000
1737564340.793,-32.715,-49.316,-48.340,-111.328,0.000
1737564340.796,-26.855,-53.711,-43.945,-139.160,0.000
1737564340.800,-23.438,-53.223,-41.016,-27.344,0.000
1737564340.804,-14.160,-50.781,-51.270,-5.859,0.000
1737564340.808,-57.617,-55.176,-42.480,1.465,0.000
1737564340.812,-55.664,-59.082,-39.551,-36.621,0.000
1737564340.816,-48.828,-61.523,-47.363,-43.457,0.000
1737564340.820,-75.195,-55.176,-50.293,-35.645,0.000
1737564340.824,-68.848,-56.641,-50.781,-31.738,0.000
1737564340.828,-65.430,-58.594,-51.758,11.719,0.000
1737564340.832,-68.359,-51.758,-56.152,-14.648,0.000
1737564340.836,19.531,-52.734,-50.293,5.859,0.000
1737564340.840,8.789,-56.641,-42.969,-1.465,0.000
1737564340.843,-87.402,-59.570,-51.270,-57.129,0.000
1737564340.847,-30.762,-63.477,-51.270,-25.391,0.000
1737564340.851,13.672,-63.965,-50.781,-16.602,0.000
1737564340.855,-55.664,-63.477,-53.223,-25.879,0.000
1737564340.859,-114.746,-62.500,0.000,-18.066,0.000
1737564340.863,-63.477,-66.895,0.000,-7.812,0.000
1737564340.867,-11.719,-64.453,0.000,-46.387,0.000
1737564340.871,-21.484,-58.594,0.000,-11.230,0.000
1737564340.875,-19.531,-63.477,0.000,11.719,0.000
1737564340.879,-45.898,-59.082,0.000,-0.488,0.000
1737564340.882,-80.566,-58.105,0.000,-6.348,0.000
1737564340.886,-65.430,-67.383,0.000,-23.926,0.000
1737564340.890,-29.297,-65.430,0.000,-3.906,0.000
1737564340.894,-40.039,-59.082,0.000,17.578,0.000
1737564340.898,-62.988,-56.152,0.000,-31.738,0.000
1737564340.902,-30.273,-58.105,0.000,-63.965,0.000
1737564340.906,-18.555,-56.641,-35.645,-19.043,0.000
1737564340.910,-27.832,-53.223,-47.852,-26.855,0.000
1737564340.914,37.598,-53.223,-42.969,-99.121,0.000
1737564340.918,41.016,-58.594,-38.086,-22.949,0.000
1737564340.921,-94.727,-56.152,-42.480,-5.371,0.000
1737564340.925,-81.055,-55.176,-44.922,-57.129,0.000
1737564340.929,12.207,-59.082,-47.363,-53.223,0.000
1737564340.933,-32.227,-53.223,-61.523,-99.609,0.000
1737564340.937,-92.285,-58.594,-55.664,-27.344,0.000
1737564340.941,-73.730,-66.895,-44.922,-6.348,0.000
1737564340.945,-57.617,-59.570,-49.316,-54.199,0.000
1737564340.949,-26.367,-59.082,-55.176,-36.133,0.000
1737564340.953,0.000,-59.082,-52.246,-34.180,0.000
1737564340.957,0.000,-58.594,-48.828,-71.777,0.000
1737564340.961,0.000,-59.082,-55.176,-44.434,0.000
1737564340.965,0.000,-51.758,-48.340,-41.504,0.000
1737564340.968,0.000,-50.293,-39.551,-33.691,0.000
1737564340.972,0.000,-53.223,-37.598,0.488,0.000
1737564340.976,0.000,-59.082,-35.156,19.531,0.000
1737564340.980,0.000,-57.129,-36.621,79.590,0.000
1737564340.984,0.000,-65.918,-38.574,-37.109,0.000
1737564340.988,0.000,-68.359,-39.062,-38.574,0.000
1737564340.992,0.000,-61.523,-31.738,44.922,0.000
1737564340.996,0.000,-59.570,-36.133,-20.508,0.000
1737564341.000,-20.508,-60.547,-39.551,-83.496,0.000
1737564341.003,-31.250,-62.012,-46.387,-182.129,0.000
1737564341.007,-27.344,-60.059,-50.781,-137.207,0.000
1737564341.011,-9.277,-59.570,-47.363,-94.238,0.000
1737564341.015,21.484,-58.594,-46.387,-119.141,0.000
1737564341.019,9.277,-51.270,-46.387,-151.367,0.000
1737564341.023,12.695,-52.734,-42.969,-157.715,0.000
1737564341.027,96.680,-52.734,-45.898,-212.402,0.000
1737564341.031,-86.426,-46.875,-53.711,-228.516,0.000
1737564341.035,-67.871,-50.781,-46.387,-155.762,0.000
1737564341.039,-3.418,-52.246,-39.062,-64.453,0.000
1737564341.042,-99.121,-50.293,-42.480,-80.078,0.000
1737564341.046,-44.434,-45.410,-40.039,-92.285,0.000
1737564341.050,-50.293,-48.340,-34.668,-63.477,0.000
1737564341.054,-94.727,-47.852,-39.551,-44.922,0.000
1737564341.058,-40.039,-39.062,-43.945,-125.488,0.000
1737564341.062,-56.641,-48.828,-41.016,-116.699,0.000
1737564341.066,-125.488,-55.664,-41.016,-26.367,0.000
1737564341.070,-72.754,-48.828,-37.109,-20.996,0.000
1737564341.074,-61.035,-51.758,-37.109,-19.531,0.000
1737564341.078,-79.590,-50.781,-35.645,20.508,0.000
1737564341.082,-93.262,-45.898,-34.668,-22.949,0.000
1737564341.085,-49.805,-49.316,-38.574,-109.863,0.000
1737564341.089,-30.273,-55.176,-44.922,-69.336,0.000
1737564341.094,0.000,-59.570,0.000,-36.621,0.000
1737564341.098,0.000,-51.758,0.000,-6.348,0.000
1737564341.102,0.000,-42.480,0.000,-8.301,0.000
1737564341.105,0.000,-40.039,0.000,-19.531,0.000
1737564341.109,0.000,-38.086,0.000,28.320,0.000
1737564341.113,0.000,-46.387,0.000,37.109,0.000
1737564341.117,0.000,-44.434,0.000,33.691,0.000
1737564341.121,0.000,-43.457,0.000,-6.348,0.000
1737564341.125,0.000,-47.363,0.000,-65.918,0.000
1737564341.129,0.000,-45.898,0.000,-72.266,0.000
1737564341.133,0.000,-46.387,0.000,-45.410,0.000
1737564341.137,0.000,-50.293,0.000,20.020,0.000
1737564341.141,0.000,-47.852,-41.016,0.000,0.000
1737564341.145,0.000,-39.551,-38.574,0.000,0.000
1737564341.149,0.000,-44.434,-37.598,0.000,0.000
1737564341.152,0.000,-47.363,-39.062,0.000,0.000
1737564341.156,0.000,-45.898,-41.992,0.000,0.000
1737564341.160,0.000,-55.176,-34.668,0.000,0.000
1737564341.164,0.000,-61.035,-35.645,0.000,0.000
1737564341.168,0.000,-53.223,-37.598,0.000,0.000
1737564341.172,0.000,-42.969,-41.016,0.000,0.000
1737564341.176,0.000,-40.527,-40.039,0.000,0.000
1737564341.180,0.000,-45.898,-31.250,0.000,0.000
1737564341.184,0.000,-49.316,-27.832,0.000,0.000
1737564341.188,9.277,-45.898,-50.781,-6.348,0.000
1737564341.192,16.113,-43.457,-44.922,12.695,0.000
1737564341.196,1.953,-44.922,-43.945,-19.531,0.000
1737564341.199,-43.945,-50.781,-43.457,-4.395,0.000
1737564341.203,-59.570,-45.898,-37.109,15.625,0.000
1737564341.207,19.043,-39.551,-39.062,-4.883,0.000
1737564341.211,13.184,-43.945,-39.062,54.199,0.000
1737564341.215,-33.691,-47.363,-37.109,46.387,0.000
1737564341.219,-35.645,-49.316,-38.086,-11.230,0.000
1737564341.223,-34.180,-49.316,-39.551,-29.297,0.000
1737564341.227,-44.922,-45.898,-51.270,-89.355,0.000
1737564341.231,-2.930,-41.992,-60.547,-57.617,0.000
1737564341.235,51.270,-47.852,-52.246,18.555,0.000
1737564341.238,-10.254,-55.664,-47.852,-50.781,0.000
1737564341.242,-120.117,-56.152,-55.664,-103.027,0.000
1737564341.246,-125.488,-56.152,-54.199,-57.129,0.000
1737564341.250,-52.734,-53.223,-46.875,6.348,0.000
1737564341.254,-2.441,-49.805,-51.758,-18.555,0.000
1737564341.258,-46.875,-52.734,-54.688,-7.812,0.000
1737564341.262,-65.918,-53.223,-51.758,-11.719,0.000
1737564341.266,-44.434,-51.758,-45.410,-85.938,0.000
1737564341.270,-60.059,-52.734,-54.199,-78.613,0.000
1737564341.274,-63.477,-55.176,-56.152,-5.859,0.000
1737564341.277,-3.418,-55.664,-52.246,-6.836,0.000
1737564341.281,-29.785,-50.781,-53.223,-34.668,0.000
1737564341.285,-81.543,-55.664,-48.340,-68.359,0.000
1737564341.289,-23.926,-61.523,-50.293,-32.227,0.000
1737564341.293,-74.219,-58.594,-54.688,-45.898,0.000
1737564341.297,-130.859,-55.664,-56.152,-68.848,0.000
1737564341.301,-59.570,-55.664,-58.105,-36.133,0.000
1737564341.305,-16.113,-58.594,-59.082,-20.508,0.000
1737564341.309,-29.297,-55.664,-60.547,-65.430,0.000
1737564341.313,-43.457,-53.711,-47.852,-22.461,0.000
1737564341.316,-66.895,-56.152,-42.480,23.438,0.000
1737564341.320,-75.195,-54.199,-49.316,-50.293,0.000
1737564341.324,-42.480,-50.781,-49.316,-67.871,0.000
1737564341.328,-26.367,-47.852,-46.875,-31.250,0.000
1737564341.332,-0.977,-50.293,-50.293,-49.316,0.000
1737564341.336,-65.430,-55.176,-53.223,-61.523,0.000
1737564341.340,-52.246,-48.828,-45.898,15.137,0.000
1737564341.344,16.602,-44.434,-42.480,40.039,0.000
1737564341.348,-23.926,-44.434,-43.457,-61.523,0.000
1737564341.352,-39.551,-43.457,-46.387,-68.359,0.000
1737564341.356,-42.969,-46.875,-49.316,-32.715,0.000
1737564341.359,-21.973,-43.457,-48.340,-37.598,0.000
1737564341.363,-66.895,-43.457,-52.734,-20.996,0.000
1737564341.367,-56.641,-50.293,-53.223,14.160,0.000
1737564341.371,-44.434,-50.781,-53.223,34.180,0.000
1737564341.375,-23.438,-46.387,-52.246,-38.086,0.000
1737564341.379,14.160,-43.945,-48.828,-51.758,0.000
1737564341.383,11.230,-42.480,-52.734,-32.715,0.000
1737564341.387,36.133,-44.922,-58.594,-41.016,0.000
1737564341.391,1.953,-47.363,-46.387,-5.859,0.000
1737564341.395,-59.570,-51.270,-38.574,-14.648,0.000
1737564341.399,-150.879,-60.059,-44.922,-2.930,0.000
1737564341.402,-91.309,-54.199,-55.176,-34.668,0.000
1737564341.406,-12.207,-53.711,-66.895,-76.172,0.000
1737564341.410,-88.867,-62.988,-58.105,-42.969,0.000
1737564341.414,-42.969,-54.688,-52.246,-35.156,0.000
1737564341.418,-23.926,-53.711,-53.223,6.348,0.000
1737564341.422,-80.078,-56.641,-64.453,-55.176,0.000
1737564341.426,-74.219,-57.617,-64.453,-88.867,0.000
1737564341.430,-33.203,-54.688,-54.688,-60.547,0.000
1737564341.434,-43.945,-58.105,-55.176,-77.148,0.000
1737564341.438,-92.285,-55.664,-52.734,6.348,0.000
1737564341.442,-88.867,-51.270,-44.922,27.344,0.000
1737564341.445,8.789,-51.758,-48.828,-37.109,0.000
1737564341.449,-18.555,-50.293,-56.641,-32.227,0.000
1737564341.453,-25.391,-51.270,-55.664,-33.691,0.000
1737564341.457,7.324,-46.387,-58.594,-15.625,0.000
1737564341.461,-74.219,-43.457,-62.500,-64.941,0.000
1737564341.465,-68.848,-48.340,-62.500,-146.973,0.000
1737564341.469,-44.434,-54.199,-52.734,-24.414,0.000
1737564341.473,-57.129,-55.664,-37.598,31.250,0.000
1737564341.477,-27.832,-50.781,-36.133,21.973,0.000
1737564341.481,-24.414,-48.828,-45.410,27.344,0.000
1737564341.485,-60.547,-51.270,-52.734,-79.102,0.000
1737564341.488,-10.254,-51.758,-40.527,-24.414,0.000
1737564341.492,14.648,-51.758,-37.109,21.973,0.000
1737564341.496,-86.914,-55.176,-40.527,-30.762,0.000
1737564341.500,-108.887,-60.059,-40.039,-35.645,0.000
1737564341.504,-42.969,-54.199,-41.992,-109.863,0.000
1737564341.508,-25.879,-48.340,-39.062,-116.211,0.000
1737564341.512,-28.809,-53.223,-36.133,23.438,0.000
1737564341.516,-27.344,-55.664,-37.109,58.105,0.000
1737564341.520,-37.109,-56.641,-35.156,37.598,0.000
1737564341.524,-79.590,-52.734,-29.297,59.570,0.000
1737564341.528,-57.129,-47.852,-30.273,-38.574,0.000
1737564341.531,-35.645,-53.223,-39.551,-53.223,0.000
1737564341.535,-19.043,-51.270,-43.945,-3.906,0.000
1737564341.539,40.527,-46.387,-41.504,-39.062,0.000
1737564341.543,-12.695,-51.758,-39.551,-81.055,0.000
1737564341.547,-83.008,-55.664,-40.527,-17.090,0.000
1737564341.551,-66.895,-52.246,-42.969,24.414,0.000
1737564341.555,-127.930,-55.176,-42.480,-38.574,0.000
1737564341.559,-146.973,-51.758,-43.945,-100.586,0.000
1737564341.563,-26.367,-46.387,-46.387,-116.211,0.000
1737564341.567,55.664,-45.410,-46.875,-71.289,0.000
1737564341.570,-69.336,-53.223,-46.875,-4.883,0.000
1737564341.574,-165.039,-56.641,-43.945,-16.113,0.000
1737564341.578,-78.613,-50.293,-37.109,-13.184,0.000
1737564341.582,-11.719,-46.387,-43.457,-20.996,0.000
1737564341.586,-37.109,-52.734,-56.641,-56.641,0.000
1737564341.590,-104.980,-62.012,-45.410,-36.133,0.000
1737564341.594,-49.316,-53.223,-28.809,-0.488,0.000
1737564341.598,-45.898,-54.199,-31.738,3.906,0.000
1737564341.602,-114.258,-56.641,-37.109,-56.641,0.000
1737564341.606,-118.164,-49.316,-41.992,-122.070,0.000
1737564341.610,-81.543,-50.781,-44.434,-77.148,0.000
1737564341.613,-83.496,-49.805,-46.387,-94.727,0.000
1737564341.617,-141.113,-49.316,-41.992,-125.977,0.000
1737564341.621,-136.719,-52.246,-33.691,-59.082,0.000
1737564341.625,-73.242,-55.176,-37.598,-83.008,0.000
1737564341.629,-88.867,-65.430,-43.945,-83.984,0.000
1737564341.633,-62.988,-66.895,-49.316,-128.906,0.000
1737564341.637,-109.863,-63.965,-47.363,-121.094,0.000
1737564341.641,-98.633,-57.617,-40.039,-43.945,0.000
1737564341.645,18.555,-48.828,-37.598,-16.602,0.000
1737564341.648,-45.898,-49.316,-36.133,-16.113,0.000
1737564341.652,-113.770,-59.570,-41.016,-62.988,0.000
1737564341.656,-107.910,-55.664,-49.805,-111.816,0.000
1737564341.660,-113.770,-57.129,-48.828,-70.801,0.000
1737564341.664,-107.422,-66.895,-45.410,-35.156,0.000
1737564341.668,-48.340,-61.523,-46.387,-87.891,0.000
1737564341.672,50.781,-57.617,-48.828,-96.191,0.000
1737564341.676,-67.871,-63.477,-44.922,-59.082,0.000
1737564341.680,-171.387,-62.012,-46.875,-70.312,0.000
1737564341.684,-154.785,-59.082,-46.875,-116.211,0.000
1737564341.688,-83.008,-57.617,-43.457,-96.680,0.000
1737564341.691,-46.875,-57.129,-47.852,-64.453,0.000
1737564341.695,-33.691,-53.223,-44.922,-40.527,0.000
1737564341.699,-90.332,-48.828,-42.969,-41.016,0.000
1737564341.703,-88.379,-45.410,-41.992,-95.215,0.000
1737564341.707,-5.859,-43.457,-44.922,-120.117,0.000
1737564341.711,-39.551,-43.457,-50.293,-83.984,0.000
1737564341.715,-39.062,-41.504,-45.898,-44.434,0.000
1737564341.719,-3.418,-47.363,-47.363,-55.176,0.000
1737564341.723,-48.828,-42.969,-43.457,-46.875,0.000
1737564341.727,-85.938,-45.410,-40.527,-39.551,0.000
1737564341.731,-26.367,-49.805,-42.969,-47.852,0.000
1737564341.734,5.371,-40.039,-43.945,-51.270,0.000
1737564341.738,40.039,-41.992,-42.969,-20.996,0.000
1737564341.742,13.184,-41.992,-41.992,-79.102,0.000
1737564341.746,-94.727,-41.992,-36.621,-94.727,0.000
1737564341.750,-62.012,-43.945,-35.645,-63.965,0.000
1737564341.754,-15.625,-41.504,-38.574,-42.969,0.000
1737564341.758,-9.277,-40.527,-32.227,61.523,0.000
1737564341.762,-6.836,-38.086,-29.785,38.574,0.000
1737564341.766,56.641,-39.551,-37.109,-30.762,0.000
1737564341.770,84.961,-45.898,-39.551,-13.184,0.000
1737564341.774,9.766,-42.969,-35.156,-20.020,0.000
1737564341.777,-42.969,-36.621,-41.992,-41.504,0.000
1737564341.781,-46.875,-42.969,-42.480,-64.453,0.000
1737564341.785,15.137,-51.270,-33.203,-61.035,0.000
1737564341.789,24.414,-48.340,-30.273,-5.371,0.000
1737564341.793,9.277,-45.410,-33.203,42.969,0.000
1737564341.797,41.016,-38.086,-39.062,29.297,0.000
1737564341.801,56.641,-36.621,-38.086,61.523,0.000
1737564341.805,-17.090,-44.922,-31.250,11.230,0.000
1737564341.809,12.207,-45.410,-30.273,-47.363,0.000
1737564341.813,61.035,-39.551,-31.738,29.297,0.000
1737564341.817,29.297,-36.621,-25.879,46.875,0.000
1737564341.820,34.668,-34.668,-26.855,-11.719,0.000
1737564341.824,29.785,-37.109,-30.762,-6.348,0.000
1737564341.828,51.758,-43.457,-38.574,8.301,0.000
1737564341.832,41.992,-49.805,-39.551,20.508,0.000
1737564341.836,23.926,-50.293,-35.645,25.391,0.000
1737564341.840,25.391,-54.199,-36.621,73.242,0.000
1737564341.844,-35.645,-55.176,0.000,61.523,0.000
1737564341.848,-44.434,-51.270,0.000,-38.574,0.000
1737564341.852,20.020,-52.246,0.000,-34.180,0.000
1737564341.856,37.598,-48.340,0.000,-41.992,0.000
1737564341.860,20.508,-46.387,0.000,4.395,0.000
1737564341.863,58.105,-43.457,0.000,46.387,0.000
1737564341.867,14.648,-45.410,0.000,62.012,0.000
1737564341.871,16.113,-47.363,0.000,26.855,0.000
1737564341.875,64.453,-44.922,0.000,5.859,0.000
1737564341.879,11.230,-41.992,0.000,0.000,0.000
1737564341.883,-30.762,-41.992,0.000,-37.598,0.000
1737564341.887,-27.832,-45.898,0.000,-19.531,0.000
1737564341.891,8.789,-47.852,-32.227,43.945,0.000
1737564341.895,32.715,-49.316,-29.297,78.613,0.000
1737564341.899,25.391,-44.434,-35.156,35.645,0.000
1737564341.902,-49.805,-46.387,-41.504,-56.641,0.000
1737564341.906,-34.180,-46.875,-38.574,-53.711,0.000
1737564341.910,33.203,-41.992,-34.668,10.254,0.000
1737564341.914,22.949,-47.363,-45.410,-24.902,0.000
1737564341.918,6.348,-52.246,-47.363,12.695,0.000
1737564341.922,43.945,-54.199,-35.156,88.379,0.000
1737564341.926,92.285,-51.270,-36.621,6.348,0.000
1737564341.930,85.938,-43.945,-41.992,-35.645,0.000
1737564341.934,-9.277,-45.410,-41.992,-73.730,0.000
1737564341.938,-102.051,-51.758,-36.133,-93.750,0.000
1737564341.942,-58.594,-52.734,-32.227,-51.758,0.000
1737564341.946,12.207,-50.293,-36.133,-1.465,0.000
1737564341.949,54.199,-44.922,-38.086,14.648,0.000
1737564341.953,58.105,-45.898,-37.598,23.926,0.000
1737564341.957,35.156,-51.758,-41.016,19.531,0.000
1737564341.961,-22.461,-53.223,-39.062,-30.762,0.000
1737564341.965,-58.105,-52.734,-44.434,-21.973,0.000
1737564341.969,-20.996,-49.805,-41.992,20.996,0.000
1737564341.973,-0.488,-49.316,-33.691,-7.812,0.000
1737564341.977,47.852,-48.828,-35.156,24.902,0.000
1737564341.981,61.523,-45.410,-35.645,76.172,0.000
1737564341.985,49.805,-37.598,-36.621,-3.906,0.000
1737564341.988,26.367,-38.574,-33.691,6.348,0.000
1737564341.992,4.883,-43.457,-35.156,-11.230,0.000
1737564341.996,15.625,-41.992,-35.156,-33.691,0.000
1737564342.000,12.207,-39.551,-34.668,16.113,0.000
1737564342.004,37.598,-35.156,-39.062,-12.695,0.000
1737564342.008,93.750,-38.086,-36.621,43.457,0.000
1737564342.012,59.082,-41.992,-35.156,18.066,0.000
1737564342.016,13.184,-39.062,-36.621,-53.223,0.000
1737564342.020,-23.926,-43.945,-32.715,18.555,0.000
1737564342.024,44.434,-43.945,-30.273,36.621,0.000
1737564342.027,46.875,-42.480,-31.250,12.695,0.000
1737564342.032,-22.949,-41.016,-31.250,-27.832,0.000
1737564342.035,-20.508,-41.504,-39.551,-39.062,0.000
1737564342.039,-5.371,-46.875,-35.645,20.020,0.000
1737564342.043,71.777,-42.969,-23.926,88.867,0.000
1737564342.047,83.496,-47.363,-28.809,59.570,0.000
1737564342.051,68.359,-46.875,-37.109,6.348,0.000
1737564342.055,48.828,-35.645,-36.621,40.039,0.000
1737564342.059,-6.836,-31.250,-42.480,-25.391,0.000
1737564342.063,-10.742,-39.551,-46.387,-48.340,0.000
1737564342.067,-28.320,-48.340,-37.109,-16.602,0.000
1737564342.070,-4.883,-53.223,-32.715,32.715,0.000
1737564342.074,75.684,-48.828,-32.227,94.238,0.000
1737564342.078,0.000,-41.016,0.000,0.000,0.000
1737564342.082,0.000,-36.133,0.000,0.000,0.000
1737564342.086,0.000,-36.621,0.000,0.000,0.000
1737564342.090,0.000,-43.457,0.000,0.000,0.000
1737564342.094,0.000,-48.828,0.000,0.000,0.000
1737564342.098,0.000,-47.363,0.000,0.000,0.000
1737564342.102,0.000,-46.875,0.000,0.000,0.000
1737564342.106,0.000,-49.316,0.000,0.000,0.000
1737564342.110,0.000,-46.387,0.000,0.000,0.000
1737564342.114,0.000,-45.410,0.000,0.000,0.000
1737564342.117,0.000,-49.805,0.000,0.000,0.000
1737564342.121,0.000,-44.434,0.000,0.000,0.000
1737564342.125,79.102,-36.621,-31.738,47.852,0.000
1737564342.129,-16.113,-41.992,-34.668,36.133,0.000
1737564342.133,33.203,-43.457,-36.133,28.809,0.000
1737564342.137,50.293,-43.457,-34.668,-2.441,0.000
1737564342.141,51.758,-39.062,-32.227,15.625,0.000
1737564342.145,74.707,-35.156,-34.668,51.270,0.000
1737564342.149,69.336,-38.574,-40.039,45.410,0.000
1737564342.153,101.562,-39.062,-42.480,2.930,0.000
1737564342.157,70.801,-36.621,-41.016,28.320,0.000
1737564342.160,12.207,-36.133,-40.039,43.945,0.000
1737564342.164,39.062,-35.645,-38.086,17.090,0.000
1737564342.168,53.711,-33.203,-36.133,24.414,0.000
1737564342.172,67.383,-35.645,-32.227,66.895,0.000
1737564342.176,46.875,-33.203,-28.320,66.406,0.000
1737564342.180,30.762,-30.273,-23.438,60.059,0.000
1737564342.184,50.293,-35.156,-23.926,62.500,0.000
1737564342.188,98.633,-31.738,-26.855,39.551,0.000
1737564342.192,118.164,-30.273,-30.762,47.852,0.000
1737564342.196,25.879,-35.156,-29.297,78.613,0.000
1737564342.200,20.020,-34.180,-30.273,31.250,0.000
1737564342.203,66.406,-34.180,-38.574,-0.488,0.000
1737564342.207,40.039,-34.180,-36.133,33.691,0.000
1737564342.211,44.434,-33.691,-34.180,31.250,0.000
1737564342.215,52.734,-33.691,-34.668,21.973,0.000
1737564342.219,0.000,-30.273,-30.273,20.996,0.000
1737564342.223,0.000,-28.809,-28.320,17.578,0.000
1737564342.227,0.000,-29.297,-34.180,20.020,0.000
1737564342.231,0.000,-36.621,-41.016,3.418,0.000
1737564342.235,0.000,-37.598,-37.109,43.945,0.000
1737564342.239,0.000,-35.156,-40.527,36.133,0.000
1737564342.242,0.000,-35.645,-41.504,11.230,0.000
1737564342.246,0.000,-30.762,-41.016,41.504,0.000
1737564342.250,0.000,-31.738,-38.574,26.367,0.000
1737564342.254,0.000,-36.621,-28.809,36.133,0.000
1737564342.258,0.000,-39.551,-29.785,46.875,0.000
1737564342.262,0.000,-31.738,-31.250,-12.207,0.000
1737564342.266,59.570,-31.250,0.000,-8.301,0.000
1737564342.270,27.832,-37.598,0.000,35.645,0.000
1737564342.274,71.777,-40.527,0.000,-3.906,0.000
1737564342.277,90.820,-39.551,0.000,-13.184,0.000
1737564342.281,-15.137,-29.297,0.000,10.742,0.000
1737564342.285,-17.090,-26.855,0.000,1.953,0.000
1737564342.289,21.973,-8.789,0.000,6.836,0.000
1737564342.293,44.922,36.133,0.000,45.898,0.000
1737564342.297,65.430,18.066,0.000,52.734,0.000
1737564342.301,26.367,18.066,0.000,22.461,0.000
1737564342.305,-3.906,99.121,0.000,21.973,0.000
1737564342.309,80.566,95.703,0.000,-16.113,0.000
1737564342.313,-12.695,31.250,99.609,-19.531,0.000
1737564342.317,-9.766,-28.320,-61.523,-68.359,0.000
1737564342.320,-154.785,-8.789,-141.113,-154.297,0.000
1737564342.324,-201.660,177.246,-10.254,-249.023,0.000
1737564342.328,-225.098,429.199,104.492,-298.340,0.000
1737564342.332,-265.625,673.828,76.660,-341.309,0.000
1737564342.336,-261.719,867.188,132.812,-403.809,0.000
1737564342.340,-276.855,973.145,322.754,-334.473,0.000
1737564342.344,-365.723,967.285,375.488,-441.406,0.000
1737564342.348,-418.457,969.238,589.844,-445.801,0.000
1737564342.352,-339.844,971.191,798.828,-349.121,0.000
1737564342.355,-455.566,970.703,867.676,-549.316,0.000
1737564342.359,-520.996,970.703,960.938,-582.031,0.000
1737564342.363,-453.125,970.703,973.145,-585.938,0.000
1737564342.367,-479.492,970.703,967.773,-606.445,0.000
1737564342.371,-470.215,970.703,971.680,-568.359,0.000
1737564342.375,-493.164,970.703,970.703,-650.391,0.000
1737564342.379,-483.887,970.703,970.703,-698.730,0.000
1737564342.383,-460.449,970.703,970.703,-696.289,0.000
1737564342.387,-492.676,971.191,970.703,-741.211,0.000
1737564342.391,-447.754,971.191,970.703,-698.242,0.000
1737564342.395,-340.332,970.703,970.703,-650.879,0.000
1737564342.398,-403.320,970.703,970.703,-618.164,0.000
1737564342.402,-530.273,970.703,970.703,-667.480,0.000
1737564342.406,-373.535,970.703,971.191,-784.668,0.000
1737564342.410,-314.453,970.703,970.703,-752.441,0.000
1737564342.414,-442.871,970.703,970.703,-697.266,0.000
1737564342.418,-481.445,971.191,970.703,-634.277,0.000
1737564342.422,-505.371,970.703,970.703,-596.680,0.000
1737564342.426,-378.906,970.703,970.703,-547.363,0.000
1737564342.430,-354.492,970.703,970.703,-564.453,0.000
1737564342.434,-403.320,970.703,970.703,-495.117,0.000
1737564342.438,-367.188,970.703,970.703,-450.684,0.000
1737564342.441,-386.230,970.703,970.703,-469.727,0.000
1737564342.445,-332.520,970.703,970.703,-351.562,0.000
1737564342.449,-292.480,970.703,970.703,-228.516,0.000
1737564342.453,-327.148,971.680,970.703,-231.934,0.000
1737564342.457,-323.730,968.750,970.703,-95.703,0.000
1737564342.461,-285.156,962.402,970.703,-46.875,0.000
1737564342.465,-225.586,977.051,971.191,-82.520,0.000
1737564342.469,-151.855,781.738,969.238,32.227,0.000
1737564342.473,-116.699,392.090,967.285,146.484,0.000
1737564342.477,-69.336,39.062,971.680,165.039,0.000
1737564342.481,-35.156,-298.340,865.234,191.406,0.000
1737564342.484,-33.203,-589.844,663.574,257.812,0.000
1737564342.488,55.176,-834.961,493.652,253.906,0.000
1737564342.492,126.465,-978.027,336.914,262.695,0.000
1737564342.496,135.742,-999.512,172.363,306.152,0.000
1737564342.500,0.000,-997.559,0.000,336.914,0.000
1737564342.504,0.000,-1000.000,0.000,267.578,0.000
1737564342.508,0.000,-1000.000,0.000,273.438,0.000
1737564342.512,0.000,-1000.000,0.000,367.676,0.000
1737564342.516,0.000,-1000.000,0.000,342.773,0.000
1737564342.520,0.000,-1000.000,0.000,312.012,0.000
1737564342.524,0.000,-1000.000,0.000,273.926,0.000
1737564342.527,0.000,-1000.000,0.000,244.141,0.000
1737564342.531,0.000,-1000.000,0.000,251.953,0.000
1737564342.535,0.000,-1000.000,0.000,323.242,0.000
1737564342.539,0.000,-1000.000,0.000,289.551,0.000
1737564342.543,0.000,-1000.000,0.000,208.984,0.000
1737564342.547,222.168,-1000.000,-678.223,220.703,0.000
1737564342.551,213.867,-1000.000,-677.734,241.211,0.000
1737564342.555,198.730,-1000.000,-672.363,283.203,0.000
1737564342.559,203.125,-1000.000,-669.434,294.922,0.000
1737564342.563,178.223,-1000.000,-670.898,239.746,0.000
1737564342.566,125.000,-1000.000,-659.668,256.348,0.000
1737564342.570,116.699,-1000.000,-647.949,211.426,0.000
1737564342.574,164.551,-1000.000,-642.578,119.141,0.000
1737564342.578,219.727,-1000.000,-631.348,186.523,0.000
1737564342.582,158.203,-1000.000,-619.141,190.918,0.000
1737564342.586,105.469,-1000.000,-606.445,158.203,0.000
1737564342.590,166.016,-1000.000,-598.633,166.504,0.000
1737564342.594,209.961,-1000.000,-584.473,153.809,0.000
1737564342.598,109.375,-1000.000,-567.383,101.074,0.000
1737564342.602,85.938,-1000.000,-552.734,97.656,0.000
1737564342.606,112.305,-1000.000,-537.598,161.621,0.000
1737564342.609,44.434,-1000.000,-518.555,169.922,0.000
1737564342.613,108.887,-1000.000,-509.766,109.863,0.000
1737564342.617,93.750,-1000.000,-504.395,114.258,0.000
1737564342.621,86.914,-1000.000,-484.863,105.957,0.000
1737564342.625,164.551,-999.512,-475.586,64.453,0.000
1737564342.629,150.879,-1000.000,-468.750,131.836,0.000
1737564342.633,121.094,-992.676,-442.383,144.531,0.000
1737564342.637,137.207,-959.961,-423.340,110.840,0.000
1737564342.641,120.605,-922.852,-409.180,119.629,0.000
1737564342.645,32.715,-890.137,-392.578,61.035,0.000
1737564342.649,16.602,-859.375,-384.277,70.312,0.000
1737564342.652,118.164,-827.637,-385.742,78.125,0.000
1737564342.656,126.953,-800.293,-379.883,41.016,0.000
1737564342.660,52.246,-780.273,-361.328,49.805,0.000
1737564342.664,83.008,-751.953,-350.098,71.289,0.000
1737564342.668,132.324,-725.098,-347.168,41.992,0.000
1737564342.672,57.129,-707.031,-335.449,79.590,0.000
1737564342.676,-13.184,-690.430,-331.055,64.453,0.000
1737564342.680,36.621,-679.199,-333.008,14.648,0.000
1737564342.684,58.105,-664.062,-323.730,20.996,0.000
1737564342.688,62.988,-636.230,-312.500,30.273,0.000
1737564342.691,82.031,-619.629,-309.570,65.918,0.000
1737564342.695,51.758,-607.422,-300.293,81.543,0.000
1737564342.699,71.289,-585.449,-284.668,118.164,0.000
1737564342.703,69.336,-566.406,-278.809,54.199,0.000
1737564342.707,0.000,-551.270,-269.531,-0.488,0.000
1737564342.711,29.297,-534.668,-263.672,28.320,0.000
1737564342.715,83.984,-520.508,-260.742,10.254,0.000
1737564342.719,30.273,-507.812,-250.977,47.363,0.000
1737564342.723,1.953,-493.652,-247.070,15.625,0.000
1737564342.727,35.156,-483.887,-243.652,-14.648,0.000
1737564342.730,48.340,-470.703,-236.816,13.184,0.000
1737564342.734,77.148,-454.102,-238.770,0.000,0.000
1737564342.738,34.180,-445.801,-232.422,0.000,0.000
1737564342.742,-44.434,-443.848,-218.262,0.000,0.000
1737564342.746,-30.273,-437.012,-215.332,0.000,0.000
1737564342.750,12.695,-425.781,-211.426,0.000,0.000
1737564342.754,36.621,-413.086,-208.984,0.000,0.000
1737564342.758,58.594,-407.715,-208.984,0.000,0.000
1737564342.762,-14.648,-401.367,-212.891,0.000,0.000
1737564342.766,-27.832,-386.719,-215.820,0.000,0.000
1737564342.769,-11.719,-373.047,-207.031,0.000,0.000
1737564342.773,31.738,-362.305,-194.824,0.000,0.000
1737564342.777,23.926,-357.910,-190.430,0.000,0.000
1737564342.781,-44.434,-355.957,-184.570,32.227,0.000
1737564342.785,8.301,-345.703,-187.012,13.672,0.000
1737564342.789,20.020,-334.961,-185.547,2.441,0.000
1737564342.793,-2.930,-331.543,-175.293,1.953,0.000
1737564342.797,-0.977,-319.824,-178.223,-5.371,0.000
1737564342.801,-10.254,-317.383,-175.293,39.551,0.000
1737564342.805,-10.742,-320.312,-171.387,-16.113,0.000
1737564342.809,43.457,-305.664,-173.340,-57.617,0.000
1737564342.812,39.062,-294.922,-170.898,-16.602,0.000
1737564342.816,-8.301,-299.316,-165.527,6.348,0.000
1737564342.820,-15.137,-292.480,-156.250,28.809,0.000
1737564342.824,-9.277,-275.391,-153.809,5.859,0.000
1737564342.828,38.086,-263.672,-160.156,-43.457,0.000
1737564342.832,36.621,-264.648,-156.738,-40.039,0.000
1737564342.836,37.598,-268.066,-155.273,4.883,0.000
1737564342.840,16.602,-263.672,-154.297,-8.789,0.000
1737564342.844,-3.906,-255.371,-144.531,19.531,0.000
1737564342.848,44.434,-250.488,-144.043,24.414,0.000
1737564342.852,-5.371,-251.953,-148.926,-14.648,0.000
1737564342.855,15.625,-247.559,-150.391,-24.902,0.000
1737564342.859,-26.855,-250.488,-142.578,-26.367,0.000
1737564342.863,-109.863,-255.859,-138.184,-60.059,0.000
1737564342.867,-15.625,-241.699,-137.207,-64.453,0.000
1737564342.871,20.020,-227.539,-130.859,-12.695,0.000
1737564342.875,7.812,-223.633,-127.930,7.812,0.000
1737564342.879,-9.277,-227.539,-127.441,51.270,0.000
1737564342.883,-6.836,-223.633,-128.418,31.250,0.000
1737564342.887,-5.371,-214.355,-125.977,-23.438,0.000
1737564342.891,23.926,-213.379,-125.000,-3.906,0.000
1737564342.895,5.859,-214.355,-121.582,20.508,0.000
1737564342.899,-39.551,-219.727,-124.512,-6.348,0.000
1737564342.902,20.996,-213.379,-127.930,-67.871,0.000
1737564342.906,-30.273,-208.496,-120.605,-55.176,0.000
1737564342.910,-38.086,-206.543,-117.676,16.602,0.000
1737564342.914,27.344,-200.684,-120.117,35.156,0.000
1737564342.918,-7.812,-195.312,-122.559,21.484,0.000
1737564342.922,-10.254,-191.406,-118.652,-15.625,0.000
1737564342.926,-9.766,-187.500,-111.816,16.113,0.000
1737564342.930,-32.715,-186.035,-110.352,-2.441,0.000
1737564342.934,-39.062,-190.430,-110.352,-32.715,0.000
1737564342.938,-4.883,-186.523,-112.793,13.672,0.000
1737564342.942,14.160,-182.129,-108.398,16.602,0.000
1737564342.945,-9.766,-182.617,-111.816,-59.570,0.000
1737564342.949,36.133,-176.270,-112.793,-42.969,0.000
1737564342.953,18.555,-175.293,-104.980,21.484,0.000
1737564342.957,-100.098,-185.547,-110.840,12.695,0.000
1737564342.961,-69.824,-180.176,-105.469,18.066,0.000
1737564342.965,-8.789,-169.434,-98.633,-8.789,0.000
1737564342.969,-10.742,-166.504,-99.609,-25.879,0.000
1737564342.973,45.898,-162.598,-99.121,-6.836,0.000
1737564342.977,39.062,-157.227,-98.633,49.805,0.000
1737564342.981,-29.297,-155.273,-99.609,14.160,0.000
1737564342.985,-27.832,-151.855,-103.027,-33.203,0.000
1737564342.988,48.828,-144.043,-100.586,-6.348,0.000
1737564342.992,9.277,-147.949,-93.750,21.484,0.000
1737564342.996,-46.875,-159.180,-94.238,-9.766,0.000
1737564343.000,-43.945,-157.227,-96.680,-11.230,0.000
1737564343.004,-42.480,-152.832,-94.727,29.297,0.000
1737564343.008,9.277,-150.391,-94.238,-28.809,0.000
1737564343.012,13.184,-144.043,-93.262,-31.250,0.000
1737564343.016,-38.086,-146.484,-89.844,31.250,0.000
1737564343.020,-20.996,-149.902,-91.797,21.973,0.000
1737564343.024,1.465,-147.949,-90.820,-29.785,0.000
1737564343.027,2.441,-146.484,-87.891,-17.578,0.000
1737564343.031,9.277,-148.438,-87.402,-0.977,0.000
1737564343.035,8.789,-145.996,-88.379,-23.438,0.000
1737564343.039,15.137,-137.695,-87.402,3.418,0.000
1737564343.043,2.930,-141.113,-83.496,13.672,0.000
1737564343.047,-45.410,-141.602,-82.520,-44.434,0.000
1737564343.051,-33.203,-137.695,-83.984,-44.922,0.000
1737564343.055,-43.457,-136.230,-77.637,47.852,0.000
1737564343.059,-2.441,-131.348,-76.172,19.531,0.000
1737564343.063,5.371,-127.930,-82.520,-55.176,0.000
1737564343.067,-55.176,-128.906,-79.590,1.465,0.000
1737564343.070,-1.465,-129.883,-78.613,-8.789,0.000
1737564343.074,20.996,-131.348,-78.613,-17.578,0.000
1737564343.078,-26.855,-129.883,-77.637,-23.438,0.000
1737564343.082,-53.223,-125.488,-80.078,-27.344,0.000
1737564343.086,-20.508,-127.441,-76.660,4.883,0.000
1737564343.090,7.812,-125.977,-70.312,-10.742,0.000
1737564343.094,14.160,-125.977,-69.824,-49.316,0.000
1737564343.098,44.434,-123.535,-69.824,-25.391,0.000
1737564343.102,-1.465,-116.699,-68.359,-5.859,0.000
1737564343.106,-9.277,-117.188,-66.895,12.695,0.000
1737564343.109,11.719,-118.652,-66.406,21.973,0.000
1737564343.113,-52.734,-120.117,-65.430,-25.391,0.000
1737564343.117,-32.715,-118.652,-62.500,-21.484,0.000
1737564343.121,-16.113,-116.699,-63.477,0.488,0.000
1737564343.125,-27.832,-111.328,-62.012,-21.484,0.000
1737564343.129,5.859,-110.840,-66.406,-61.523,0.000
1737564343.133,-2.441,-124.023,-73.730,-26.367,0.000
1737564343.137,-74.707,-131.836,-68.359,15.137,0.000
1737564343.141,-82.520,-128.418,-59.570,-17.578,0.000
1737564343.145,-6.836,-121.094,-63.965,-49.805,0.000
1737564343.148,2.930,-113.281,-68.359,-73.730,0.000
1737564343.152,-53.711,-106.934,-64.941,-18.066,0.000
1737564343.156,-39.551,-109.863,0.000,43.457,0.000
1737564343.160,7.812,-115.234,0.000,15.625,0.000
1737564343.164,-49.805,-116.211,0.000,-36.133,0.000
1737564343.168,-66.406,-112.305,0.000,-39.062,0.000
1737564343.172,36.133,-107.422,0.000,-54.199,0.000
1737564343.176,19.043,-108.398,0.000,-64.941,0.000
1737564343.180,-51.758,-109.863,0.000,-66.895,0.000
1737564343.184,-14.160,-106.934,0.000,-52.246,0.000
1737564343.188,2.441,-105.957,0.000,-22.461,0.000
1737564343.191,-20.508,-105.957,0.000,-17.578,0.000
1737564343.195,0.488,-103.516,0.000,-33.203,0.000
1737564343.199,-56.641,-108.887,0.000,8.789,0.000
1737564343.203,-50.293,-112.305,-51.270,34.180,0.000
1737564343.207,16.602,-110.352,-61.035,-44.922,0.000
1737564343.211,2.930,-113.281,-61.523,-84.473,0.000
1737564343.215,-1.953,-112.793,-60.059,-38.574,0.000
1737564343.219,-76.660,-110.352,-62.012,-11.230,0.000
1737564343.223,-57.617,-106.934,-63.477,-27.832,0.000
1737564343.227,12.695,-111.328,-64.453,-19.043,0.000
1737564343.230,-16.602,-117.188,-60.059,-16.113,0.000
