timestamps,TP9,AF7,AF8,TP10,Right AUX
1737557816.371,17.578,-1.465,-25.879,-17.578,0.000
1737557816.375,9.766,-4.395,-36.133,-39.551,0.000
1737557816.379,2.930,-5.371,-39.551,-16.602,0.000
1737557816.383,-19.043,-14.648,-32.227,35.156,0.000
1737557816.387,-21.973,-16.602,-33.203,21.973,0.000
1737557816.391,12.695,-12.695,-44.922,-13.184,0.000
1737557816.394,5.371,-3.418,-52.734,-26.855,0.000
1737557816.398,-26.855,-4.883,-34.668,-38.086,0.000
1737557816.402,-31.738,-10.742,-20.508,-6.348,0.000
1737557816.406,-3.418,-24.902,-33.691,25.391,0.000
1737557816.410,38.574,-10.742,-37.598,0.977,0.000
1737557816.414,8.789,10.742,-13.184,-57.617,0.000
1737557816.418,-13.672,9.277,6.348,-52.246,0.000
1737557816.422,35.156,13.672,4.883,13.184,0.000
1737557816.426,35.645,14.648,-12.207,42.480,0.000
1737557816.430,2.441,-3.906,-25.391,7.324,0.000
1737557816.433,-49.805,-20.996,-29.297,-38.086,0.000
1737557816.437,-58.105,-20.508,-26.855,-68.848,0.000
1737557816.441,-20.508,-19.531,-15.625,-26.855,0.000
1737557816.445,7.324,-19.043,-8.301,30.273,0.000
1737557816.449,-13.184,-7.324,-14.648,-5.371,0.000
1737557816.453,-38.574,-14.160,-20.508,-41.504,0.000
1737557816.457,-30.273,-13.184,-31.250,-36.621,0.000
1737557816.461,-18.555,-8.301,-26.367,-8.301,0.000
1737557816.465,20.508,-9.277,-15.625,58.105,0.000
1737557816.469,-20.020,-6.836,-21.973,-0.488,0.000
1737557816.473,-98.633,-5.859,-23.438,-80.078,0.000
1737557816.476,-65.918,-12.207,-46.875,-73.242,0.000
1737557816.480,-12.207,-22.949,-57.129,-42.480,0.000
1737557816.484,26.855,-19.531,-19.043,31.250,0.000
1737557816.488,2.441,-14.160,0.488,40.039,0.000
1737557816.492,-23.438,-11.719,-11.719,-41.992,0.000
1737557816.496,-23.926,-20.508,-21.973,-71.777,0.000
1737557816.500,-20.508,-14.648,-6.348,-43.457,0.000
1737557816.504,-6.836,-9.277,-5.371,7.812,0.000
1737557816.508,7.324,-19.531,-20.996,25.879,0.000
1737557816.512,-8.789,-16.113,-22.949,16.113,0.000
1737557816.516,-82.520,-17.578,-37.598,-48.828,0.000
1737557816.519,-88.867,-14.648,-41.504,-73.242,0.000
1737557816.523,-18.555,-15.137,-25.391,-8.301,0.000
1737557816.527,-5.859,-15.625,-20.020,9.277,0.000
1737557816.531,-39.551,-12.695,-14.648,-10.742,0.000
1737557816.535,-35.156,-13.672,-10.742,-40.527,0.000
1737557816.539,-4.883,-13.672,-7.324,-29.785,0.000
1737557816.543,12.695,-16.602,-13.672,25.391,0.000
1737557816.547,-17.578,-18.555,-34.180,-28.320,0.000
1737557816.551,-52.734,-24.902,-35.156,-63.477,0.000
1737557816.555,-57.617,-28.320,-28.320,-40.039,0.000
1737557816.558,-46.387,-21.973,-26.367,-32.715,0.000
1737557816.562,-20.020,-13.184,-27.344,9.277,0.000
1737557816.566,-10.742,-15.625,-23.926,13.184,0.000
1737557816.570,-27.344,-14.160,-24.902,-43.945,0.000
1737557816.574,-30.762,-9.277,-33.203,-67.383,0.000
1737557816.578,-25.391,-12.207,-27.832,-23.926,0.000
1737557816.582,-7.324,-9.766,-21.484,14.648,0.000
1737557816.586,1.953,-8.301,-14.160,11.719,0.000
1737557816.590,-40.527,-12.207,-15.625,-27.832,0.000
1737557816.594,-76.660,-16.602,-30.273,-51.758,0.000
1737557816.598,-74.219,-19.043,-32.227,-77.637,0.000
1737557816.601,-24.902,-28.809,-25.391,-43.945,0.000
1737557816.605,0.000,-28.809,0.000,21.484,0.000
1737557816.609,0.000,-23.926,0.000,-17.090,0.000
1737557816.613,0.000,-26.367,0.000,-67.383,0.000
1737557816.617,0.000,-23.438,0.000,-37.109,0.000
1737557816.621,0.000,-16.602,0.000,-16.602,0.000
1737557816.625,0.000,-16.602,0.000,-20.996,0.000
1737557816.629,0.000,-20.996,0.000,-28.320,0.000
1737557816.633,0.000,-26.855,0.000,-39.551,0.000
1737557816.637,0.000,-29.785,0.000,-31.250,0.000
1737557816.641,0.000,-24.902,0.000,2.930,0.000
1737557816.644,0.000,-13.184,0.000,22.949,0.000
1737557816.648,0.000,-9.277,0.000,-7.324,0.000
1737557816.652,-74.219,-20.020,-47.363,-57.617,0.000
1737557816.656,-59.570,-24.902,-34.180,-68.359,0.000
1737557816.660,-13.184,-18.066,-34.180,-28.320,0.000
1737557816.664,-0.977,-13.184,-18.066,-6.348,0.000
1737557816.668,-30.762,-14.160,-6.836,-17.090,0.000
1737557816.672,-50.293,-12.207,-6.836,-62.012,0.000
1737557816.676,-42.480,-8.301,-14.648,-60.547,0.000
1737557816.680,-30.762,-7.324,-23.438,-12.695,0.000
1737557816.684,-11.719,-20.020,-19.531,11.230,0.000
1737557816.687,-36.133,-28.809,-17.090,-12.695,0.000
1737557816.691,-66.406,-20.996,-24.414,-30.273,0.000
1737557816.695,-38.086,-20.996,-27.344,-43.945,0.000
1737557816.699,-32.715,-20.020,-27.832,-67.871,0.000
1737557816.703,-28.809,-10.254,-32.227,-31.738,0.000
1737557816.707,-19.043,-8.789,-41.992,3.906,0.000
1737557816.711,-45.410,-17.090,-43.945,-22.461,0.000
1737557816.715,-47.852,-15.625,-31.250,-15.625,0.000
1737557816.719,-19.531,-17.578,-20.996,-34.668,0.000
1737557816.723,-4.395,-25.879,-29.785,-32.715,0.000
1737557816.726,-25.391,-23.926,-34.180,15.137,0.000
1737557816.730,-52.734,-20.020,-26.367,-14.160,0.000
1737557816.734,-54.688,-19.531,-15.137,-64.453,0.000
1737557816.738,-30.273,-26.367,3.418,-73.730,0.000
1737557816.742,-8.301,-26.367,10.254,-40.039,0.000
1737557816.746,-9.277,-20.996,3.906,34.180,0.000
1737557816.750,-48.340,-24.414,-0.488,14.160,0.000
1737557816.754,-74.707,-22.949,-4.883,-46.387,0.000
1737557816.758,-48.828,-20.020,-12.695,-37.109,0.000
1737557816.762,-9.277,-18.066,-17.090,1.465,0.000
1737557816.766,1.465,-20.996,-11.230,10.742,0.000
1737557816.769,-22.949,-21.973,-20.508,-26.367,0.000
1737557816.773,-40.039,-20.020,-26.367,-39.551,0.000
1737557816.777,-36.621,-15.137,-15.137,-22.461,0.000
1737557816.781,-29.785,-10.254,-20.996,-0.977,0.000
1737557816.785,-14.648,-18.066,-24.902,-2.930,0.000
1737557816.789,-34.180,-33.203,-19.531,-52.246,0.000
1737557816.793,-83.496,-29.785,-13.672,-86.426,0.000
1737557816.797,-61.035,-18.066,-12.695,-75.684,0.000
1737557816.801,-9.277,-8.301,-4.883,-22.461,0.000
1737557816.805,-20.996,-11.230,-3.418,18.066,0.000
1737557816.809,-50.293,-27.832,-15.137,16.602,0.000
1737557816.812,-57.129,-34.180,-35.156,-16.602,0.000
1737557816.816,-69.336,-26.855,-49.316,-57.617,0.000
1737557816.820,-43.945,-25.391,-33.203,-67.871,0.000
1737557816.824,-4.883,-27.344,-20.996,-22.461,0.000
1737557816.828,-34.180,-25.879,-20.508,-25.879,0.000
1737557816.832,-68.359,-21.484,-19.531,-56.641,0.000
1737557816.836,-48.340,-23.438,-17.578,-31.250,0.000
1737557816.840,-4.883,-21.973,-23.438,-11.719,0.000
1737557816.844,0.488,-13.672,-28.320,-7.812,0.000
1737557816.848,-21.973,-15.625,-20.020,-11.230,0.000
1737557816.851,-41.016,-20.996,-9.277,-34.668,0.000
1737557816.855,-23.438,-17.578,0.488,-15.137,0.000
1737557816.859,-13.184,-9.277,-9.277,13.672,0.000
1737557816.863,-6.348,-8.789,-34.668,-12.207,0.000
1737557816.867,-29.297,-20.020,-36.133,-19.043,0.000
1737557816.871,-82.031,-30.762,-17.578,-33.203,0.000
1737557816.875,-62.012,-29.297,-8.301,-64.941,0.000
1737557816.879,-24.902,-24.414,-13.672,-38.574,0.000
1737557816.883,3.906,-22.949,-12.207,4.883,0.000
1737557816.887,-5.371,-25.391,-19.531,-11.719,0.000
1737557816.891,-42.969,-18.555,-27.344,-36.133,0.000
1737557816.894,-32.715,-18.555,-1.465,-37.109,0.000
1737557816.898,-36.133,-24.902,11.230,-20.508,0.000
1737557816.902,-23.926,-19.531,-13.672,-0.488,0.000
1737557816.906,-31.250,-23.438,-29.785,-23.926,0.000
1737557816.910,-62.988,-26.367,-32.715,-49.805,0.000
1737557816.914,-56.641,-23.438,-30.762,-54.688,0.000
1737557816.918,-22.949,-19.531,-6.348,-26.855,0.000
1737557816.922,7.812,-11.719,7.812,7.812,0.000
1737557816.926,-0.488,-21.484,-5.371,14.648,0.000
1737557816.930,-30.273,-28.809,-19.531,-20.508,0.000
1737557816.934,-19.043,-21.484,-25.391,-44.922,0.000
1737557816.937,-30.762,-31.738,-19.531,-22.461,0.000
1737557816.941,-51.758,-32.227,-13.672,-23.926,0.000
1737557816.945,-11.719,-14.160,-12.695,-9.277,0.000
1737557816.949,-4.883,-20.996,-16.602,-0.488,0.000
1737557816.953,-50.293,-17.090,-33.691,-20.996,0.000
1737557816.957,-65.430,-5.859,-32.227,-41.992,0.000
1737557816.961,-7.812,-8.789,-27.832,-42.969,0.000
1737557816.965,10.742,-18.555,-25.391,-15.137,0.000
1737557816.969,-26.855,-23.438,-19.043,3.906,0.000
1737557816.973,-21.973,-28.809,-14.648,-14.648,0.000
1737557816.976,24.902,-20.020,1.465,-47.852,0.000
1737557816.980,0.000,-19.043,0.000,0.000,0.000
1737557816.984,0.000,-29.297,0.000,0.000,0.000
1737557816.988,0.000,-26.855,0.000,0.000,0.000
1737557816.992,0.000,-20.508,0.000,0.000,0.000
1737557816.996,0.000,-21.973,0.000,0.000,0.000
1737557817.000,0.000,-19.531,0.000,0.000,0.000
1737557817.004,0.000,-13.184,0.000,0.000,0.000
1737557817.008,0.000,-17.578,0.000,0.000,0.000
1737557817.012,0.000,-29.297,0.000,0.000,0.000
1737557817.016,0.000,-27.344,0.000,0.000,0.000
1737557817.019,0.000,-16.113,0.000,0.000,0.000
1737557817.023,0.000,-19.531,0.000,0.000,0.000
1737557817.027,-0.977,-21.484,-16.113,36.133,0.000
1737557817.031,-46.875,-10.742,-21.973,-25.391,0.000
1737557817.035,-51.270,-15.137,-26.855,-29.297,0.000
1737557817.039,-35.156,-20.996,-24.414,-17.090,0.000
1737557817.043,0.977,-19.531,-20.508,-6.348,0.000
1737557817.047,-3.906,-14.648,-19.043,-0.488,0.000
1737557817.051,-42.480,-13.672,-39.062,-21.973,0.000
1737557817.055,-54.688,-26.367,-64.941,-55.664,0.000
1737557817.059,-52.246,-25.879,-59.570,-63.965,0.000
1737557817.062,-18.555,-19.043,-10.742,-9.766,0.000
1737557817.066,-15.625,-16.113,13.672,6.836,0.000
1737557817.070,-45.898,-17.090,-14.160,-8.301,0.000
1737557817.074,-30.762,-17.090,-7.324,-3.906,0.000
1737557817.078,-2.930,-15.137,4.395,-24.902,0.000
1737557817.082,9.277,-16.113,-15.625,6.348,0.000
1737557817.086,-12.695,-9.766,-24.414,53.223,0.000
1737557817.090,-57.617,-10.742,-34.668,-1.465,0.000
1737557817.094,-51.758,-16.602,-25.879,-78.125,0.000
1737557817.098,-13.184,-16.113,-10.742,-65.430,0.000
1737557817.102,-5.859,-12.695,-0.977,8.301,0.000
1737557817.105,-19.531,-14.648,0.977,40.039,0.000
1737557817.109,-23.438,-13.672,-23.926,0.000,0.000
1737557817.113,-29.297,-8.301,-47.363,-4.883,0.000
1737557817.117,-49.805,-3.906,-34.180,14.160,0.000
1737557817.121,-9.277,-6.836,-20.020,22.949,0.000
1737557817.125,13.184,-10.254,-15.625,19.531,0.000
1737557817.129,-25.879,-13.184,-1.465,-18.066,0.000
1737557817.133,-32.227,-13.184,9.277,-48.340,0.000
1737557817.137,-30.273,-8.789,8.301,-54.688,0.000
1737557817.141,-12.695,-2.441,2.930,-21.484,0.000
1737557817.145,17.090,-1.953,-6.836,11.719,0.000
1737557817.148,-12.207,0.977,-29.297,-5.371,0.000
1737557817.152,-42.969,-5.371,-57.617,-5.371,0.000
1737557817.156,-16.113,-16.602,-61.523,-14.160,0.000
1737557817.160,3.906,-19.531,-26.855,-16.602,0.000
1737557817.164,-9.277,-17.090,4.395,17.090,0.000
1737557817.168,-21.484,-17.578,13.672,4.883,0.000
1737557817.172,-33.691,-15.625,-3.418,-48.340,0.000
1737557817.176,-31.250,-7.324,-10.742,-50.781,0.000
1737557817.180,2.441,-8.789,-11.230,-7.812,0.000
1737557817.184,25.391,-13.672,-25.879,15.625,0.000
1737557817.187,7.812,-15.625,-18.066,-34.180,0.000
1737557817.191,-47.852,-10.254,-6.348,-58.105,0.000
1737557817.195,-78.125,-3.418,-7.812,-46.387,0.000
1737557817.199,-34.668,-19.531,-15.137,-28.809,0.000
1737557817.203,-2.930,-25.391,-22.461,-2.930,0.000
1737557817.207,-20.508,-10.254,-20.508,-15.137,0.000
1737557817.211,-45.898,-12.207,-10.742,-41.504,0.000
1737557817.215,-59.082,-24.414,-27.832,-62.988,0.000
1737557817.219,-55.664,-24.902,-36.133,-34.668,0.000
1737557817.223,-10.254,-17.578,-4.883,21.973,0.000
1737557817.227,24.902,-15.137,-9.277,34.180,0.000
1737557817.230,-24.902,-12.207,-33.203,-41.016,0.000
1737557817.234,-100.098,-13.672,-34.180,-87.402,0.000
1737557817.238,-43.457,-19.531,-13.672,-59.570,0.000
1737557817.242,7.324,-15.137,-9.277,-6.836,0.000
1737557817.246,-8.301,-12.695,-20.508,20.508,0.000
1737557817.250,-15.625,-23.926,-23.926,-39.551,0.000
1737557817.254,-52.734,-26.855,-19.531,-87.402,0.000
1737557817.258,-50.781,-17.090,-6.836,-79.102,0.000
1737557817.262,-6.348,-5.371,0.000,-24.414,0.000
1737557817.266,-17.090,2.441,-12.207,22.949,0.000
1737557817.270,-50.293,-4.883,-17.090,-6.348,0.000
1737557817.273,-44.922,-13.672,-12.695,-39.062,0.000
1737557817.277,-33.203,-5.371,-22.949,-30.273,0.000
1737557817.281,-51.270,3.906,-38.086,-7.324,0.000
1737557817.285,-22.949,0.000,-20.508,7.324,0.000
1737557817.289,-10.254,-10.742,-6.348,-11.230,0.000
1737557817.293,-52.246,-20.508,-21.973,-70.801,0.000
1737557817.297,-54.688,-18.066,-21.973,-68.848,0.000
1737557817.301,-44.922,-14.160,-19.531,-10.742,0.000
1737557817.305,-15.625,-13.672,-25.391,13.672,0.000
1737557817.309,-32.227,-19.043,-30.273,-24.902,0.000
1737557817.312,-69.336,-18.555,-24.902,-60.059,0.000
1737557817.316,-52.246,-18.066,-16.113,-51.270,0.000
1737557817.320,-15.625,-20.508,-4.395,-23.926,0.000
1737557817.324,8.789,-17.090,6.348,-3.906,0.000
1737557817.328,-38.086,-21.484,4.883,12.695,0.000
1737557817.332,-77.637,-19.531,-3.418,-13.184,0.000
1737557817.336,-49.316,-13.184,-33.203,-59.082,0.000
1737557817.340,-20.508,-18.066,-45.410,-54.199,0.000
1737557817.344,-8.789,-22.461,-17.090,-6.836,0.000
1737557817.348,-25.391,-25.879,-5.859,-11.719,0.000
1737557817.352,-53.223,-28.320,-6.348,-42.969,0.000
1737557817.355,0.000,-18.555,0.000,0.000,0.000
1737557817.359,0.000,-8.301,0.000,0.000,0.000
1737557817.363,0.000,-7.324,0.000,0.000,0.000
1737557817.367,0.000,-10.742,0.000,0.000,0.000
1737557817.371,0.000,-15.137,0.000,0.000,0.000
1737557817.375,0.000,-19.531,0.000,0.000,0.000
1737557817.379,0.000,-25.391,0.000,0.000,0.000
1737557817.383,0.000,-21.484,0.000,0.000,0.000
1737557817.387,0.000,-7.812,0.000,0.000,0.000
1737557817.391,0.000,-10.254,0.000,0.000,0.000
1737557817.395,0.000,-20.996,0.000,0.000,0.000
1737557817.398,0.000,-19.043,0.000,0.000,0.000
1737557817.402,-1.953,-13.672,-8.789,-2.930,0.000
1737557817.406,11.719,-20.020,5.371,15.625,0.000
1737557817.410,-16.113,-20.996,-4.883,-26.855,0.000
1737557817.414,-20.996,-15.625,-18.555,-48.340,0.000
1737557817.418,-3.418,-10.742,-18.066,-25.391,0.000
1737557817.422,-20.020,-5.371,-23.926,12.207,0.000
1737557817.426,-9.766,-9.766,-14.648,15.625,0.000
1737557817.430,-16.602,-10.254,-14.648,-57.617,0.000
1737557817.434,-35.156,-12.695,-33.691,-93.750,0.000
1737557817.437,-1.465,-10.254,-20.020,-37.109,0.000
1737557817.441,-9.277,-5.371,0.977,15.625,0.000
1737557817.445,-0.488,-6.348,-7.324,14.648,0.000
1737557817.449,-10.742,-15.625,-17.090,-12.207,0.000
1737557817.453,-48.340,-20.508,-5.371,-30.762,0.000
1737557817.457,-40.039,-6.836,-2.441,-16.113,0.000
1737557817.461,-1.953,-16.602,-11.230,-0.977,0.000
1737557817.465,16.602,-35.645,-14.648,-20.996,0.000
1737557817.469,-29.785,-30.762,-22.949,-55.664,0.000
1737557817.473,-64.941,-18.066,-14.648,-83.984,0.000
1737557817.477,-40.527,-17.578,-6.836,-50.781,0.000
1737557817.480,-13.672,-30.273,-18.555,10.742,0.000
1737557817.484,3.418,-18.555,-18.066,33.203,0.000
1737557817.488,-32.227,-8.789,-6.348,18.555,0.000
1737557817.492,-47.852,-11.230,-3.906,-18.066,0.000
1737557817.496,-23.438,-6.348,-19.531,-22.461,0.000
1737557817.500,-7.324,-10.254,-18.066,9.277,0.000
1737557817.504,0.000,-11.719,-7.812,22.949,0.000
1737557817.508,-28.320,-15.625,-13.184,-7.812,0.000
1737557817.512,-19.043,-20.996,-7.324,-57.129,0.000
1737557817.516,-15.137,-12.695,-0.488,-35.645,0.000
1737557817.520,-61.035,-6.348,-8.301,4.883,0.000
1737557817.523,-51.758,-14.648,-37.109,-17.090,0.000
1737557817.527,-40.527,-14.648,-42.480,-23.926,0.000
1737557817.531,-37.109,-15.137,-30.273,-15.625,0.000
1737557817.535,-26.367,-11.719,-22.949,-31.250,0.000
1737557817.539,-31.250,-8.789,-8.301,-22.461,0.000
1737557817.543,7.324,-6.348,2.441,34.180,0.000
1737557817.547,9.766,-4.883,5.859,19.043,0.000
1737557817.551,-47.852,-12.695,-0.488,-20.508,0.000
1737557817.555,-66.895,-19.043,-20.996,-28.320,0.000
1737557817.559,-36.621,-18.066,-41.504,-55.664,0.000
1737557817.563,12.695,-9.277,-41.016,-31.250,0.000
1737557817.566,-2.441,-14.648,-35.156,5.859,0.000
1737557817.570,-66.895,-28.320,-32.715,-8.301,0.000
1737557817.574,-83.496,-24.414,-11.230,-36.133,0.000
1737557817.578,-36.621,-20.996,1.953,-59.082,0.000
1737557817.582,1.465,-16.113,-2.930,5.371,0.000
1737557817.586,8.789,-15.137,-20.508,39.551,0.000
1737557817.590,-24.414,-20.020,-24.414,-34.180,0.000
1737557817.594,-71.777,-19.531,-15.625,-35.645,0.000
1737557817.598,-61.035,-20.996,-6.348,-25.879,0.000
1737557817.602,-6.836,-21.973,-0.488,4.883,0.000
1737557817.605,0.000,-19.531,-5.859,35.645,0.000
1737557817.609,-33.691,-14.160,-25.879,-10.742,0.000
1737557817.613,-31.738,-12.695,-34.668,-52.734,0.000
1737557817.617,-4.395,-8.301,-33.203,-30.762,0.000
1737557817.621,13.672,-7.324,-48.340,19.531,0.000
1737557817.625,9.277,-14.160,-41.504,28.320,0.000
1737557817.629,-26.855,-17.578,-10.254,-34.180,0.000
1737557817.633,-61.523,-25.391,9.766,-81.543,0.000
1737557817.637,-33.203,-21.484,17.090,-52.246,0.000
1737557817.641,6.348,-10.254,0.488,-4.883,0.000
1737557817.645,-8.789,-10.254,-10.254,39.551,0.000
1737557817.648,-19.531,-5.859,-16.113,7.812,0.000
1737557817.652,-19.531,-14.648,-20.020,-49.805,0.000
1737557817.656,-16.602,-20.508,-15.137,-28.320,0.000
1737557817.660,-4.883,-12.695,-28.809,-11.719,0.000
1737557817.664,15.625,-11.719,-47.363,-1.953,0.000
1737557817.668,-10.742,-8.789,-42.480,-14.648,0.000
1737557817.672,-46.387,-14.648,-20.508,-65.918,0.000
1737557817.676,-71.777,-34.180,-3.418,-57.129,0.000
1737557817.680,-53.711,-39.062,4.395,-9.277,0.000
1737557817.684,-9.766,-25.391,-0.977,22.949,0.000
1737557817.688,-14.648,-18.555,-13.184,8.301,0.000
1737557817.691,-54.688,-20.996,-14.160,-40.039,0.000
1737557817.695,-44.434,-15.625,-4.883,-70.312,0.000
1737557817.699,2.930,-18.555,-5.859,-45.410,0.000
1737557817.703,15.137,-25.391,-10.742,-7.812,0.000
1737557817.707,-22.949,-27.344,-16.602,-11.230,0.000
1737557817.711,-59.082,-25.879,-25.879,-32.227,0.000
1737557817.715,-53.223,-22.461,-36.133,-40.527,0.000
1737557817.719,-22.461,-20.508,-32.227,-12.207,0.000
1737557817.723,-6.836,-17.578,-15.625,17.090,0.000
1737557817.727,1.953,-14.160,-17.090,-0.977,0.000
1737557817.730,-20.996,-22.949,-35.645,-41.504,0.000
1737557817.734,-44.922,-26.367,-32.715,-54.199,0.000
1737557817.738,-55.176,-21.973,-9.277,0.488,0.000
1737557817.742,-21.973,-22.949,0.488,24.414,0.000
1737557817.746,-12.695,-21.973,0.488,-8.789,0.000
1737557817.750,-48.828,-13.672,-17.578,-51.758,0.000
1737557817.754,-55.664,-12.695,-32.227,-61.035,0.000
1737557817.758,-35.156,-13.184,-25.391,-22.461,0.000
1737557817.762,-15.137,-14.160,-12.207,8.789,0.000
1737557817.766,-7.812,-14.160,-14.648,7.324,0.000
1737557817.770,-43.945,-18.555,-19.531,-43.457,0.000
1737557817.773,-73.730,-18.555,-10.742,-49.805,0.000
1737557817.777,-49.316,-14.648,-3.906,-34.668,0.000
1737557817.781,-3.418,-14.648,-11.230,8.789,0.000
1737557817.785,-13.672,-8.789,-23.438,31.738,0.000
1737557817.789,-71.289,-8.789,-21.484,-14.160,0.000
1737557817.793,-104.004,-19.531,-13.672,-70.801,0.000
1737557817.797,-93.262,-10.742,-17.578,-82.520,0.000
1737557817.801,-50.781,-1.953,-17.090,-35.156,0.000
1737557817.805,-24.414,-8.789,-20.508,-4.883,0.000
1737557817.809,-45.410,-10.742,-26.367,-21.484,0.000
1737557817.813,-69.336,-1.465,-23.926,-74.707,0.000
1737557817.816,-69.824,3.906,-37.598,-85.938,0.000
1737557817.820,-29.785,1.465,-32.715,-9.766,0.000
1737557817.824,-10.254,-2.930,-25.391,10.742,0.000
1737557817.828,-54.688,-5.371,-46.387,-58.594,0.000
1737557817.832,-70.312,-3.418,-42.969,-62.500,0.000
1737557817.836,-60.059,-18.555,-27.832,-43.457,0.000
1737557817.840,-40.039,-27.832,-28.809,-33.691,0.000
1737557817.844,-20.508,-12.207,-23.438,-0.488,0.000
1737557817.848,-34.180,-10.254,-1.953,4.395,0.000
1737557817.852,-63.477,-12.695,-3.906,-31.738,0.000
1737557817.855,-62.500,-20.508,-21.973,-53.711,0.000
1737557817.859,-13.184,-21.973,-15.625,-32.227,0.000
1737557817.863,24.414,-13.184,-16.113,-16.113,0.000
1737557817.867,-20.996,-1.953,-28.809,0.488,0.000
1737557817.871,-56.641,-5.371,-34.668,-11.719,0.000
1737557817.875,-52.734,-10.254,-39.551,-31.250,0.000
1737557817.879,-20.508,-8.301,-25.391,-28.320,0.000
1737557817.883,10.742,-22.949,-9.277,9.277,0.000
1737557817.887,-5.371,-27.832,-14.160,2.441,0.000
1737557817.891,-44.922,-20.020,-32.715,-48.828,0.000
1737557817.895,-80.078,-20.508,-30.273,-67.871,0.000
1737557817.898,-43.457,-22.949,-15.137,-68.848,0.000
1737557817.902,11.230,-12.695,-4.395,-13.184,0.000
1737557817.906,-14.648,-10.254,-7.812,11.230,0.000
1737557817.910,-49.805,-17.090,-35.645,-24.902,0.000
1737557817.914,-60.547,-14.160,-35.645,-44.434,0.000
1737557817.918,-43.945,-4.883,-16.113,-29.785,0.000
1737557817.922,6.348,-0.977,-5.859,16.602,0.000
1737557817.926,17.090,-1.953,-16.602,20.020,0.000
1737557817.930,-33.691,-16.113,-27.832,-43.945,0.000
1737557817.934,-70.312,-27.832,-16.602,-54.199,0.000
1737557817.938,-51.758,-20.996,-18.066,-14.648,0.000
1737557817.941,-6.348,-15.625,-26.367,1.953,0.000
1737557817.945,14.648,-18.555,-21.484,24.414,0.000
1737557817.949,-41.016,-16.113,-23.926,-12.695,0.000
1737557817.953,-45.898,-21.484,-22.949,-81.055,0.000
1737557817.957,-36.621,-28.809,-14.648,-53.711,0.000
1737557817.961,-23.926,-25.391,-29.297,6.836,0.000
1737557817.965,8.301,-23.926,-22.461,14.160,0.000
1737557817.969,-33.203,-33.691,-2.930,-10.742,0.000
1737557817.973,-74.707,-34.668,-3.906,-40.527,0.000
1737557817.977,-35.156,-21.484,-14.648,-50.293,0.000
1737557817.981,2.441,-16.113,-27.832,-11.230,0.000
1737557817.984,0.977,-17.090,-37.109,4.395,0.000
1737557817.988,-20.996,-25.391,-34.668,-43.945,0.000
1737557817.992,-53.711,-29.297,-16.602,-68.848,0.000
1737557817.996,-58.594,-24.414,-9.277,-50.293,0.000
1737557818.000,-2.441,-14.160,-13.184,-18.555,0.000
1737557818.004,33.691,-14.160,-4.395,24.414,0.000
1737557818.008,0.000,-14.648,-3.418,19.531,0.000
1737557818.012,-38.574,-10.742,-17.578,-21.973,0.000
1737557818.016,-52.246,-20.508,-29.297,-48.828,0.000
1737557818.020,-27.832,-33.691,-18.555,-0.977,0.000
1737557818.023,11.230,-36.133,-15.625,32.227,0.000
1737557818.027,-12.207,-35.156,-32.715,-16.113,0.000
1737557818.031,-61.035,-29.785,-36.133,-58.105,0.000
1737557818.035,-51.758,-25.879,-26.855,-49.316,0.000
1737557818.039,-15.137,-16.113,-4.395,-12.695,0.000
1737557818.043,5.371,-16.602,15.625,19.531,0.000
1737557818.047,-16.113,-20.508,5.859,-7.324,0.000
1737557818.051,-46.875,-20.508,-17.578,-40.527,0.000
1737557818.055,-58.594,-19.531,-41.016,-36.621,0.000
1737557818.059,-31.738,-19.043,-28.320,-13.184,0.000
1737557818.063,23.926,-17.090,-8.301,30.762,0.000
1737557818.066,5.859,-19.043,-7.324,-0.488,0.000
1737557818.070,-54.688,-23.438,-9.766,-56.641,0.000
1737557818.074,-64.941,-26.367,-7.812,-51.758,0.000
1737557818.078,-27.344,-24.414,-4.883,-18.555,0.000
1737557818.082,6.836,-18.555,-11.719,0.977,0.000
1737557818.086,7.324,-12.695,-14.648,26.855,0.000
1737557818.090,-58.594,-17.578,-16.113,6.348,0.000
1737557818.094,-80.078,-29.297,-18.555,-82.031,0.000
1737557818.098,-33.203,-27.832,-13.672,-102.539,0.000
1737557818.102,9.277,-14.160,-11.230,-39.551,0.000
1737557818.106,-4.883,-20.996,0.000,0.488,0.000
1737557818.109,-27.832,-26.367,0.000,9.277,0.000
1737557818.113,-50.781,-20.020,0.000,-21.484,0.000
1737557818.117,-60.547,-25.879,0.000,-45.898,0.000
1737557818.121,-10.254,-27.832,0.000,-3.906,0.000
1737557818.125,3.418,-27.832,0.000,-0.488,0.000
1737557818.129,-37.598,-42.480,0.000,-22.461,0.000
1737557818.133,-33.203,-48.828,0.000,-20.996,0.000
1737557818.137,-48.828,-44.434,0.000,-56.152,0.000
1737557818.141,-42.480,-36.133,0.000,-27.344,0.000
1737557818.145,8.301,-28.320,0.000,13.672,0.000
1737557818.148,-17.090,-36.621,0.000,-14.648,0.000
1737557818.152,-62.500,-39.062,-20.020,-27.832,0.000
1737557818.156,-51.758,-30.273,-20.996,-23.926,0.000
1737557818.160,-2.441,-33.691,-8.789,6.836,0.000
1737557818.164,26.855,-22.461,4.395,51.758,0.000
1737557818.168,6.836,-21.484,1.953,31.250,0.000
1737557818.172,-38.574,-24.414,-10.742,-59.082,0.000
1737557818.176,-47.852,-19.531,-10.254,-83.984,0.000
1737557818.180,-44.922,-22.949,-11.719,-31.738,0.000
1737557818.184,0.488,-28.809,-14.160,25.879,0.000
1737557818.188,0.977,-25.879,-10.742,18.066,0.000
1737557818.191,-33.203,-25.879,-27.832,-33.203,0.000
1737557818.195,-14.160,-22.461,-27.344,-49.805,0.000
1737557818.199,-20.508,-24.414,0.000,-23.926,0.000
1737557818.203,-20.020,-28.809,0.000,15.625,0.000
1737557818.207,-39.062,-29.785,0.000,-5.371,0.000
1737557818.211,-61.035,-27.344,0.000,-53.711,0.000
1737557818.215,-46.387,-22.949,0.000,-43.457,0.000
1737557818.219,-19.043,-23.438,0.000,-3.906,0.000
1737557818.223,8.301,-31.738,0.000,38.574,0.000
1737557818.227,-12.695,-38.574,0.000,25.391,0.000
1737557818.231,-52.734,-35.156,0.000,-21.484,0.000
1737557818.234,-49.316,-31.250,0.000,-37.109,0.000
1737557818.238,-26.855,-27.832,0.000,-39.062,0.000
1737557818.242,-14.160,-22.461,0.000,3.418,0.000
1737557818.246,-15.625,-21.973,-23.438,46.387,0.000
1737557818.250,-47.852,-28.320,-32.715,-1.465,0.000
1737557818.254,-52.246,-32.227,-15.625,-28.320,0.000
1737557818.258,-23.438,-30.273,-3.906,-17.578,0.000
1737557818.262,9.277,-28.320,-11.719,-1.953,0.000
1737557818.266,-1.953,-27.832,-20.020,-6.348,0.000
1737557818.270,-33.203,-25.391,-23.926,-29.785,0.000
1737557818.274,-23.438,-26.367,-30.762,-38.574,0.000
1737557818.277,-34.180,-24.902,-25.391,-14.160,0.000
1737557818.281,-35.645,-26.367,-9.766,2.441,0.000
1737557818.285,-16.113,-24.902,-12.207,-25.391,0.000
1737557818.289,-49.316,-20.508,-23.926,-41.016,0.000
1737557818.293,0.000,-19.043,-22.461,-29.785,0.000
1737557818.297,0.000,-21.484,-21.484,-30.762,0.000
1737557818.301,0.000,-26.367,-23.926,-35.156,0.000
1737557818.305,0.000,-20.996,-20.508,8.789,0.000
1737557818.309,0.000,-15.625,-34.180,27.344,0.000
1737557818.313,0.000,-14.160,-26.367,4.883,0.000
1737557818.316,0.000,-17.090,-4.883,-17.090,0.000
1737557818.320,0.000,-16.113,-0.488,0.000,0.000
1737557818.324,0.000,-14.648,-7.324,18.555,0.000
1737557818.328,0.000,-14.160,-27.832,-15.137,0.000
1737557818.332,0.000,-20.020,-31.738,-47.363,0.000
1737557818.336,0.000,-16.113,-21.484,-48.828,0.000
1737557818.340,-22.461,-17.578,-21.973,-31.250,0.000
1737557818.344,-23.438,-21.973,-25.391,-39.551,0.000
1737557818.348,-2.441,-23.438,-26.855,-31.738,0.000
1737557818.352,-29.297,-18.066,-22.949,-24.414,0.000
1737557818.356,-52.734,-11.230,-19.531,-45.898,0.000
1737557818.359,-15.137,-3.906,-21.484,-21.484,0.000
1737557818.363,6.348,-11.230,-22.461,24.414,0.000
1737557818.367,-17.578,-22.949,-22.461,3.906,0.000
1737557818.371,-38.574,-20.020,-20.996,-42.969,0.000
1737557818.375,-35.156,-19.531,-21.973,-63.965,0.000
1737557818.379,-8.301,-18.066,-26.367,-48.828,0.000
1737557818.383,17.578,-11.719,-22.949,-17.090,0.000
1737557818.387,-32.227,-15.137,-14.648,21.484,0.000
1737557818.391,-79.102,-21.973,-24.414,1.465,0.000
1737557818.395,-52.734,-26.855,-23.926,-49.805,0.000
1737557818.399,-51.270,-25.391,-8.301,-37.109,0.000
1737557818.402,-31.250,-23.438,0.977,-0.977,0.000
1737557818.406,-19.043,-20.996,0.977,0.977,0.000
1737557818.410,-57.129,-19.043,-27.344,-32.715,0.000
1737557818.414,-86.914,-30.762,-42.480,-43.945,0.000
1737557818.418,-70.801,-36.621,-26.855,-27.832,0.000
1737557818.422,-29.297,-26.855,-14.160,-12.207,0.000
1737557818.426,-20.996,-20.996,-12.207,2.441,0.000
1737557818.430,-24.902,-19.043,-10.742,0.000,0.000
1737557818.434,-26.367,-21.484,-28.320,-21.973,0.000
1737557818.438,-36.133,-23.926,-40.527,-30.273,0.000
1737557818.441,-24.902,-12.207,-38.086,-5.859,0.000
1737557818.445,-2.441,-10.254,-35.645,11.230,0.000
1737557818.449,-36.133,-13.672,-21.484,-18.555,0.000
1737557818.453,-70.801,-22.461,-7.324,-50.781,0.000
1737557818.457,-24.414,-23.926,3.418,-35.645,0.000
1737557818.461,-3.906,-19.531,1.953,-22.461,0.000
1737557818.465,-43.457,-22.949,2.930,-18.066,0.000
1737557818.469,-81.543,-22.461,-8.301,-46.875,0.000
1737557818.473,-95.215,-20.508,-23.438,-76.172,0.000
1737557818.477,-98.633,-27.832,-17.578,-77.148,0.000
1737557818.481,0.000,-30.762,0.000,-45.410,0.000
1737557818.484,0.000,-19.531,0.000,-29.785,0.000
1737557818.488,0.000,-23.926,0.000,-56.152,0.000
1737557818.492,0.000,-36.621,0.000,-83.984,0.000
1737557818.496,0.000,-37.109,0.000,-69.336,0.000
1737557818.500,0.000,-29.785,0.000,-55.176,0.000
1737557818.504,0.000,-28.320,0.000,-38.086,0.000
1737557818.508,0.000,-35.156,0.000,-51.758,0.000
1737557818.512,0.000,-40.527,0.000,-80.078,0.000
1737557818.516,0.000,-38.086,0.000,-56.641,0.000
1737557818.520,0.000,-29.785,0.000,-61.523,0.000
1737557818.524,0.000,-23.926,0.000,-33.203,0.000
1737557818.527,-72.266,-20.020,-14.160,-16.113,0.000
1737557818.531,-95.703,-20.020,-18.555,-46.387,0.000
1737557818.535,-57.617,-20.996,-20.508,-53.223,0.000
1737557818.539,-21.484,-15.137,-30.273,-48.340,0.000
1737557818.543,-15.137,-9.766,-24.902,-27.832,0.000
1737557818.547,-47.852,-12.207,-25.879,-51.758,0.000
1737557818.551,-92.285,-23.926,-31.738,-67.871,0.000
1737557818.555,-87.402,-30.762,-28.320,-64.941,0.000
1737557818.559,-52.734,-24.414,-18.555,-55.664,0.000
1737557818.563,-13.672,-22.949,-6.836,3.418,0.000
1737557818.567,-22.949,-30.273,-6.348,6.836,0.000
1737557818.570,-53.223,-27.832,-19.531,-48.340,0.000
1737557818.574,-63.477,-26.855,-20.508,-49.805,0.000
1737557818.578,-38.574,-18.066,-18.066,-33.203,0.000
1737557818.582,-4.883,-11.230,-25.879,-36.133,0.000
1737557818.586,-34.180,-20.508,-17.578,-11.230,0.000
1737557818.590,-70.801,-30.273,-6.836,-32.715,0.000
1737557818.594,-70.312,-23.926,-7.324,-55.176,0.000
1737557818.598,-33.691,-17.578,-19.531,-53.223,0.000
1737557818.602,5.859,-22.949,-20.996,-20.508,0.000
1737557818.606,-1.953,-20.996,-19.531,22.949,0.000
1737557818.609,-42.969,-22.949,-29.785,-7.812,0.000
1737557818.613,-73.730,-23.438,-30.762,-43.945,0.000
1737557818.617,-56.152,-23.926,-21.484,-37.109,0.000
1737557818.621,-15.625,-21.484,-18.066,-31.738,0.000
1737557818.625,1.465,-7.324,-16.602,-26.855,0.000
1737557818.629,-30.762,-7.812,-18.066,-32.227,0.000
1737557818.633,-52.734,-8.789,-34.180,-53.223,0.000
1737557818.637,-53.223,-12.695,-31.738,-70.801,0.000
1737557818.641,-26.855,-26.855,-19.531,-32.715,0.000
1737557818.645,-10.742,-25.391,-22.461,-12.695,0.000
1737557818.649,-43.457,-24.902,-28.320,-38.574,0.000
1737557818.652,-81.055,-29.785,-35.645,-49.805,0.000
1737557818.656,-64.453,-30.273,-26.367,-49.805,0.000
1737557818.660,-37.598,-21.484,-18.555,-1.953,0.000
1737557818.664,-40.527,-15.625,-18.066,5.859,0.000
1737557818.668,-44.434,-12.695,-24.414,-64.453,0.000
1737557818.672,-40.527,-12.207,-27.832,-80.078,0.000
1737557818.676,-26.855,-16.113,-20.020,-44.922,0.000
1737557818.680,-3.418,-14.648,-10.254,-9.766,0.000
1737557818.684,5.859,-12.695,-3.418,15.137,0.000
1737557818.688,-13.672,-19.531,-15.137,14.648,0.000
1737557818.692,-49.805,-24.414,-27.832,-18.555,0.000
1737557818.695,-41.992,-21.484,-36.133,-80.566,0.000
1737557818.699,3.906,-20.508,-10.254,-64.941,0.000
1737557818.703,5.371,-18.555,13.184,3.906,0.000
1737557818.707,-28.809,-16.602,-0.977,-12.207,0.000
1737557818.711,-76.172,-21.484,-0.977,-42.480,0.000
1737557818.715,-64.453,-19.531,-1.953,-36.621,0.000
1737557818.719,-36.133,-13.184,-17.578,-27.344,0.000
1737557818.723,-45.898,-18.555,-18.066,-20.508,0.000
1737557818.727,-39.551,-19.531,-17.578,-35.645,0.000
1737557818.731,-56.152,-21.973,-21.973,-45.410,0.000
1737557818.734,-52.734,-20.508,-20.508,-25.391,0.000
1737557818.738,-29.785,-22.949,-23.926,-28.809,0.000
1737557818.742,-15.137,-27.344,-24.414,20.020,0.000
1737557818.746,-24.902,-18.555,-16.113,20.996,0.000
1737557818.750,-35.156,-20.508,-2.930,-37.109,0.000
1737557818.754,-49.316,-18.555,-7.324,-57.129,0.000
1737557818.758,-45.898,-17.578,-20.508,-51.758,0.000
1737557818.762,0.000,-25.879,-7.812,-19.043,0.000
1737557818.766,0.000,-20.996,4.395,-1.465,0.000
1737557818.770,0.000,-14.160,-8.301,-28.809,0.000
1737557818.774,0.000,-16.602,-30.273,-60.547,0.000
1737557818.777,0.000,-24.902,-30.273,-48.828,0.000
1737557818.781,0.000,-20.020,-17.090,11.230,0.000
1737557818.785,0.000,-15.625,-22.949,8.301,0.000
1737557818.789,0.000,-20.996,-37.598,-47.363,0.000
1737557818.793,0.000,-21.484,-31.250,-49.316,0.000
1737557818.797,0.000,-18.555,-7.812,-42.480,0.000
1737557818.801,0.000,-13.672,-15.137,-20.508,0.000
1737557818.805,0.000,-16.602,-24.414,14.160,0.000
1737557818.809,8.789,-23.438,-22.461,2.930,0.000
1737557818.813,-4.395,-23.438,-14.648,-28.809,0.000
1737557818.816,-52.246,-20.508,-11.230,-34.180,0.000
1737557818.820,-56.641,-21.484,-20.020,-21.484,0.000
1737557818.824,-59.082,-22.949,-27.832,-13.672,0.000
1737557818.828,-32.715,-14.648,-30.273,-31.738,0.000
1737557818.832,2.930,-16.602,-31.738,-42.969,0.000
1737557818.836,-22.949,-18.555,-34.668,-31.250,0.000
1737557818.840,-50.781,-4.883,-26.367,15.137,0.000
1737557818.844,-37.109,3.906,-23.438,13.184,0.000
1737557818.848,-8.789,-14.160,-26.855,-68.359,0.000
1737557818.852,-6.836,-32.715,-19.531,-91.797,0.000
1737557818.856,-67.383,-30.762,-10.742,-47.363,0.000
1737557818.859,-7.812,-20.508,-26.367,-18.555,0.000
1737557818.863,16.602,-16.113,-40.039,8.301,0.000
1737557818.867,-14.648,-13.672,-25.879,22.949,0.000
1737557818.871,-46.387,-14.160,-24.414,-20.508,0.000
1737557818.875,-27.832,-12.695,-33.203,-23.926,0.000
1737557818.879,5.371,-22.949,-30.762,4.883,0.000
1737557818.883,10.742,-21.973,-20.508,-24.902,0.000
1737557818.887,-28.320,-13.672,-8.301,-69.824,0.000
1737557818.891,-66.895,-11.230,-17.578,-64.453,0.000
1737557818.895,-62.012,-12.207,-32.227,-38.574,0.000
1737557818.899,-33.203,-11.230,-32.715,-8.301,0.000
1737557818.902,-10.742,-11.719,-23.926,7.324,0.000
1737557818.906,-21.484,-19.043,-16.602,-7.324,0.000
1737557818.910,-27.344,-26.855,-10.254,-18.066,0.000
1737557818.914,-56.641,-31.738,-7.812,-33.691,0.000
1737557818.918,-24.902,-36.621,-5.371,-48.828,0.000
1737557818.922,20.020,-26.367,-14.648,-31.738,0.000
1737557818.926,-4.883,-5.859,-39.062,-36.133,0.000
1737557818.930,-25.391,-5.371,-29.297,-42.480,0.000
1737557818.934,-37.109,-16.113,-10.254,-28.320,0.000
1737557818.938,-24.902,-15.625,-8.301,-8.789,0.000
1737557818.941,9.766,-14.160,-24.902,41.992,0.000
1737557818.945,-9.766,-12.695,-52.246,22.461,0.000
1737557818.949,-47.852,-14.648,-35.645,-42.480,0.000
1737557818.953,-62.012,-20.996,-3.906,-68.848,0.000
1737557818.957,-45.898,-25.879,1.465,-69.824,0.000
1737557818.961,0.977,-18.066,-5.859,-38.574,0.000
1737557818.965,-0.488,-11.719,-5.371,-4.395,0.000
1737557818.969,-41.992,-11.230,-12.695,-4.395,0.000
1737557818.973,-38.574,-15.137,-32.227,-27.344,0.000
1737557818.977,-17.578,-25.391,-33.203,-21.484,0.000
1737557818.981,-7.812,-34.180,-24.414,-2.930,0.000
1737557818.984,-16.602,-33.691,-21.484,-0.488,0.000
1737557818.988,-41.992,-25.879,-21.973,-22.949,0.000
1737557818.992,-41.504,-24.414,-28.320,-69.336,0.000
1737557818.996,-40.527,-22.949,-36.133,-73.730,0.000
1737557819.000,-6.348,-21.484,-30.273,-26.855,0.000
1737557819.004,10.742,-26.367,-20.020,-7.324,0.000
1737557819.008,-26.855,-23.926,-10.254,-14.160,0.000
1737557819.012,-27.832,-5.859,-8.789,-27.832,0.000
1737557819.016,-19.043,-4.395,-23.926,-49.316,0.000
1737557819.020,-17.578,-11.719,-27.344,-66.895,0.000
1737557819.024,-14.160,-21.484,-35.156,-39.062,0.000
1737557819.027,-28.809,-20.996,-64.941,-27.344,0.000
1737557819.031,-34.180,-17.090,-38.574,-42.969,0.000
1737557819.035,-47.363,-25.391,0.000,-45.898,0.000
1737557819.039,-39.551,-31.250,-4.395,-45.898,0.000
1737557819.043,-13.672,-26.367,0.000,-5.371,0.000
1737557819.047,-27.344,-25.879,0.000,-24.414,0.000
1737557819.051,-46.875,-27.344,0.000,-47.363,0.000
1737557819.055,-51.270,-23.926,0.000,-25.391,0.000
1737557819.059,-24.902,-23.926,0.000,-28.809,0.000
1737557819.063,18.555,-21.484,0.000,0.488,0.000
1737557819.067,-4.883,-24.414,0.000,2.441,0.000
1737557819.070,-52.246,-18.066,0.000,-64.941,0.000
1737557819.074,-55.176,-14.648,0.000,-72.266,0.000
1737557819.078,-22.949,-16.113,0.000,-41.504,0.000
1737557819.082,0.488,-19.531,0.000,15.137,0.000
1737557819.086,-6.348,-22.461,0.000,36.133,0.000
1737557819.090,0.000,-18.555,-25.391,-6.836,0.000
1737557819.094,0.000,-16.113,-22.949,-36.133,0.000
1737557819.098,0.000,-8.301,-20.508,-39.551,0.000
1737557819.102,0.000,-2.930,-26.367,-5.371,0.000
1737557819.106,0.000,-12.695,-18.066,8.301,0.000
1737557819.109,0.000,-20.020,-6.836,-8.301,0.000
1737557819.113,0.000,-21.484,-13.672,-5.371,0.000
1737557819.117,0.000,-23.438,-16.113,-6.836,0.000
1737557819.121,0.000,-21.973,-19.043,-9.766,0.000
1737557819.125,0.000,-21.973,-20.996,-24.902,0.000
1737557819.129,0.000,-26.855,-15.625,-62.988,0.000
1737557819.133,0.000,-28.320,-15.625,-59.082,0.000
1737557819.137,1.953,-17.090,-12.207,-15.137,0.000
1737557819.141,27.832,-14.648,-12.207,15.137,0.000
1737557819.145,27.344,-19.531,-27.832,53.711,0.000
1737557819.149,0.488,-20.508,-28.320,10.742,0.000
1737557819.152,-40.039,-15.137,-27.832,-56.152,0.000
1737557819.156,-55.176,-12.695,-38.574,-20.996,0.000
1737557819.160,-5.859,-16.602,-43.945,9.277,0.000
1737557819.164,25.391,-17.578,-33.203,-16.602,0.000
1737557819.168,-10.254,-15.625,-15.625,-19.531,0.000
1737557819.172,-42.480,-18.555,-15.625,-43.457,0.000
1737557819.176,-33.691,-20.508,-30.762,-41.016,0.000
1737557819.180,20.996,-13.672,-23.926,9.277,0.000
1737557819.184,0.000,-11.719,0.000,0.000,0.000
1737557819.188,0.000,-12.695,0.000,0.000,0.000
1737557819.192,0.000,-12.695,0.000,0.000,0.000
1737557819.195,0.000,-7.324,0.000,0.000,0.000
1737557819.199,0.000,0.488,0.000,0.000,0.000
1737557819.203,0.000,-1.953,0.000,0.000,0.000
1737557819.207,0.000,-13.672,0.000,0.000,0.000
1737557819.211,0.000,-20.996,0.000,0.000,0.000
1737557819.215,0.000,-13.184,0.000,0.000,0.000
1737557819.219,0.000,-6.348,0.000,0.000,0.000
1737557819.223,0.000,-1.465,0.000,0.000,0.000
1737557819.227,0.000,-3.418,0.000,0.000,0.000
1737557819.231,-25.879,-16.602,-12.207,-0.977,0.000
1737557819.235,-47.363,-22.461,-13.184,-37.109,0.000
1737557819.238,-28.320,-16.113,-14.160,-17.090,0.000
1737557819.242,-6.348,-13.672,-10.254,-2.441,0.000
1737557819.246,-31.250,-19.531,-14.648,-6.348,0.000
1737557819.250,-57.129,-20.508,-13.184,-23.926,0.000
1737557819.254,-36.133,-14.648,-12.207,-53.223,0.000
1737557819.258,-22.949,-15.137,-13.184,-40.039,0.000
1737557819.262,-2.930,-6.348,-13.672,-1.953,0.000
1737557819.266,-7.324,-8.789,-20.996,1.953,0.000
1737557819.270,-36.133,-20.508,-23.926,-24.902,0.000
1737557819.274,-45.898,-20.508,-19.531,-32.227,0.000
1737557819.277,-19.531,-18.555,-19.531,-13.672,0.000
1737557819.281,-16.602,-21.973,-20.996,-7.812,0.000
1737557819.285,-17.090,-31.738,-18.066,2.441,0.000
1737557819.289,-21.973,-31.250,-8.301,1.465,0.000
1737557819.293,-42.969,-18.555,-4.395,-22.461,0.000
1737557819.297,-28.809,-19.043,-13.672,-28.809,0.000
1737557819.301,25.391,-19.043,-18.066,-21.973,0.000
1737557819.305,29.297,-19.531,-17.090,-3.906,0.000
1737557819.309,-20.996,-24.414,-21.484,-2.930,0.000
1737557819.313,-36.133,-19.043,-29.297,-24.902,0.000
1737557819.317,-10.254,-14.648,-20.508,-12.695,0.000
1737557819.320,22.461,-8.789,-10.254,29.297,0.000
1737557819.324,0.000,-1.465,-18.555,17.090,0.000
1737557819.328,0.000,-4.883,-20.996,-25.391,0.000
1737557819.332,0.000,-8.789,-23.438,-20.996,0.000
1737557819.336,0.000,-11.719,-29.785,-1.465,0.000
1737557819.340,0.000,-15.137,-25.879,21.973,0.000
1737557819.344,0.000,-16.602,-21.973,35.645,0.000
1737557819.348,0.000,-10.254,-17.578,5.859,0.000
1737557819.352,0.000,-10.254,-29.785,-11.719,0.000
1737557819.356,0.000,-18.066,-29.785,-28.809,0.000
1737557819.360,0.000,-15.137,-3.418,-36.621,0.000
1737557819.363,0.000,-20.020,6.348,-14.648,0.000
1737557819.367,0.000,-23.438,-2.930,-11.719,0.000
1737557819.371,-41.016,-11.230,0.000,-4.395,0.000
1737557819.375,-9.277,-1.953,0.000,-8.301,0.000
1737557819.379,-15.625,-19.043,0.000,-41.016,0.000
1737557819.383,-8.789,-24.414,0.000,-25.391,0.000
1737557819.387,8.789,-13.184,0.000,6.836,0.000
1737557819.391,9.766,-9.277,0.000,-4.883,0.000
1737557819.395,-20.996,-18.555,0.000,-43.945,0.000
1737557819.399,-28.320,-28.320,0.000,-37.109,0.000
1737557819.402,-13.672,-20.020,0.000,24.902,0.000
1737557819.406,-18.066,-12.695,0.000,14.160,0.000
1737557819.410,-24.414,-15.625,0.000,-43.945,0.000
1737557819.414,-18.066,-7.324,0.000,-18.555,0.000
1737557819.418,-2.441,-6.348,-24.414,-13.184,0.000
1737557819.422,21.973,-12.695,-13.672,-2.930,0.000
1737557819.426,19.043,-16.113,-9.277,10.742,0.000
1737557819.430,-8.789,-26.367,-22.461,-2.441,0.000
1737557819.434,-18.066,-33.203,-33.203,-25.879,0.000
1737557819.438,-17.578,-18.066,-29.297,-41.504,0.000
1737557819.442,1.953,-10.742,-12.207,3.906,0.000
1737557819.445,-0.977,-18.555,8.789,17.578,0.000
1737557819.449,-24.902,-26.367,6.348,-10.742,0.000
1737557819.453,-9.766,-27.344,-13.184,11.719,0.000
1737557819.457,10.742,-19.043,-17.090,-4.883,0.000
1737557819.461,1.953,-21.973,-17.578,-45.410,0.000
1737557819.465,-6.348,-20.508,-21.973,-22.949,0.000
1737557819.469,-19.531,-20.508,-16.113,-15.625,0.000
1737557819.473,-27.344,-20.508,-24.902,-14.648,0.000
1737557819.477,-37.109,-18.555,-28.809,-10.742,0.000
1737557819.481,-41.016,-20.996,-8.301,-27.344,0.000
1737557819.485,-25.879,-24.414,-11.230,-19.043,0.000
1737557819.488,-20.996,-21.973,-16.602,-26.367,0.000
1737557819.492,-39.551,-19.531,-8.301,-30.273,0.000
1737557819.496,-34.668,-20.020,-20.020,-26.855,0.000
1737557819.500,-5.859,-21.484,-12.207,-38.574,0.000
1737557819.504,-12.695,-26.855,-5.859,-20.996,0.000
1737557819.508,-44.434,-30.273,-10.742,-2.441,0.000
1737557819.512,0.000,-27.344,0.000,0.000,0.000
1737557819.516,0.000,-20.996,0.000,0.000,0.000
1737557819.520,0.000,-17.090,0.000,0.000,0.000
1737557819.524,0.000,-18.066,0.000,0.000,0.000
1737557819.528,0.000,-15.137,0.000,0.000,0.000
1737557819.531,0.000,-12.207,0.000,0.000,0.000
1737557819.535,0.000,-18.555,0.000,0.000,0.000
1737557819.539,0.000,-20.508,0.000,0.000,0.000
1737557819.543,0.000,-15.625,0.000,0.000,0.000
1737557819.547,0.000,-8.301,0.000,0.000,0.000
1737557819.551,0.000,-19.043,0.000,0.000,0.000
1737557819.555,0.000,-23.438,0.000,0.000,0.000
1737557819.559,-28.320,-23.926,-12.695,-7.812,0.000
1737557819.563,-40.039,-35.156,-8.301,-25.879,0.000
1737557819.567,-18.066,-18.555,-13.672,-29.297,0.000
1737557819.570,-8.789,-12.207,-25.879,-26.855,0.000
1737557819.574,-25.879,-20.020,-27.344,-22.949,0.000
1737557819.578,-23.438,-17.578,-31.250,-30.762,0.000
1737557819.582,-19.043,-17.578,-19.043,-20.996,0.000
1737557819.586,-9.766,-19.043,-1.465,-5.371,0.000
1737557819.590,-23.438,-21.484,-0.488,-4.395,0.000
1737557819.594,-39.062,-26.367,-8.789,-11.230,0.000
1737557819.598,-17.578,-19.043,-22.949,-26.367,0.000
1737557819.602,-9.766,-13.672,-31.250,-18.066,0.000
1737557819.606,-3.418,-7.324,-22.949,0.000,0.000
1737557819.610,0.000,-6.348,-20.508,-4.883,0.000
1737557819.613,-27.832,-14.648,-17.578,-19.043,0.000
1737557819.617,-24.414,-16.113,-19.531,-28.809,0.000
1737557819.621,-4.395,-15.137,-32.715,-14.160,0.000
1737557819.625,13.184,-11.230,-45.898,-5.371,0.000
1737557819.629,-8.301,-10.742,-30.273,-23.926,0.000
1737557819.633,-35.156,-12.207,1.953,-21.484,0.000
1737557819.637,-35.645,-19.531,8.301,-49.805,0.000
1737557819.641,-28.809,-24.902,-4.395,-36.133,0.000
1737557819.645,-11.230,-31.738,-19.043,-1.953,0.000
1737557819.649,-8.789,-38.086,-16.113,-25.391,0.000
1737557819.653,-6.836,-36.133,-5.859,-45.898,0.000
1737557819.656,-39.551,-37.598,-10.742,-27.344,0.000
1737557819.660,-38.574,-34.668,-11.230,-29.297,0.000
1737557819.664,-14.160,-40.527,-12.695,-31.738,0.000
1737557819.668,-49.316,-41.992,-30.273,-21.484,0.000
1737557819.672,-50.293,-36.133,-36.621,-27.832,0.000
1737557819.676,-10.742,-39.062,-20.020,-21.484,0.000
1737557819.680,-10.742,-36.621,-20.020,-10.742,0.000
1737557819.684,-6.348,-35.156,-11.230,-8.301,0.000
1737557819.688,-16.113,-31.738,3.906,-6.836,0.000
1737557819.692,-32.715,-27.832,0.000,-31.250,0.000
1737557819.695,-16.602,-25.879,-1.465,-35.645,0.000
1737557819.699,0.000,-28.809,0.000,-36.133,0.000
1737557819.703,0.000,-21.973,0.000,-6.348,0.000
1737557819.707,0.000,-23.438,0.000,12.695,0.000
1737557819.711,0.000,-30.273,0.000,-14.160,0.000
1737557819.715,0.000,-27.344,0.000,-24.902,0.000
1737557819.719,0.000,-20.508,0.000,-26.367,0.000
1737557819.723,0.000,-23.926,0.000,-44.434,0.000
1737557819.727,0.000,-23.926,0.000,-22.461,0.000
1737557819.731,0.000,-15.137,0.000,-6.836,0.000
1737557819.735,0.000,-15.137,0.000,-40.527,0.000
1737557819.738,0.000,-23.926,0.000,-29.785,0.000
1737557819.742,0.000,-24.414,0.000,3.418,0.000
1737557819.746,3.906,-18.555,4.883,6.836,0.000
1737557819.750,-20.020,-20.996,-3.418,-3.906,0.000
1737557819.754,-24.902,-21.484,-20.020,6.836,0.000
1737557819.758,-23.438,-13.184,-24.414,-18.066,0.000
1737557819.762,-4.395,-11.719,-22.949,-22.461,0.000
1737557819.766,-11.230,-18.555,-27.832,-19.043,0.000
1737557819.770,-14.160,-20.996,-19.531,-52.246,0.000
1737557819.774,-4.883,-19.531,-5.859,-34.180,0.000
1737557819.778,0.000,-16.602,-10.254,-36.621,0.000
1737557819.781,16.113,-16.113,-27.832,-21.973,0.000
1737557819.785,13.184,-17.090,-23.438,14.160,0.000
1737557819.789,0.000,-18.555,-12.695,4.883,0.000
1737557819.793,-5.859,-19.043,-18.555,-14.160,0.000
1737557819.797,-41.992,-28.320,-20.996,-15.625,0.000
1737557819.801,-21.484,-36.621,-16.113,-4.883,0.000
1737557819.805,9.766,-28.809,-13.672,3.906,0.000
1737557819.809,-6.836,-25.391,-23.926,-21.484,0.000
1737557819.813,-13.672,-20.996,-37.109,-62.500,0.000
1737557819.817,-18.555,-15.625,-23.438,-42.480,0.000
1737557819.821,-1.465,-14.160,1.953,2.930,0.000
1737557819.824,31.250,-16.113,-2.930,5.371,0.000
1737557819.828,-27.344,-21.973,-15.137,-12.695,0.000
1737557819.832,-77.637,-19.531,-16.113,-54.688,0.000
1737557819.836,-38.086,-15.625,-21.973,-48.828,0.000
1737557819.840,-4.395,-12.207,-21.484,2.930,0.000
1737557819.844,10.742,-12.207,-26.367,29.785,0.000
1737557819.848,19.531,-14.160,-30.273,1.465,0.000
1737557819.852,-9.766,-20.020,-44.434,-56.152,0.000
1737557819.856,-21.973,-21.973,-35.645,-46.875,0.000
1737557819.860,-31.250,-32.715,-1.465,-11.230,0.000
1737557819.863,-40.039,-35.645,-4.883,-6.348,0.000
1737557819.867,-40.039,-28.809,-18.555,-27.344,0.000
1737557819.871,-49.316,-22.949,-24.414,-42.969,0.000
1737557819.875,-36.133,-25.391,-30.762,-20.508,0.000
1737557819.879,-8.789,-23.926,-28.809,-32.715,0.000
1737557819.883,7.812,-18.066,-23.438,-21.973,0.000
1737557819.887,-6.836,-19.531,-18.555,7.324,0.000
1737557819.891,-12.695,-18.066,-8.301,-8.789,0.000
1737557819.895,-31.738,-15.625,-6.348,-37.598,0.000
1737557819.899,-23.926,-19.043,-10.742,-19.043,0.000
1737557819.903,0.977,-14.648,-15.625,0.977,0.000
1737557819.906,-17.578,-12.207,-29.785,-22.461,0.000
1737557819.910,-33.691,-21.484,-29.785,-38.086,0.000
1737557819.914,-16.602,-14.160,-22.949,-49.316,0.000
1737557819.918,-11.230,-10.254,-37.109,-23.438,0.000
1737557819.922,-1.953,-11.230,-41.016,-0.488,0.000
1737557819.926,-4.883,-19.043,-23.438,0.000,0.000
1737557819.930,-34.668,-23.926,-19.531,-15.137,0.000
1737557819.934,-29.297,-20.996,-19.043,-37.598,0.000
1737557819.938,-25.391,-25.391,-22.949,-57.617,0.000
1737557819.942,-11.719,-21.484,-21.973,-32.715,0.000
1737557819.946,-13.184,-18.066,-12.207,-7.812,0.000
1737557819.949,-52.246,-24.902,-14.160,-45.898,0.000
1737557819.953,-53.223,-21.484,-16.113,-47.363,0.000
1737557819.957,-36.621,-10.254,-16.113,-20.508,0.000
1737557819.961,-20.996,-9.766,-29.297,-17.578,0.000
1737557819.965,-17.578,-12.207,-37.109,-10.742,0.000
1737557819.969,-31.738,-22.461,-29.297,-12.695,0.000
1737557819.973,-41.016,-25.391,-19.531,-24.414,0.000
1737557819.977,-34.180,-23.926,-14.648,-33.691,0.000
1737557819.981,-13.672,-21.484,-29.785,-15.137,0.000
1737557819.985,-2.441,-25.879,-35.645,-7.324,0.000
1737557819.989,-24.902,-33.203,-23.926,-52.246,0.000
1737557819.992,-25.391,-29.297,-21.484,-62.988,0.000
1737557819.996,-19.531,-24.414,-25.879,-43.457,0.000
1737557820.000,-47.363,-20.020,-35.645,-31.250,0.000
1737557820.004,-43.945,-25.391,-36.133,-34.668,0.000
1737557820.008,-27.832,-27.344,-16.113,-21.484,0.000
1737557820.012,-25.391,-13.672,-16.113,-30.762,0.000
1737557820.016,-18.555,-14.160,-31.738,-43.457,0.000
1737557820.020,-19.531,-22.461,-34.180,-11.230,0.000
1737557820.024,-28.320,-24.902,-31.738,1.953,0.000
1737557820.028,-20.020,-21.484,-20.996,-6.348,0.000
1737557820.031,-25.879,-16.602,-21.484,-32.227,0.000
1737557820.035,-25.879,-17.090,-20.020,-44.922,0.000
1737557820.039,-15.625,-19.043,-12.207,-30.273,0.000
1737557820.043,-18.555,-24.902,-10.742,-20.020,0.000
1737557820.047,-9.766,-25.879,-11.719,-22.949,0.000
1737557820.051,-16.113,-14.160,-23.438,-29.297,0.000
1737557820.055,-13.184,-12.207,-29.785,-34.668,0.000
1737557820.059,0.000,-10.742,-29.785,-32.227,0.000
1737557820.063,0.488,-6.836,-28.809,-14.648,0.000
1737557820.067,-12.207,-14.160,-23.926,-8.301,0.000
1737557820.071,-38.086,-18.555,-21.484,-19.043,0.000
1737557820.074,-24.902,-13.672,-26.855,-33.203,0.000
1737557820.078,-19.043,-12.695,-34.668,-23.438,0.000
1737557820.082,-34.180,-13.184,-29.297,-17.578,0.000
1737557820.086,-64.941,-12.207,-28.320,-39.062,0.000
1737557820.090,-64.941,-6.348,-32.227,-55.176,0.000
1737557820.094,-42.480,-1.953,-33.203,-49.805,0.000
1737557820.098,-41.504,-0.488,-34.180,-55.176,0.000
1737557820.102,-35.645,0.488,-33.203,-38.086,0.000
1737557820.106,-33.691,-1.953,-34.668,-14.648,0.000
1737557820.110,-28.320,0.000,-37.598,-30.273,0.000
1737557820.114,-41.992,0.000,-44.434,-60.059,0.000
1737557820.117,-37.109,-1.953,-41.992,-62.500,0.000
1737557820.121,-14.160,-3.418,0.000,-46.875,0.000
1737557820.125,-27.344,-13.672,0.000,-26.367,0.000
1737557820.129,-35.645,-9.766,0.000,-23.926,0.000
1737557820.133,-13.672,-11.719,0.000,-20.020,0.000
1737557820.137,-19.531,-9.766,0.000,-17.090,0.000
1737557820.141,-20.508,-0.488,0.000,-9.766,0.000
1737557820.145,-3.906,-11.719,0.000,8.789,0.000
1737557820.149,-38.574,-23.438,0.000,-27.832,0.000
1737557820.153,-40.527,-20.508,0.000,-65.430,0.000
1737557820.156,-9.277,-11.719,0.000,-51.758,0.000
1737557820.160,-20.996,-9.277,0.000,-15.137,0.000
1737557820.164,-26.855,-11.230,0.000,9.277,0.000
1737557820.168,-26.855,-18.555,-23.438,13.184,0.000
1737557820.172,-23.438,-19.531,-21.484,-35.645,0.000
1737557820.176,-20.020,-9.277,-20.508,-55.664,0.000
1737557820.180,0.977,-11.230,-25.879,-3.418,0.000
1737557820.184,26.367,-12.207,-9.277,17.090,0.000
1737557820.188,-17.578,-11.719,2.441,-21.484,0.000
1737557820.192,-56.641,-24.902,-11.719,-96.680,0.000
1737557820.196,-37.109,-27.832,-23.926,-83.008,0.000
1737557820.199,0.977,-16.113,-23.438,-9.277,0.000
1737557820.203,23.438,-17.090,-22.949,36.621,0.000
1737557820.207,16.602,-15.137,-26.367,23.926,0.000
1737557820.211,-45.898,-8.789,-31.250,-27.344,0.000
1737557820.215,-66.406,-1.953,-31.738,-42.969,0.000
1737557820.219,-31.738,0.977,-15.137,-15.137,0.000
1737557820.223,-9.277,-3.418,-5.859,4.395,0.000
1737557820.227,-12.695,-2.930,-3.418,-16.113,0.000
1737557820.231,-29.785,-2.441,-7.324,-41.016,0.000
1737557820.235,-25.391,-4.395,-16.113,-33.203,0.000
1737557820.239,6.836,-14.160,-23.438,-17.090,0.000
1737557820.242,28.320,-14.648,-32.715,8.789,0.000
1737557820.246,6.836,-4.395,-41.504,18.555,0.000
1737557820.250,-44.434,-11.719,-38.574,-14.648,0.000
1737557820.254,-48.340,-26.367,-19.531,-48.340,0.000
1737557820.258,-47.852,-18.555,-15.625,-30.273,0.000
1737557820.262,-14.160,-9.766,-12.695,-9.766,0.000
1737557820.266,30.273,-10.254,-6.836,-16.602,0.000
1737557820.270,-38.574,-14.648,-12.695,-47.852,0.000
1737557820.274,-74.219,-19.043,-20.020,-38.086,0.000
1737557820.278,-30.273,-23.926,-28.809,-9.766,0.000
1737557820.281,-7.812,-22.461,-29.297,-4.883,0.000
1737557820.285,-38.086,-21.973,-18.066,6.348,0.000
1737557820.289,-59.570,-29.785,3.418,-18.555,0.000
1737557820.293,-51.270,-26.855,-0.488,-63.477,0.000
1737557820.297,-28.809,-21.973,-28.320,-39.062,0.000
1737557820.301,-6.348,-19.043,-25.391,10.742,0.000
1737557820.305,-4.883,-24.414,3.906,-15.137,0.000
1737557820.309,-32.715,-30.762,7.324,-68.359,0.000
1737557820.313,-47.363,-20.996,-2.441,-63.965,0.000
1737557820.317,-26.855,-9.277,-11.230,-36.621,0.000
1737557820.321,4.883,-14.648,-17.090,-15.137,0.000
1737557820.324,3.906,-23.438,-12.695,-1.465,0.000
1737557820.328,-34.180,-20.996,-8.789,-23.926,0.000
1737557820.332,-49.805,-13.672,-12.695,-31.250,0.000
1737557820.336,-21.484,-13.672,-32.227,-41.992,0.000
1737557820.340,5.371,-14.160,-33.691,-9.277,0.000
1737557820.344,9.277,-17.090,-12.207,17.578,0.000
1737557820.348,-27.344,-27.344,-4.883,-11.719,0.000
1737557820.352,-77.637,-32.227,1.465,-16.113,0.000
1737557820.356,-55.664,-18.555,-1.953,-6.348,0.000
1737557820.360,6.348,-17.578,-23.926,-16.602,0.000
1737557820.364,18.555,-26.855,-32.715,-7.324,0.000
1737557820.367,-20.020,-21.484,-23.926,-11.230,0.000
1737557820.371,-57.617,-14.160,-23.438,-30.273,0.000
1737557820.375,-32.227,-14.160,-27.832,-36.133,0.000
1737557820.379,12.207,-16.602,-23.438,-22.949,0.000
1737557820.383,34.668,-17.578,-11.719,8.789,0.000
1737557820.387,9.766,-17.090,-8.301,9.766,0.000
1737557820.391,-1.953,-21.484,-30.273,-41.504,0.000
1737557820.395,-7.812,-20.508,-49.805,-75.684,0.000
1737557820.399,-37.598,-13.184,-43.945,-21.484,0.000
1737557820.403,0.000,-17.090,-21.973,55.664,0.000
1737557820.407,0.000,-27.344,-2.930,30.762,0.000
1737557820.410,0.000,-20.508,0.977,-40.527,0.000
1737557820.414,0.000,-8.789,-6.348,-41.992,0.000
1737557820.418,0.000,-7.324,-23.926,-9.277,0.000
1737557820.422,0.000,-5.859,-24.414,19.043,0.000
1737557820.426,0.000,-8.789,-16.602,-14.160,0.000
1737557820.430,0.000,-15.137,-19.531,-50.293,0.000
1737557820.434,0.000,-17.578,-25.391,-41.504,0.000
1737557820.438,0.000,-17.090,-18.555,-19.043,0.000
1737557820.442,0.000,-10.254,-16.113,14.648,0.000
1737557820.446,0.000,-9.277,-25.879,8.789,0.000
1737557820.449,-54.199,-20.020,-25.879,-30.762,0.000
1737557820.453,-58.105,-19.043,-21.973,-45.410,0.000
1737557820.457,-23.926,-14.648,-23.438,-40.039,0.000
1737557820.461,10.742,-11.719,-33.203,-21.484,0.000
1737557820.465,-3.418,-17.578,-37.109,-13.184,0.000
1737557820.469,-32.715,-20.020,-31.250,-33.691,0.000
1737557820.473,-37.109,-18.555,-19.043,-22.461,0.000
1737557820.477,-19.043,-18.066,-11.719,-15.625,0.000
1737557820.481,7.812,-20.020,-10.254,-0.488,0.000
1737557820.485,4.395,-28.809,-8.789,-4.883,0.000
1737557820.489,-33.691,-24.902,-11.230,-48.340,0.000
1737557820.492,-45.898,-17.090,-24.414,-42.969,0.000
1737557820.496,-19.531,-25.391,-30.762,-13.184,0.000
1737557820.500,-11.719,-26.855,-17.578,9.277,0.000
1737557820.504,10.254,-13.672,-22.949,27.832,0.000
1737557820.508,-10.254,-14.648,-44.434,13.184,0.000
1737557820.512,-46.875,-27.344,-25.391,-33.691,0.000
1737557820.516,-30.762,-22.461,3.418,-44.434,0.000
1737557820.520,-14.160,-20.996,-2.441,-29.785,0.000
1737557820.524,10.254,-22.949,-8.301,1.953,0.000
1737557820.528,-4.395,-21.973,-7.324,39.551,0.000
1737557820.532,-33.203,-23.438,-21.484,-14.648,0.000
1737557820.535,-34.180,-19.043,-27.344,-63.477,0.000
1737557820.539,27.832,-18.066,-30.273,-13.184,0.000
1737557820.543,28.809,-26.855,-37.109,15.137,0.000
1737557820.547,-27.832,-23.438,-27.832,-13.672,0.000
1737557820.551,-49.805,-16.113,-16.113,-70.801,0.000
1737557820.555,-47.852,-16.602,-16.113,-73.242,0.000
1737557820.559,-8.301,-12.695,-7.812,-9.277,0.000
1737557820.563,27.832,-7.812,-16.113,24.902,0.000
1737557820.567,7.812,-11.230,-24.414,-24.902,0.000
1737557820.571,-21.484,-15.137,-12.207,-47.363,0.000
1737557820.574,-21.484,-20.996,-20.508,-33.203,0.000
1737557820.578,-25.879,-22.949,-35.156,-16.113,0.000
1737557820.582,-3.906,-16.602,-27.832,6.348,0.000
1737557820.586,2.441,-15.137,-15.137,2.930,0.000
1737557820.590,-39.062,-23.438,-14.160,-28.320,0.000
1737557820.594,-60.059,-28.320,-17.090,-37.598,0.000
1737557820.598,-35.156,-20.020,-20.020,-26.855,0.000
1737557820.602,0.977,-13.672,-18.555,-14.160,0.000
1737557820.606,13.672,-17.090,-14.160,-2.441,0.000
1737557820.610,-32.227,-18.555,-7.324,-20.020,0.000
1737557820.614,-48.340,-17.578,-10.742,-39.062,0.000
1737557820.617,0.000,-23.926,-20.020,-20.020,0.000
1737557820.621,27.832,-30.273,-34.180,-11.230,0.000
1737557820.625,-33.691,-33.203,-53.711,-19.531,0.000
1737557820.629,-78.125,-35.156,-42.480,-17.090,0.000
1737557820.633,-46.875,-37.598,-7.812,-2.441,0.000
1737557820.637,-18.066,-31.250,6.836,-3.906,0.000
1737557820.641,4.883,-18.066,-6.348,10.254,0.000
1737557820.645,19.043,-13.672,-20.996,33.203,0.000
1737557820.649,-15.137,-26.367,-23.438,-1.953,0.000
1737557820.653,-27.832,-31.250,-27.344,-49.805,0.000
1737557820.657,-13.184,-23.438,-19.043,-43.945,0.000
1737557820.660,-16.602,-31.250,-4.395,-4.883,0.000
1737557820.664,-7.324,-37.109,-4.883,16.113,0.000
1737557820.668,-37.598,-34.668,-29.297,10.254,0.000
1737557820.672,-64.453,-27.832,-41.016,-23.438,0.000
1737557820.676,-56.152,-22.461,-28.809,-76.660,0.000
1737557820.680,-16.113,-24.414,-20.508,-42.480,0.000
1737557820.684,26.855,-20.996,-26.855,-1.465,0.000
1737557820.688,-0.977,-28.320,-28.320,1.465,0.000
1737557820.692,-49.316,-34.180,-7.812,-1.465,0.000
1737557820.696,-56.641,-30.273,-0.488,-2.930,0.000
1737557820.699,-24.902,-20.508,-15.625,7.324,0.000
1737557820.703,5.859,-18.066,-18.066,-8.789,0.000
1737557820.707,-1.465,-23.926,-11.230,-41.016,0.000
1737557820.711,-33.691,-24.414,-20.020,-47.852,0.000
1737557820.715,-41.992,-22.461,-14.160,-62.012,0.000
1737557820.719,-20.996,-23.438,-3.906,-15.625,0.000
1737557820.723,30.762,-12.207,-22.461,62.988,0.000
1737557820.727,12.695,-1.953,-23.438,24.902,0.000
1737557820.731,-50.781,-18.066,-3.418,-23.438,0.000
1737557820.735,-48.828,-14.160,-7.812,-52.734,0.000
1737557820.739,-35.645,-14.160,-14.648,-27.832,0.000
1737557820.742,12.695,-20.996,-14.648,33.203,0.000
1737557820.746,30.273,-22.949,-15.137,14.648,0.000
1737557820.750,-32.227,-18.066,-14.648,-48.340,0.000
1737557820.754,-52.734,-14.648,-20.508,-60.059,0.000
1737557820.758,-3.418,-20.508,-22.949,-35.156,0.000
1737557820.762,6.348,-18.555,-30.762,-12.695,0.000
1737557820.766,-15.137,-24.902,-30.762,-2.441,0.000
1737557820.770,-41.504,-20.996,-26.367,-33.203,0.000
1737557820.774,-58.105,-13.184,-28.809,-55.664,0.000
1737557820.778,-27.832,-10.254,-19.043,-26.367,0.000
1737557820.782,21.484,-11.230,6.348,38.086,0.000
1737557820.785,28.320,-15.137,10.254,16.113,0.000
1737557820.789,-59.570,-21.484,-16.113,-65.430,0.000
1737557820.793,-84.473,-30.273,-20.996,-70.312,0.000
1737557820.797,-26.367,-26.367,-13.672,-58.594,0.000
1737557820.801,-6.348,-23.438,-27.344,-21.484,0.000
1737557820.805,-2.930,-23.926,-32.227,6.836,0.000
1737557820.809,-29.785,-20.020,-23.438,-27.344,0.000
1737557820.813,-63.477,-24.902,-19.043,-65.430,0.000
1737557820.817,-42.480,-24.902,-15.137,-75.195,0.000
1737557820.821,-3.418,-20.508,-12.207,-24.902,0.000
1737557820.824,-0.977,-21.484,-12.695,18.066,0.000
1737557820.828,-35.156,-26.367,-20.996,-0.488,0.000
1737557820.832,-56.641,-23.438,-30.762,-39.551,0.000
1737557820.836,-26.855,-22.461,-23.438,-36.621,0.000
1737557820.840,4.395,-28.809,-15.137,-12.207,0.000
1737557820.844,13.184,-29.297,-18.555,7.812,0.000
1737557820.848,-41.504,-30.273,-8.789,-1.465,0.000
1737557820.852,-83.984,-30.273,-5.859,-58.105,0.000
1737557820.856,-49.805,-28.320,-18.066,-57.617,0.000
1737557820.860,-13.672,-25.879,-29.297,-4.395,0.000
1737557820.864,-21.973,-24.414,-23.926,16.113,0.000
1737557820.867,-38.086,-21.484,-11.719,-13.672,0.000
1737557820.871,-40.039,-20.508,-10.742,-47.363,0.000
1737557820.875,-20.020,-20.996,-23.926,-54.199,0.000
1737557820.879,-1.465,-16.113,-32.227,-18.066,0.000
1737557820.883,8.789,-18.555,-28.809,3.906,0.000
1737557820.887,-11.230,-21.973,-18.066,0.977,0.000
1737557820.891,-51.270,-28.809,-11.719,-30.273,0.000
1737557820.895,-50.781,-38.574,-8.789,-56.152,0.000
1737557820.899,-11.719,-29.297,-9.766,-5.371,0.000
1737557820.903,-6.836,-25.879,-13.672,42.969,0.000
1737557820.907,-19.043,-26.855,-8.301,22.949,0.000
1737557820.910,-53.711,-18.066,-10.254,-27.344,0.000
1737557820.914,-53.711,-16.113,-22.461,-51.270,0.000
1737557820.918,-4.883,-16.113,-23.926,-30.762,0.000
1737557820.922,27.832,-12.207,-13.672,1.953,0.000
1737557820.926,19.043,-7.812,-16.113,4.883,0.000
1737557820.930,-30.273,-5.859,-24.414,-45.410,0.000
1737557820.934,-53.223,-14.160,-22.949,-75.195,0.000
1737557820.938,-29.785,-26.367,-16.113,-37.109,0.000
1737557820.942,-16.113,-38.086,-16.602,20.508,0.000
1737557820.946,-20.508,-41.992,-8.301,14.160,0.000
1737557820.949,-38.574,-25.879,-24.414,-27.832,0.000
1737557820.953,-31.738,-19.531,-51.270,-17.090,0.000
1737557820.957,-5.371,-21.973,-29.785,-16.602,0.000
1737557820.961,21.484,-12.695,-1.953,0.977,0.000
1737557820.965,6.836,-13.184,7.812,21.484,0.000
1737557820.969,-52.246,-18.555,-7.324,-33.691,0.000
1737557820.973,-58.105,-23.438,-17.578,-46.387,0.000
1737557820.977,-25.391,-18.555,-13.184,-20.996,0.000
1737557820.981,-6.348,-15.625,-18.555,0.977,0.000
1737557820.985,-0.488,-15.625,-21.973,19.043,0.000
1737557820.989,0.488,-12.207,-23.438,4.395,0.000
1737557820.992,-18.066,-17.578,-20.020,-20.020,0.000
1737557820.996,-9.766,-14.648,-17.090,-21.973,0.000
1737557821.000,20.508,-10.254,-10.742,-7.812,0.000
1737557821.004,17.090,-16.113,-2.441,16.113,0.000
1737557821.008,-22.949,-10.742,-8.301,-0.977,0.000
1737557821.012,-38.086,1.953,-7.812,-60.547,0.000
1737557821.016,-32.227,8.301,7.324,-43.457,0.000
1737557821.020,-0.488,24.414,3.418,6.348,0.000
1737557821.024,3.906,21.484,-9.766,2.930,0.000
1737557821.028,-32.715,15.137,-26.367,-41.504,0.000
1737557821.032,-69.824,22.949,17.090,-83.496,0.000
1737557821.035,-71.777,41.992,105.957,-71.289,0.000
1737557821.039,-31.250,66.895,53.223,-29.785,0.000
1737557821.043,-49.316,55.176,-20.020,-56.152,0.000
1737557821.047,-117.188,51.758,-18.066,-135.742,0.000
1737557821.051,-154.785,58.105,-8.301,-194.824,0.000
1737557821.055,-175.293,83.008,22.949,-258.789,0.000
1737557821.059,-211.914,110.352,35.645,-286.621,0.000
1737557821.063,-192.871,115.723,44.434,-207.031,0.000
1737557821.067,-233.398,88.867,26.367,-237.305,0.000
1737557821.071,-274.902,66.406,34.668,-302.246,0.000
1737557821.075,-267.578,75.195,165.527,-293.457,0.000
1737557821.078,-260.254,83.496,355.469,-277.344,0.000
1737557821.082,-246.094,81.055,661.621,-220.703,0.000
1737557821.086,-219.727,63.965,936.035,-223.633,0.000
1737557821.090,-210.938,67.871,974.609,-299.316,0.000
1737557821.094,-244.629,83.496,962.891,-303.711,0.000
1737557821.098,-240.234,86.426,972.656,-264.648,0.000
1737557821.102,-160.156,94.238,970.703,-235.840,0.000
1737557821.106,-191.406,85.938,970.703,-297.363,0.000
1737557821.110,-263.672,69.336,970.703,-327.148,0.000
1737557821.114,-185.059,66.406,970.703,-238.770,0.000
1737557821.117,-190.430,67.383,970.703,-200.684,0.000
1737557821.121,-200.684,85.449,970.703,-173.340,0.000
1737557821.125,-136.719,97.168,970.703,-145.996,0.000
1737557821.129,-132.324,103.027,970.703,-188.965,0.000
1737557821.133,-144.531,104.004,970.703,-200.195,0.000
1737557821.137,-103.027,85.449,971.680,-145.508,0.000
1737557821.141,-44.922,71.777,967.285,-81.543,0.000
1737557821.145,-2.930,45.898,970.215,-43.945,0.000
1737557821.149,-24.414,20.020,967.773,-43.457,0.000
1737557821.153,-54.688,40.527,832.520,-78.613,0.000
1737557821.157,-5.371,41.992,670.898,-39.551,0.000
1737557821.160,33.691,28.809,581.055,29.785,0.000
1737557821.164,19.531,27.344,465.820,36.621,0.000
1737557821.168,-4.395,7.812,340.332,48.828,0.000
1737557821.172,8.301,-12.207,247.070,15.137,0.000
1737557821.176,44.922,-6.348,173.340,-11.719,0.000
1737557821.180,99.121,2.441,115.234,63.477,0.000
1737557821.184,116.211,-10.742,62.988,111.816,0.000
1737557821.188,73.730,-29.297,0.977,81.055,0.000
1737557821.192,39.551,-19.043,-70.312,68.848,0.000
1737557821.196,73.242,-7.324,-111.816,51.270,0.000
1737557821.200,0.000,-30.273,-104.492,69.824,0.000
1737557821.203,0.000,-46.387,-120.117,122.559,0.000
1737557821.207,0.000,-35.156,-167.969,113.770,0.000
1737557821.211,0.000,-25.879,-195.312,65.918,0.000
1737557821.215,0.000,-29.297,-196.289,49.805,0.000
1737557821.219,0.000,-37.109,-192.871,77.637,0.000
1737557821.223,0.000,-41.992,-187.500,87.891,0.000
1737557821.227,0.000,-52.734,-209.473,87.891,0.000
1737557821.231,0.000,-56.641,-238.770,71.777,0.000
1737557821.235,0.000,-36.621,-245.117,35.156,0.000
1737557821.239,0.000,-22.461,-253.418,71.289,0.000
1737557821.242,0.000,-37.598,-277.344,111.328,0.000
1737557821.246,71.777,-47.363,-291.016,71.777,0.000
1737557821.250,46.387,-37.109,-278.809,35.156,0.000
1737557821.254,4.395,-41.504,-261.719,20.996,0.000
1737557821.258,9.766,-41.504,-250.000,45.898,0.000
1737557821.262,56.641,-30.762,-242.188,95.215,0.000
1737557821.266,53.223,-37.598,-256.348,91.797,0.000
1737557821.270,9.277,-46.875,-286.133,46.875,0.000
1737557821.274,-22.949,-40.039,-272.461,25.879,0.000
1737557821.278,-3.906,-46.387,-257.324,41.016,0.000
1737557821.282,23.438,-53.711,-252.930,70.801,0.000
1737557821.285,22.949,-36.621,-250.977,45.410,0.000
1737557821.289,0.977,-34.180,-262.207,-2.441,0.000
1737557821.293,-3.906,-36.621,-256.836,-1.953,0.000
1737557821.297,48.340,-36.621,-243.652,26.855,0.000
1737557821.301,17.578,-37.109,-243.164,41.016,0.000
1737557821.305,-11.719,-31.738,-249.512,29.785,0.000
1737557821.309,-4.883,-32.227,-250.977,5.371,0.000
1737557821.313,-17.578,-34.668,-233.398,3.906,0.000
1737557821.317,-15.625,-30.762,-212.891,24.902,0.000
1737557821.321,17.090,-26.367,-212.402,59.082,0.000
1737557821.325,32.715,-25.391,-205.566,62.500,0.000
1737557821.328,4.395,-32.715,-197.266,18.066,0.000
1737557821.332,-38.086,-33.203,-199.707,-27.832,0.000
1737557821.336,-32.227,-27.344,-196.777,-25.879,0.000
1737557821.340,12.695,-31.250,-195.312,22.949,0.000
1737557821.344,17.090,-37.109,-211.914,22.949,0.000
1737557821.348,-12.695,-41.504,-217.285,24.902,0.000
1737557821.352,-38.086,-41.992,-183.594,15.625,0.000
1737557821.356,-29.297,-31.250,-170.898,-26.855,0.000
1737557821.360,-5.859,-21.973,-172.363,24.902,0.000
1737557821.364,-15.137,-31.250,-159.180,62.500,0.000
1737557821.367,-5.371,-31.738,-152.832,18.555,0.000
1737557821.371,-21.973,-26.367,-171.875,-18.555,0.000
1737557821.375,-10.254,-27.344,-174.805,-11.230,0.000
1737557821.379,41.992,-25.391,-153.320,-5.371,0.000
1737557821.383,37.109,-31.738,-139.160,14.160,0.000
1737557821.387,-19.043,-33.691,-146.484,-3.906,0.000
1737557821.391,-84.473,-32.715,-163.086,-74.219,0.000
1737557821.395,-59.082,-23.926,-155.762,-57.617,0.000
1737557821.399,-2.441,-8.789,-143.555,20.508,0.000
1737557821.403,10.742,-2.930,-139.648,49.316,0.000
1737557821.407,-32.715,-17.090,-141.113,5.859,0.000
1737557821.410,-49.805,-29.785,-143.066,-35.645,0.000
1737557821.414,-13.184,-31.250,-141.113,-24.902,0.000
1737557821.418,-14.160,-26.855,-143.066,-7.812,0.000
1737557821.422,13.184,-9.766,-118.652,27.344,0.000
1737557821.426,14.648,-10.254,-102.051,21.484,0.000
1737557821.430,-48.828,-21.484,-111.328,-52.246,0.000
1737557821.434,-71.777,-27.344,-116.699,-45.410,0.000
1737557821.438,-33.203,-32.227,-110.840,-11.719,0.000
1737557821.442,8.789,-24.902,-103.027,19.531,0.000
1737557821.446,-3.418,-28.320,-106.445,25.391,0.000
1737557821.450,-38.574,-34.180,-125.488,-25.391,0.000
1737557821.453,-39.062,-21.484,-118.164,-25.391,0.000
1737557821.457,-19.043,-16.602,-98.633,-10.254,0.000
1737557821.461,24.902,-17.578,-91.797,13.672,0.000
1737557821.465,-0.977,-13.184,-85.449,9.766,0.000
1737557821.469,-50.293,-20.996,-89.844,-26.855,0.000
1737557821.473,-43.457,-30.273,-98.145,-31.738,0.000
1737557821.477,-36.133,-20.020,-94.727,-14.160,0.000
1737557821.481,-4.395,-15.625,-89.844,-5.859,0.000
1737557821.485,-1.465,-21.484,-80.566,-29.297,0.000
1737557821.489,-44.434,-20.508,-71.777,-34.180,0.000
1737557821.493,-70.312,-25.879,-73.242,-21.484,0.000
1737557821.496,-49.805,-24.902,-72.754,-14.648,0.000
1737557821.500,-2.441,-18.555,-73.730,-4.395,0.000
1737557821.504,0.000,-19.043,-78.613,13.184,0.000
1737557821.508,-26.855,-27.832,-79.590,-7.324,0.000
1737557821.512,-65.918,-25.879,-79.590,-40.527,0.000
1737557821.516,-49.805,-12.695,-71.777,-29.297,0.000
1737557821.520,18.066,-10.742,-65.918,10.254,0.000
1737557821.524,35.645,-14.160,-73.730,30.762,0.000
1737557821.528,0.000,-18.555,0.000,1.465,0.000
1737557821.532,0.000,-22.949,0.000,-45.410,0.000
1737557821.535,0.000,-21.973,0.000,-37.109,0.000
1737557821.539,0.000,-19.531,0.000,16.602,0.000
1737557821.543,0.000,-18.066,0.000,26.855,0.000
1737557821.547,0.000,-25.391,0.000,8.789,0.000
1737557821.551,0.000,-25.391,0.000,-27.344,0.000
1737557821.555,0.000,-16.602,0.000,-72.754,0.000
1737557821.559,0.000,-22.461,0.000,-53.223,0.000
1737557821.563,0.000,-42.969,0.000,6.836,0.000
1737557821.567,0.000,-41.016,0.000,0.977,0.000
1737557821.571,0.000,-20.508,0.000,-41.504,0.000
1737557821.575,-73.242,-13.672,-62.988,-53.711,0.000
1737557821.578,-54.688,-16.113,-65.430,-43.945,0.000
1737557821.582,-16.113,-15.137,-64.941,-12.695,0.000
1737557821.586,-22.949,-14.648,-63.965,-38.574,0.000
1737557821.590,-61.523,-15.625,-61.523,-48.828,0.000
1737557821.594,-29.785,-20.020,-58.594,-19.043,0.000
1737557821.598,-30.273,-36.621,-56.641,-13.672,0.000
1737557821.602,-17.578,-34.180,-52.734,-6.836,0.000
1737557821.606,-21.484,-25.391,-54.688,-8.301,0.000
1737557821.610,-48.828,-17.090,-53.223,-30.273,0.000
1737557821.614,-32.715,-5.371,-45.898,-35.645,0.000
1737557821.618,-18.066,-5.371,-41.992,-35.156,0.000
1737557821.621,-6.836,-7.812,-41.504,-7.324,0.000
1737557821.625,-24.414,-9.277,-44.434,3.906,0.000
1737557821.629,-45.410,-20.996,-42.480,-22.461,0.000
1737557821.633,-45.898,-22.949,-41.504,-37.598,0.000
1737557821.637,-21.484,-12.207,-46.875,-32.715,0.000
1737557821.641,25.391,-5.371,-42.969,-2.930,0.000
1737557821.645,19.531,-2.930,-35.645,28.320,0.000
1737557821.649,-25.391,-15.625,-39.551,8.301,0.000
1737557821.653,-47.363,-23.926,-37.598,-45.898,0.000
1737557821.657,-30.273,-15.137,-32.715,-39.062,0.000
1737557821.660,4.395,-20.020,-33.691,15.137,0.000
1737557821.664,-22.461,-21.484,-31.250,15.137,0.000
1737557821.668,-68.848,-11.230,-31.738,-43.457,0.000
1737557821.672,-39.551,-8.789,-36.621,-73.242,0.000
1737557821.676,-1.465,-4.883,-39.551,-68.359,0.000
1737557821.680,9.766,0.000,-41.016,-26.855,0.000
1737557821.684,-5.859,-2.930,-37.598,6.836,0.000
1737557821.688,-31.738,-4.395,-38.574,-16.602,0.000
1737557821.692,-32.227,-3.418,-50.781,-21.484,0.000
1737557821.696,-45.410,-15.625,-59.570,-25.391,0.000
1737557821.700,-31.250,-22.949,-51.758,6.348,0.000
1737557821.703,19.043,-18.555,-41.992,25.879,0.000
1737557821.707,11.230,-24.414,-38.574,-11.719,0.000
1737557821.711,-48.340,-31.250,-48.828,-27.344,0.000
1737557821.715,-55.664,-28.809,-57.129,-64.941,0.000
1737557821.719,-33.203,-41.504,-33.691,-36.621,0.000
1737557821.723,-16.602,-54.688,-17.578,9.766,0.000
1737557821.727,-34.668,-57.617,-25.391,-6.836,0.000
1737557821.731,-54.688,-64.453,-19.531,-35.645,0.000
1737557821.735,-47.363,-70.801,-4.883,-36.133,0.000
1737557821.739,-26.367,-77.637,-1.465,5.371,0.000
1737557821.743,3.906,-83.008,-1.953,54.688,0.000
1737557821.746,-19.043,-89.844,-6.348,54.199,0.000
1737557821.750,-72.754,-101.074,-3.418,-35.645,0.000
1737557821.754,-60.059,-106.934,10.254,-59.570,0.000
1737557821.758,-14.160,-108.398,20.996,21.973,0.000
1737557821.762,0.000,-108.398,0.000,0.000,0.000
1737557821.766,0.000,-111.816,0.000,0.000,0.000
1737557821.770,0.000,-115.234,0.000,0.000,0.000
1737557821.774,0.000,-113.281,0.000,0.000,0.000
1737557821.778,0.000,-107.422,0.000,0.000,0.000
1737557821.782,0.000,-105.469,0.000,0.000,0.000
1737557821.786,0.000,-101.074,0.000,0.000,0.000
1737557821.789,0.000,-98.145,0.000,0.000,0.000
1737557821.793,0.000,-100.098,0.000,0.000,0.000
1737557821.797,0.000,-94.727,0.000,0.000,0.000
1737557821.801,0.000,-86.914,0.000,0.000,0.000
1737557821.805,0.000,-81.055,0.000,0.000,0.000
1737557821.809,-22.949,-74.219,-5.859,-19.043,0.000
1737557821.813,-17.578,-76.660,5.859,-6.348,0.000
1737557821.817,12.207,-81.055,5.859,55.176,0.000
1737557821.821,13.672,-69.336,-0.977,83.496,0.000
1737557821.825,-4.395,-56.641,-14.648,51.758,0.000
1737557821.828,-17.090,-60.059,-12.695,13.672,0.000
1737557821.832,-25.391,-65.430,-6.348,-5.859,0.000
1737557821.836,-8.301,-65.430,-13.184,9.277,0.000
1737557821.840,26.855,-61.523,-23.926,49.805,0.000
1737557821.844,20.508,-55.664,-8.301,49.316,0.000
1737557821.848,-5.371,-49.316,9.766,33.691,0.000
1737557821.852,-13.184,-39.551,0.488,-0.488,0.000
1737557821.856,-13.184,-36.133,-7.324,0.000,0.000
1737557821.860,8.789,-28.809,-8.789,0.000,0.000
1737557821.864,18.066,-28.809,-11.230,0.000,0.000
1737557821.868,-20.020,-34.180,-12.695,0.000,0.000
1737557821.871,-53.223,-39.551,-19.043,0.000,0.000
1737557821.875,5.371,-35.645,-18.555,0.000,0.000
1737557821.879,40.039,-20.020,-15.137,0.000,0.000
1737557821.883,-3.418,-24.414,-13.184,0.000,0.000
1737557821.887,-22.949,-35.156,-17.578,0.000,0.000
1737557821.891,-24.414,-30.762,-32.227,0.000,0.000
1737557821.895,-24.902,-29.297,-27.832,0.000,0.000
1737557821.899,7.812,-33.203,-21.973,0.000,0.000
1737557821.903,10.254,-22.949,-24.414,3.418,0.000
1737557821.907,-28.320,-23.926,-12.207,15.625,0.000
1737557821.911,-36.621,-29.785,-7.812,-1.465,0.000
1737557821.914,-20.020,-22.949,-22.461,-36.621,0.000
1737557821.918,-6.348,-20.996,-32.715,-18.555,0.000
1737557821.922,21.973,-19.043,-29.297,52.246,0.000
1737557821.926,41.992,-17.090,-24.414,32.227,0.000
1737557821.930,-23.926,-19.043,-18.066,-8.301,0.000
1737557821.934,-73.730,-16.602,-20.508,-50.293,0.000
1737557821.938,-29.297,-12.695,-24.902,-93.262,0.000
1737557821.942,4.395,-14.160,-15.625,-19.043,0.000
1737557821.946,-11.719,-10.254,-23.438,15.625,0.000
1737557821.950,-30.762,-9.766,-46.387,-23.438,0.000
1737557821.954,-20.996,-16.113,-42.969,-31.738,0.000
1737557821.957,-10.254,-20.996,-26.855,-21.973,0.000
1737557821.961,16.602,-16.602,-20.020,22.949,0.000
1737557821.965,20.508,-16.602,-16.602,57.129,0.000
1737557821.969,-12.695,-20.508,-15.625,-1.465,0.000
1737557821.973,-51.270,-17.090,-26.855,-77.637,0.000
1737557821.977,-49.805,-21.973,-33.203,-51.758,0.000
1737557821.981,-4.395,-30.762,-19.043,21.973,0.000
1737557821.985,12.207,-28.809,-16.602,21.973,0.000
1737557821.989,-27.344,-17.090,-28.320,-19.531,0.000
1737557821.993,-34.668,-13.184,-29.785,-52.734,0.000
1737557821.996,16.113,-17.090,-26.367,-41.992,0.000
1737557822.000,36.133,-17.090,-23.438,13.184,0.000
1737557822.004,1.465,-17.578,-30.762,34.668,0.000
1737557822.008,-46.875,-20.020,-37.109,-41.504,0.000
1737557822.012,-32.715,-16.602,-32.227,-112.305,0.000
1737557822.016,-21.973,-11.230,-23.438,-43.945,0.000
1737557822.020,6.348,-13.672,-24.414,31.738,0.000
1737557822.024,23.438,-24.902,-23.926,12.695,0.000
1737557822.028,-58.105,-33.203,-15.625,1.953,0.000
1737557822.032,-90.820,-31.738,-18.066,-24.414,0.000
1737557822.036,-41.992,-27.832,-20.020,-49.805,0.000
1737557822.039,8.301,-18.555,-20.508,-12.695,0.000
1737557822.043,-13.184,-14.160,-31.250,31.738,0.000
1737557822.047,-45.410,-21.973,-31.738,-23.926,0.000
1737557822.051,-53.223,-21.484,-25.391,-60.547,0.000
1737557822.055,-55.176,-20.996,-23.926,-44.434,0.000
1737557822.059,-4.883,-24.902,-32.227,-22.949,0.000
1737557822.063,74.707,-14.648,-21.973,20.020,0.000
1737557822.067,-0.977,-15.625,-11.230,20.996,0.000
1737557822.071,-79.102,-23.926,-21.973,-45.898,0.000
1737557822.075,-38.086,-20.508,-22.461,-56.641,0.000
1737557822.079,3.906,-16.602,-32.715,-13.184,0.000
1737557822.082,-1.953,-15.625,-24.414,-5.859,0.000
1737557822.086,-12.695,-19.531,-11.719,-4.883,0.000
1737557822.090,20.508,-14.160,-11.719,-24.902,0.000
1737557822.094,-35.156,-9.766,-17.090,-53.223,0.000
1737557822.098,-65.918,-19.043,-35.156,-4.883,0.000
1737557822.102,-5.859,-17.090,-29.297,10.254,0.000
1737557822.106,16.113,-10.742,-19.043,-28.320,0.000
1737557822.110,5.859,-8.789,-28.320,-32.715,0.000
1737557822.114,-50.781,-9.277,-30.762,-28.809,0.000
1737557822.118,-29.785,-13.672,-28.809,-31.250,0.000
1737557822.121,-6.836,-14.160,-14.648,-20.996,0.000
1737557822.125,-36.621,-17.090,-12.695,-8.301,0.000
1737557822.129,-42.969,-16.113,-20.996,-29.785,0.000
1737557822.133,-29.297,-19.531,-24.414,-53.223,0.000
1737557822.137,-8.301,-17.578,-28.809,-18.555,0.000
1737557822.141,3.418,-13.184,-22.461,18.066,0.000
1737557822.145,2.930,-13.672,-17.578,20.996,0.000
1737557822.149,-28.320,-11.230,-22.949,-1.465,0.000
1737557822.153,-49.316,-17.578,-38.086,-39.551,0.000
1737557822.157,-22.461,-19.531,-28.320,-43.457,0.000
1737557822.161,6.836,-14.160,-9.766,6.348,0.000
1737557822.164,-16.113,-20.020,-13.672,18.066,0.000
1737557822.168,-42.480,-26.367,-18.555,-18.066,0.000
1737557822.172,-42.969,-30.762,-26.367,-69.824,0.000
1737557822.176,-12.207,-32.715,-39.551,-54.688,0.000
1737557822.180,11.230,-28.809,-24.414,4.883,0.000
1737557822.184,0.977,-24.902,-1.465,0.000,0.000
1737557822.188,-30.273,-20.020,-20.508,0.000,0.000
1737557822.192,-59.082,-12.207,-35.645,0.000,0.000
1737557822.196,-39.551,-17.090,-23.438,0.000,0.000
1737557822.200,-1.465,-28.809,-8.301,0.000,0.000
1737557822.204,5.371,-23.926,-9.277,0.000,0.000
1737557822.207,-44.434,-23.926,-28.809,0.000,0.000
1737557822.211,-58.105,-29.785,-38.086,0.000,0.000
1737557822.215,-32.227,-22.461,-44.922,0.000,0.000
1737557822.219,0.000,-20.020,-33.203,0.000,0.000
1737557822.223,0.977,-28.809,-12.207,0.000,0.000
1737557822.227,-38.574,-24.414,-12.207,0.000,0.000
1737557822.231,-55.664,-21.973,-17.090,-45.410,0.000
1737557822.235,-33.203,-25.391,-20.508,-19.531,0.000
1737557822.239,-2.441,-10.742,-31.738,8.301,0.000
1737557822.243,20.020,-6.836,-32.227,2.441,0.000
1737557822.246,-10.742,-19.043,-16.113,-24.902,0.000
1737557822.250,-40.527,-14.160,-8.789,-57.129,0.000
1737557822.254,-26.855,-9.277,-14.648,-60.547,0.000
1737557822.258,-9.277,-16.602,-25.391,-23.438,0.000
1737557822.262,-6.348,-17.578,-40.039,5.371,0.000
1737557822.266,-30.762,-20.996,-54.688,-6.836,0.000
1737557822.270,-55.176,-23.438,-39.551,-46.387,0.000
1737557822.274,-27.832,-20.020,-9.277,-42.480,0.000
1737557822.278,-4.395,-17.578,-7.324,-4.395,0.000
1737557822.282,4.883,-18.066,-18.066,20.508,0.000
1737557822.286,-16.113,-24.902,-29.785,7.812,0.000
1737557822.289,-33.691,-18.555,-48.340,-34.180,0.000
1737557822.293,-25.391,-7.324,-39.551,-53.223,0.000
1737557822.297,-18.066,-14.648,-18.066,-29.785,0.000
1737557822.301,-6.836,-19.043,-9.766,-6.348,0.000
1737557822.305,-27.832,-15.137,-10.254,-4.395,0.000
1737557822.309,-46.875,-14.160,-22.461,-42.480,0.000
1737557822.313,-56.152,-19.531,-27.832,-51.758,0.000
1737557822.317,-15.137,-19.043,-16.113,-13.184,0.000
1737557822.321,15.625,-14.160,-10.254,3.906,0.000
1737557822.325,0.488,-16.113,-19.531,0.488,0.000
1737557822.329,-12.207,-15.625,-29.785,20.508,0.000
1737557822.332,-20.996,-14.160,-30.273,-29.297,0.000
1737557822.336,-36.621,-19.043,-36.133,-66.406,0.000
1737557822.340,-6.348,-18.555,-29.297,-15.625,0.000
1737557822.344,4.395,-18.555,-20.508,11.719,0.000
1737557822.348,-60.059,-27.344,-29.785,-40.527,0.000
1737557822.352,-51.758,-25.391,-30.762,-68.359,0.000
1737557822.356,-30.273,-19.043,-23.926,-42.969,0.000
1737557822.360,-1.953,-20.996,-22.949,-20.996,0.000
1737557822.364,32.227,-25.391,-42.480,28.809,0.000
1737557822.368,-32.715,-20.996,-48.828,13.184,0.000
1737557822.372,-68.359,-17.578,-21.973,-45.898,0.000
1737557822.375,-50.293,-22.461,-2.930,-50.293,0.000
1737557822.379,-33.203,-13.184,-7.812,-24.414,0.000
1737557822.383,23.926,-6.836,-11.230,1.953,0.000
1737557822.387,10.254,-5.859,-12.695,-11.230,0.000
1737557822.391,-43.945,-7.812,-19.043,-65.918,0.000
1737557822.395,-17.578,-11.719,-15.625,-50.781,0.000
1737557822.399,11.230,-12.207,-14.160,-6.836,0.000
1737557822.403,15.137,-17.578,-17.090,6.348,0.000
1737557822.407,-5.859,-19.043,-17.578,4.395,0.000
1737557822.411,-61.035,-24.414,-27.344,-62.500,0.000
1737557822.414,-62.500,-25.879,-29.785,-72.754,0.000
1737557822.418,0.000,-20.996,0.000,0.000,0.000
1737557822.422,0.000,-20.020,0.000,0.000,0.000
1737557822.426,0.000,-22.461,0.000,0.000,0.000
1737557822.430,0.000,-20.996,0.000,0.000,0.000
1737557822.434,0.000,-25.391,0.000,0.000,0.000
1737557822.438,0.000,-20.020,0.000,0.000,0.000
1737557822.442,0.000,-20.020,0.000,0.000,0.000
1737557822.446,0.000,-19.043,0.000,0.000,0.000
1737557822.450,0.000,-17.578,0.000,0.000,0.000
1737557822.454,0.000,-21.484,0.000,0.000,0.000
1737557822.457,0.000,-17.090,0.000,0.000,0.000
1737557822.461,0.000,-19.043,0.000,0.000,0.000
1737557822.465,8.301,-16.113,-27.344,15.137,0.000
1737557822.469,-36.133,-14.160,-19.043,-32.715,0.000
1737557822.473,-51.270,-16.113,-16.113,-80.566,0.000
1737557822.477,-30.273,-15.137,-25.391,-60.547,0.000
1737557822.481,-2.441,-16.602,-25.879,3.418,0.000
1737557822.485,-4.883,-15.137,-18.555,16.113,0.000
1737557822.489,-52.734,-22.949,-14.160,-16.602,0.000
1737557822.493,-47.852,-23.926,-10.254,-4.395,0.000
1737557822.497,-35.645,-21.484,-13.184,3.906,0.000
1737557822.500,-38.086,-12.207,-22.461,-20.020,0.000
1737557822.504,-16.113,-3.906,-24.902,-25.391,0.000
1737557822.508,-39.062,-16.602,-24.414,-43.457,0.000
1737557822.512,-52.734,-28.809,-24.902,-70.312,0.000
1737557822.516,-18.555,-28.809,-20.020,-54.688,0.000
1737557822.520,-0.488,-28.809,-27.832,-13.184,0.000
1737557822.524,0.000,-32.227,-39.062,19.531,0.000
1737557822.528,-20.508,-31.250,-31.250,-12.207,0.000
1737557822.532,-54.688,-17.090,-14.160,-50.293,0.000
1737557822.536,-40.039,-13.672,-13.184,-38.086,0.000
1737557822.539,-11.230,-21.484,-18.066,17.578,0.000
1737557822.543,-7.812,-21.973,-10.742,44.922,0.000
1737557822.547,-35.645,-21.484,-19.531,-19.531,0.000
1737557822.551,-68.848,-22.461,-34.668,-76.172,0.000
1737557822.555,-50.781,-23.926,-29.297,-45.410,0.000
1737557822.559,9.277,-19.043,-20.996,7.324,0.000
1737557822.563,49.805,-9.277,-23.926,7.812,0.000
1737557822.567,-11.719,-11.719,-26.855,-38.086,0.000
1737557822.571,-59.082,-15.137,-30.762,-40.527,0.000
1737557822.575,-44.922,-15.137,-42.969,-30.762,0.000
1737557822.579,-28.320,-17.578,-36.133,-10.742,0.000
1737557822.582,6.836,-17.578,-24.902,16.113,0.000
1737557822.586,-7.812,-17.090,-21.484,-22.461,0.000
1737557822.590,-66.406,-21.484,-25.879,-54.688,0.000
1737557822.594,-58.105,-22.949,-32.227,-55.664,0.000
1737557822.598,-31.250,-22.461,-30.273,-26.855,0.000
1737557822.602,5.859,-18.555,-33.691,14.160,0.000
1737557822.606,0.000,-20.020,-28.809,-9.277,0.000
1737557822.610,0.000,-18.555,-15.625,-17.578,0.000
1737557822.614,0.000,-11.719,-15.625,-29.785,0.000
1737557822.618,0.000,-10.254,-20.996,-35.645,0.000
1737557822.622,0.000,-7.812,-25.879,1.953,0.000
1737557822.625,0.000,-3.906,-32.715,-20.508,0.000
1737557822.629,0.000,-7.324,-39.062,-77.637,0.000
1737557822.633,0.000,-15.625,-26.855,-55.176,0.000
1737557822.637,0.000,-27.832,-19.043,-21.484,0.000
1737557822.641,0.000,-34.668,-21.973,12.207,0.000
1737557822.645,0.000,-25.391,-12.207,18.555,0.000
1737557822.649,0.000,-16.602,-14.648,0.977,0.000
1737557822.653,-43.945,-11.719,0.000,-30.273,0.000
1737557822.657,-22.949,-12.695,0.000,-31.738,0.000
1737557822.661,7.812,-8.301,0.000,6.836,0.000
1737557822.665,15.625,-6.836,0.000,6.348,0.000
1737557822.668,-28.320,-13.184,0.000,-10.742,0.000
1737557822.672,-47.852,-9.277,0.000,-52.246,0.000
1737557822.676,-25.391,-4.395,0.000,-61.035,0.000
1737557822.680,-5.371,-12.695,0.000,-2.441,0.000
1737557822.684,13.672,-17.090,0.000,28.809,0.000
1737557822.688,-5.859,-23.438,0.000,0.488,0.000
1737557822.692,-37.598,-22.949,0.000,-51.270,0.000
1737557822.696,-28.320,-18.555,0.000,-68.848,0.000
1737557822.700,-4.883,-23.438,-23.438,1.953,0.000
1737557822.704,1.953,-13.672,-27.832,38.574,0.000
1737557822.708,-27.832,-13.672,-41.016,-28.809,0.000
1737557822.711,-44.434,-21.973,-42.969,-49.805,0.000
1737557822.715,-42.969,-23.438,-30.762,-43.457,0.000
1737557822.719,-20.020,-23.438,-28.320,-19.531,0.000
1737557822.723,17.578,-22.949,-28.320,3.906,0.000
1737557822.727,-19.043,-23.926,-35.156,-13.184,0.000
1737557822.731,-68.848,-26.855,-28.809,-36.621,0.000
1737557822.735,-41.504,-19.531,-14.160,-41.992,0.000
1737557822.739,0.977,-11.719,-19.043,-36.133,0.000
1737557822.743,15.137,-17.090,-20.996,-5.371,0.000
1737557822.747,-12.207,-16.602,-21.484,-13.184,0.000
1737557822.750,-52.246,-12.695,-31.738,-55.176,0.000
1737557822.754,-54.688,-17.090,-36.133,-59.082,0.000
1737557822.758,-16.602,-17.578,-25.391,-7.324,0.000
1737557822.762,19.531,-14.648,-15.137,16.113,0.000
1737557822.766,-16.602,-18.066,-12.207,2.930,0.000
1737557822.770,-56.152,-26.367,-27.832,-21.973,0.000
1737557822.774,-50.781,-18.555,-40.039,-33.203,0.000
1737557822.778,-4.883,-12.207,-24.414,-1.953,0.000
1737557822.782,21.973,-19.043,-13.672,8.789,0.000
1737557822.786,-12.695,-20.508,-19.531,-15.625,0.000
1737557822.790,-63.965,-18.066,-24.902,-27.344,0.000
1737557822.793,-51.758,-11.719,-27.344,-61.523,0.000
1737557822.797,8.301,-4.883,-37.598,-65.918,0.000
1737557822.801,18.066,-3.906,-44.922,-10.254,0.000
1737557822.805,-20.996,-10.742,-29.297,8.789,0.000
1737557822.809,-56.641,-17.090,-13.184,-22.461,0.000
1737557822.813,-55.664,-8.301,-8.789,-43.945,0.000
1737557822.817,-32.227,-14.160,-13.184,-34.668,0.000
1737557822.821,-15.625,-31.250,-15.625,-11.719,0.000
1737557822.825,-16.113,-29.785,-23.438,-4.395,0.000
1737557822.829,-35.156,-16.113,-33.691,-21.484,0.000
1737557822.833,-59.082,-9.766,-29.297,-33.691,0.000
1737557822.836,-42.969,-12.207,-21.973,-45.898,0.000
1737557822.840,0.000,-12.207,0.000,0.000,0.000
1737557822.844,0.000,-17.578,0.000,0.000,0.000
1737557822.848,0.000,-23.438,0.000,0.000,0.000
1737557822.852,0.000,-17.578,0.000,0.000,0.000
1737557822.856,0.000,-16.602,0.000,0.000,0.000
1737557822.860,0.000,-13.672,0.000,0.000,0.000
1737557822.864,0.000,-13.184,0.000,0.000,0.000
1737557822.868,0.000,-25.391,0.000,0.000,0.000
1737557822.872,0.000,-20.996,0.000,0.000,0.000
1737557822.875,0.000,-14.160,0.000,0.000,0.000
1737557822.879,0.000,-17.090,0.000,0.000,0.000
1737557822.883,0.000,-21.973,0.000,0.000,0.000
1737557822.887,-7.324,-20.996,-7.812,-39.062,0.000
1737557822.891,-34.180,-18.066,6.348,-35.645,0.000
1737557822.895,-34.180,-25.391,-0.488,-28.320,0.000
1737557822.899,-5.371,-22.949,-14.648,14.160,0.000
1737557822.903,26.367,-9.766,-29.297,37.598,0.000
1737557822.907,-9.277,-8.789,-37.598,0.000,0.000
1737557822.911,-72.754,-21.484,-32.715,-54.199,0.000
1737557822.915,-66.895,-24.414,-11.719,-76.660,0.000
1737557822.918,-11.230,-20.996,-11.230,-71.777,0.000
1737557822.922,13.672,-17.578,-36.621,-24.414,0.000
1737557822.926,6.836,-22.461,-43.457,-15.137,0.000
1737557822.930,0.000,-29.785,-24.902,-21.484,0.000
1737557822.934,-15.625,-21.973,-19.531,-39.551,0.000
1737557822.938,1.465,-8.301,-14.648,-31.738,0.000
1737557822.942,28.809,-5.371,-11.230,24.902,0.000
1737557822.946,-3.418,-8.301,-20.508,44.434,0.000
1737557822.950,-39.551,-12.695,-26.367,13.184,0.000
1737557822.954,-47.363,-20.996,-27.344,-57.129,0.000
1737557822.958,-29.785,-28.320,-17.090,-39.062,0.000
1737557822.961,0.000,-18.555,-10.254,20.508,0.000
1737557822.965,-20.020,-12.695,-15.137,1.465,0.000
1737557822.969,-75.684,-18.555,-27.832,-50.781,0.000
1737557822.973,-64.941,-25.391,-43.457,-77.148,0.000
1737557822.977,-20.020,-25.391,-41.992,-49.805,0.000
1737557822.981,0.000,-19.531,-43.945,0.000,0.000
1737557822.985,0.000,-18.066,-34.668,0.000,0.000
1737557822.989,0.000,-18.066,-13.672,0.000,0.000
1737557822.993,0.000,-24.902,-9.766,0.000,0.000
1737557822.997,0.000,-23.926,-20.020,0.000,0.000
1737557823.001,0.000,-10.742,-26.855,0.000,0.000
1737557823.004,0.000,-14.648,-39.062,0.000,0.000
1737557823.008,0.000,-23.438,-47.852,0.000,0.000
1737557823.012,0.000,-18.555,-33.203,0.000,0.000
1737557823.016,0.000,-20.508,-32.227,0.000,0.000
1737557823.020,0.000,-23.926,-36.133,0.000,0.000
1737557823.024,0.000,-24.414,-17.578,0.000,0.000
1737557823.028,-30.762,-22.461,-10.742,-17.090,0.000
1737557823.032,-50.781,-20.020,-12.207,-38.574,0.000
1737557823.036,-35.645,-16.113,-14.160,-62.012,0.000
1737557823.040,0.488,-15.137,-17.090,-25.391,0.000
1737557823.043,27.832,-20.020,-8.789,19.531,0.000
1737557823.047,-2.441,-23.438,-19.043,0.000,0.000
1737557823.051,-50.781,-19.043,-36.621,-11.719,0.000
1737557823.055,-58.594,-19.531,-32.227,-44.434,0.000
1737557823.059,-24.902,-18.066,-24.902,-25.879,0.000
1737557823.063,7.324,-12.695,-18.066,18.555,0.000
1737557823.067,-13.184,-13.672,-20.996,-9.277,0.000
1737557823.071,-47.852,-18.066,-35.156,-45.898,0.000
1737557823.075,-60.547,-22.949,-43.945,-58.105,0.000
1737557823.079,-44.922,-27.344,-34.180,-51.758,0.000
1737557823.083,-12.695,-27.832,-18.066,-17.578,0.000
1737557823.086,-22.461,-27.832,-17.578,-38.574,0.000
1737557823.090,-51.270,-25.391,-23.926,-53.711,0.000
1737557823.094,-47.363,-17.090,-32.715,-23.438,0.000
1737557823.098,1.465,-6.348,-39.551,9.277,0.000
1737557823.102,21.973,-7.812,-25.391,23.926,0.000
1737557823.106,-25.391,-15.137,-17.090,-29.297,0.000
1737557823.110,-67.383,-17.578,-40.527,-81.543,0.000
1737557823.114,-51.758,-17.090,-53.223,-76.660,0.000
1737557823.118,-42.480,-11.719,-31.250,-58.594,0.000
1737557823.122,-16.602,-6.836,-15.625,-7.324,0.000
1737557823.126,-4.883,-16.602,-12.207,1.953,0.000
1737557823.129,-42.480,-28.809,-12.207,-36.133,0.000
1737557823.133,-35.645,-22.949,-19.531,-54.199,0.000
1737557823.137,-5.859,-10.742,-14.648,-19.531,0.000
1737557823.141,17.090,-10.742,-17.090,36.133,0.000
1737557823.145,18.555,-10.742,-38.086,1.953,0.000
1737557823.149,-25.879,-17.090,-42.969,-55.664,0.000
1737557823.153,-62.500,-23.926,-34.180,-53.711,0.000
1737557823.157,-42.480,-21.973,-19.043,-50.781,0.000
1737557823.161,-7.324,-20.996,-16.602,-23.438,0.000
1737557823.165,-4.395,-20.508,-16.113,5.859,0.000
1737557823.168,-18.066,-17.578,-24.902,-13.672,0.000
1737557823.172,-48.828,-21.973,-32.227,-36.133,0.000
1737557823.176,-65.430,-30.762,-26.367,-31.250,0.000
1737557823.180,-0.488,-27.832,-27.344,-26.855,0.000
1737557823.184,37.109,-17.578,-32.227,-19.531,0.000
1737557823.188,-0.977,-21.484,-32.715,-25.391,0.000
1737557823.192,-35.156,-28.809,-36.133,-40.039,0.000
1737557823.196,-36.133,-21.484,-36.133,-34.180,0.000
1737557823.200,2.930,-17.090,-41.016,-30.273,0.000
1737557823.204,4.883,-25.391,-44.434,-9.766,0.000
1737557823.208,-34.668,-32.715,-30.273,-17.578,0.000
1737557823.211,-48.340,-30.762,-14.648,-36.133,0.000
1737557823.215,-36.133,-17.578,-15.625,-36.621,0.000
1737557823.219,15.137,-14.648,-36.621,-5.371,0.000
1737557823.223,26.367,-17.090,-48.340,37.598,0.000
1737557823.227,-38.086,-19.531,-39.062,-20.020,0.000
1737557823.231,-60.059,-26.367,-30.762,-59.570,0.000
1737557823.235,-27.344,-24.902,-34.180,-42.480,0.000
1737557823.239,7.812,-28.320,-22.461,-35.645,0.000
1737557823.243,9.277,-26.367,-3.418,18.066,0.000
1737557823.247,-22.461,-17.090,-19.043,17.578,0.000
1737557823.251,-50.293,-21.484,-38.086,-62.500,0.000
1737557823.254,-61.523,-26.855,-27.344,-61.035,0.000
1737557823.258,-16.113,-23.926,-10.254,-11.230,0.000
1737557823.262,30.762,-19.043,-3.906,32.715,0.000
1737557823.266,5.859,-17.578,-19.531,4.395,0.000
1737557823.270,-36.133,-25.391,-30.273,-56.641,0.000
1737557823.274,-47.852,-25.391,-23.438,-41.504,0.000
1737557823.278,-16.113,-13.672,-18.555,-23.926,0.000
1737557823.282,1.465,-16.113,-38.574,-7.324,0.000
1737557823.286,-23.926,-26.855,-62.500,1.953,0.000
1737557823.290,-34.180,-21.973,-35.156,-38.086,0.000
1737557823.293,-23.926,-15.625,-1.953,-61.035,0.000
1737557823.297,-0.977,-16.113,4.883,-14.648,0.000
1737557823.301,15.625,-23.438,-11.230,4.395,0.000
1737557823.305,5.371,-22.949,-34.180,8.789,0.000
1737557823.309,-7.324,-21.973,-28.809,-24.414,0.000
1737557823.313,-36.621,-27.832,-22.461,-54.688,0.000
1737557823.317,-45.898,-20.020,-32.227,-33.203,0.000
1737557823.321,-20.996,-11.719,-35.645,11.719,0.000
1737557823.325,-13.672,-13.184,-41.992,11.719,0.000
1737557823.329,-30.762,-16.113,-45.898,-27.832,0.000
1737557823.333,-37.109,-20.020,-38.086,-54.199,0.000
1737557823.336,-28.809,-22.461,-18.066,-70.312,0.000
1737557823.340,-3.418,-18.555,-9.277,-61.523,0.000
1737557823.344,20.996,-19.043,-31.250,-17.090,0.000
1737557823.348,-3.418,-22.461,-29.297,2.930,0.000
1737557823.352,-29.297,-25.879,-22.461,-28.809,0.000
1737557823.356,-13.184,-21.484,-33.203,0.000,0.000
1737557823.360,-10.254,-19.531,-20.508,0.000,0.000
1737557823.364,-4.883,-18.066,-17.578,0.000,0.000
1737557823.368,-24.902,-12.207,-19.531,0.000,0.000
1737557823.372,-62.012,-14.648,-17.578,0.000,0.000
1737557823.376,-37.109,-16.602,-22.461,0.000,0.000
1737557823.379,0.488,-17.090,-38.086,0.000,0.000
1737557823.383,6.348,-12.695,-52.246,0.000,0.000
1737557823.387,-31.250,-20.020,-32.715,0.000,0.000
1737557823.391,-52.734,-28.320,-10.254,0.000,0.000
1737557823.395,-32.227,-22.949,-8.789,0.000,0.000
1737557823.399,-0.977,-16.113,-22.461,0.000,0.000
1737557823.403,-5.859,-19.531,-41.992,-18.066,0.000
1737557823.407,-52.734,-26.855,-35.156,23.926,0.000
1737557823.411,-66.895,-27.344,-19.043,3.418,0.000
1737557823.415,-39.551,-20.020,-10.742,-39.062,0.000
1737557823.418,4.395,-14.160,-20.996,-52.734,0.000
1737557823.422,16.113,-11.719,-26.855,-37.109,0.000
1737557823.426,-6.836,-11.230,-25.879,17.090,0.000
1737557823.430,-33.203,-19.043,-30.273,37.109,0.000
1737557823.434,-51.270,-27.832,-34.180,-56.152,0.000
1737557823.438,-31.250,-25.879,-38.086,-86.914,0.000
1737557823.442,-0.488,-17.578,-44.434,-41.992,0.000
1737557823.446,-10.742,-12.695,-41.504,-19.531,0.000
1737557823.450,-54.199,-19.531,-22.949,-40.527,0.000
1737557823.454,-46.387,-29.785,-19.043,-63.477,0.000
1737557823.458,-3.906,-29.785,-30.762,-44.922,0.000
1737557823.461,19.043,-20.996,-32.715,8.789,0.000
1737557823.465,-10.742,-13.184,-26.367,41.016,0.000
1737557823.469,-14.160,-12.207,-26.367,-34.668,0.000
1737557823.473,-20.020,-11.719,-37.598,-83.008,0.000
1737557823.477,-23.926,-16.113,-39.551,-41.016,0.000
1737557823.481,10.254,-20.508,-25.879,26.367,0.000
1737557823.485,-3.418,-14.648,-17.090,13.672,0.000
1737557823.489,-57.129,-14.648,-30.273,-57.129,0.000
1737557823.493,-53.223,-11.230,-34.180,-52.734,0.000
1737557823.497,-0.977,-0.977,-6.836,-31.250,0.000
1737557823.501,16.113,-12.207,-2.930,6.348,0.000
1737557823.504,0.977,-23.926,-12.207,14.648,0.000
1737557823.508,-22.949,-20.996,-16.113,-7.812,0.000
1737557823.512,-55.664,-21.484,-33.203,-20.508,0.000
1737557823.516,-17.090,-16.113,-41.016,-23.438,0.000
1737557823.520,11.719,-11.719,-27.832,5.859,0.000
1737557823.524,-36.621,-17.090,-18.555,11.719,0.000
1737557823.528,-48.828,-17.090,-22.461,-24.414,0.000
1737557823.532,-38.086,-21.484,-24.414,-62.500,0.000
1737557823.536,-29.785,-21.973,-18.066,-66.406,0.000
1737557823.540,15.137,-8.301,-10.742,-12.695,0.000
1737557823.543,45.898,-3.906,-20.508,33.203,0.000
1737557823.547,-21.973,-9.766,-31.738,6.836,0.000
1737557823.551,-66.895,-9.766,-31.250,-36.621,0.000
1737557823.555,-34.668,-21.484,-26.367,-42.480,0.000
1737557823.559,-13.672,-24.902,-22.461,5.371,0.000
1737557823.563,14.160,-11.719,-23.438,3.906,0.000
1737557823.567,-8.301,-12.207,-31.250,-32.715,0.000
1737557823.571,-48.828,-19.531,-37.598,-50.781,0.000
1737557823.575,-40.527,-19.531,-43.457,-66.406,0.000
1737557823.579,-22.461,-18.066,-40.527,-26.855,0.000
1737557823.583,5.371,-15.137,-24.414,25.391,0.000
1737557823.586,-11.719,-12.695,-16.602,13.184,0.000
1737557823.590,-49.805,-13.672,-20.020,-57.617,0.000
1737557823.594,-34.668,-20.508,-26.367,-69.336,0.000
1737557823.598,-20.996,-21.973,-29.785,-7.812,0.000
1737557823.602,-2.930,-14.160,-18.555,24.902,0.000
1737557823.606,-20.020,-16.602,-21.973,12.695,0.000
1737557823.610,-57.129,-17.578,-41.992,-53.711,0.000
1737557823.614,-30.273,-18.066,-55.664,-94.727,0.000
1737557823.618,0.977,-24.414,-42.969,-33.203,0.000
1737557823.622,20.508,-25.391,-11.719,9.277,0.000
1737557823.625,22.949,-26.855,-14.648,-4.883,0.000
1737557823.629,-16.602,-18.555,-20.508,-29.785,0.000
1737557823.633,-61.523,-13.672,-20.020,-38.574,0.000
1737557823.637,0.000,-22.949,0.000,-20.020,0.000
1737557823.641,0.000,-22.461,0.000,14.160,0.000
1737557823.645,0.000,-24.414,0.000,-9.277,0.000
1737557823.649,0.000,-25.879,0.000,-41.016,0.000
1737557823.653,0.000,-24.902,0.000,-56.641,0.000
1737557823.657,0.000,-25.879,0.000,-49.316,0.000
1737557823.661,0.000,-20.508,0.000,-19.043,0.000
1737557823.665,0.000,-17.090,0.000,-31.250,0.000
1737557823.668,0.000,-9.277,0.000,-32.715,0.000
1737557823.672,0.000,-3.906,0.000,-36.133,0.000
1737557823.676,0.000,-6.836,0.000,-24.414,0.000
1737557823.680,0.000,-5.859,0.000,33.203,0.000
1737557823.684,6.348,5.371,82.520,28.320,0.000
1737557823.688,-41.016,32.715,53.223,-22.461,0.000
1737557823.692,-78.125,25.879,53.711,-53.711,0.000
1737557823.696,-53.223,75.195,87.402,-55.176,0.000
1737557823.700,-22.461,88.379,-12.695,-22.461,0.000
1737557823.704,-80.566,-44.922,-63.477,-70.312,0.000
1737557823.708,-172.363,-72.754,-7.812,-203.125,0.000
1737557823.711,-253.418,-7.324,34.180,-284.180,0.000
1737557823.715,-257.812,63.965,117.188,-259.766,0.000
1737557823.719,-227.539,13.184,133.789,-212.891,0.000
1737557823.723,-222.168,22.461,129.883,-182.129,0.000
1737557823.727,-264.160,103.027,268.066,-227.539,0.000
1737557823.731,-317.383,126.953,396.484,-318.848,0.000
1737557823.735,-323.242,203.125,556.641,-332.031,0.000
1737557823.739,-265.137,281.738,825.195,-245.605,0.000
1737557823.743,-195.312,338.379,969.727,-228.027,0.000
1737557823.747,-243.164,396.973,966.797,-292.969,0.000
1737557823.751,-329.590,439.941,969.238,-355.469,0.000
1737557823.754,-305.176,467.773,971.680,-375.488,0.000
1737557823.758,-238.770,466.309,970.703,-286.621,0.000
1737557823.762,-242.188,447.754,970.703,-189.453,0.000
1737557823.766,-264.160,424.316,970.703,-188.477,0.000
1737557823.770,-263.184,400.391,970.703,-233.887,0.000
1737557823.774,-258.301,375.000,970.703,-251.953,0.000
1737557823.778,-186.035,347.656,970.703,-178.223,0.000
1737557823.782,-93.262,321.289,971.680,-97.168,0.000
1737557823.786,-108.398,291.504,965.332,-109.375,0.000
1737557823.790,-137.695,251.465,975.586,-139.160,0.000
1737557823.794,-105.957,212.402,937.012,-100.586,0.000
1737557823.797,-53.711,178.711,760.254,-95.215,0.000
1737557823.801,-16.602,152.344,597.656,-30.762,0.000
1737557823.805,-21.484,120.605,480.957,-13.672,0.000
1737557823.809,-34.668,88.379,351.074,-52.246,0.000
1737557823.813,-18.066,72.754,212.891,4.883,0.000
1737557823.817,32.227,58.105,113.770,67.383,0.000
1737557823.821,105.469,28.809,51.270,137.207,0.000
1737557823.825,79.590,-7.324,2.930,0.000,0.000
1737557823.829,9.766,-34.180,-65.918,0.000,0.000
1737557823.833,30.273,-52.734,-117.676,0.000,0.000
1737557823.836,62.500,-71.289,-173.340,0.000,0.000
1737557823.840,94.727,-87.402,-248.535,0.000,0.000
1737557823.844,106.445,-96.191,-263.184,0.000,0.000
1737557823.848,74.219,-98.633,-251.465,0.000,0.000
1737557823.852,46.387,-111.816,-268.555,0.000,0.000
1737557823.856,56.641,-109.375,-283.203,0.000,0.000
1737557823.860,96.680,-105.469,-278.809,0.000,0.000
1737557823.864,110.352,-111.816,-308.105,0.000,0.000
1737557823.868,74.219,-104.980,-338.867,0.000,0.000
1737557823.872,60.059,-104.980,-347.656,66.406,0.000
1737557823.876,65.918,-105.957,-352.539,46.875,0.000
1737557823.879,91.309,-97.168,-359.375,103.516,0.000
1737557823.883,101.074,-95.703,-346.680,125.000,0.000
1737557823.887,50.781,-98.633,-354.980,55.176,0.000
1737557823.891,18.555,-92.285,-363.770,41.016,0.000
1737557823.895,58.105,-83.984,-324.219,73.730,0.000
1737557823.899,98.633,-85.449,-315.918,83.496,0.000
1737557823.903,98.145,-86.426,-324.707,100.586,0.000
1737557823.907,64.941,-83.984,-309.570,73.730,0.000
1737557823.911,42.969,-83.984,-306.641,24.414,0.000
1737557823.915,35.156,-83.496,-311.035,13.184,0.000
1737557823.919,54.688,-76.172,-320.312,42.480,0.000
1737557823.922,84.473,-71.777,-318.359,77.148,0.000
1737557823.926,51.758,-72.266,-293.457,77.148,0.000
1737557823.930,22.461,-69.336,-277.832,44.434,0.000
1737557823.934,30.273,-66.895,-268.066,10.254,0.000
1737557823.938,31.738,-67.383,-260.742,28.320,0.000
1737557823.942,38.086,-71.777,-266.113,90.332,0.000
1737557823.946,35.645,-67.871,-261.719,75.684,0.000
1737557823.950,3.906,-65.918,-257.812,4.883,0.000
1737557823.954,18.555,-63.965,-272.461,-7.812,0.000
1737557823.958,40.039,-52.246,-242.676,33.203,0.000
1737557823.961,50.781,-51.758,-210.938,37.109,0.000
1737557823.965,24.414,-56.641,-214.355,29.297,0.000
1737557823.969,3.418,-54.199,-205.078,17.578,0.000
1737557823.973,19.043,-53.223,-208.496,-22.949,0.000
1737557823.977,30.273,-56.152,-208.496,7.812,0.000
1737557823.981,28.809,-56.152,-196.777,46.387,0.000
1737557823.985,23.926,-55.176,-195.312,28.809,0.000
1737557823.989,-11.719,-54.199,-197.266,-8.789,0.000
1737557823.993,-20.996,-57.617,-206.055,10.742,0.000
1737557823.997,23.926,-59.082,-204.102,45.410,0.000
1737557824.001,20.996,-57.617,-189.941,18.555,0.000
1737557824.004,-3.906,-62.012,-173.828,2.930,0.000
1737557824.008,-22.461,-62.988,-155.762,2.441,0.000
1737557824.012,-18.066,-64.453,-144.043,-27.344,0.000
1737557824.016,4.395,-57.617,-149.902,-19.043,0.000
1737557824.020,48.340,-41.992,-160.156,9.277,0.000
1737557824.024,35.156,-44.922,-156.250,18.555,0.000
1737557824.028,-6.348,-53.711,-159.180,9.277,0.000
1737557824.032,-0.977,-48.828,-176.758,5.859,0.000
1737557824.036,-14.648,-53.223,-157.715,-16.113,0.000
1737557824.040,-1.465,-55.664,-114.746,9.766,0.000
1737557824.044,37.598,-51.758,-107.910,51.758,0.000
1737557824.047,7.812,-54.688,-122.070,-0.977,0.000
1737557824.051,-40.039,-58.105,-131.348,-53.223,0.000
1737557824.055,-30.762,-59.082,-131.836,-35.645,0.000
1737557824.059,21.973,-51.270,-136.230,-17.578,0.000
1737557824.063,41.016,-38.574,-129.883,37.109,0.000
1737557824.067,-0.977,-47.363,-118.652,44.922,0.000
1737557824.071,-35.156,-51.270,-113.770,-50.293,0.000
1737557824.075,-27.344,-45.898,-100.586,-41.504,0.000
1737557824.079,0.000,-40.039,-102.539,13.184,0.000
1737557824.083,20.508,-41.504,-107.910,35.156,0.000
1737557824.086,-0.488,-44.922,-107.910,0.000,0.000
1737557824.090,-33.691,-41.992,-110.352,-39.551,0.000
1737557824.094,-33.203,-43.457,-106.934,-31.250,0.000
1737557824.098,-4.395,-43.457,-85.938,-5.859,0.000
1737557824.102,24.902,-38.574,-81.543,22.461,0.000
1737557824.106,0.488,-44.922,-104.980,17.578,0.000
1737557824.110,-53.223,-48.828,-101.562,-26.367,0.000
1737557824.114,-51.758,-43.457,-91.309,-25.391,0.000
1737557824.118,-8.789,-38.574,-109.375,-13.184,0.000
1737557824.122,17.090,-29.785,-116.699,-6.348,0.000
1737557824.126,-7.324,-31.250,-104.004,6.836,0.000
1737557824.129,-42.480,-41.016,-86.914,-10.254,0.000
1737557824.133,-27.344,-44.922,-67.871,-34.668,0.000
1737557824.137,2.441,-35.645,-67.871,-33.203,0.000
1737557824.141,8.301,-25.879,-79.590,11.230,0.000
1737557824.145,-9.277,-23.438,-76.660,54.688,0.000
1737557824.149,-37.109,-25.879,-68.848,-12.695,0.000
1737557824.153,0.000,-32.227,-71.777,-80.566,0.000
1737557824.157,0.000,-34.180,-83.496,-20.996,0.000
1737557824.161,0.000,-26.855,-85.449,49.805,0.000
1737557824.165,0.000,-25.391,-68.359,24.414,0.000
1737557824.169,0.000,-31.738,-62.500,-5.859,0.000
1737557824.172,0.000,-32.227,-80.566,-3.418,0.000
1737557824.176,0.000,-27.344,-91.309,-21.484,0.000
1737557824.180,0.000,-25.391,-73.730,-26.367,0.000
1737557824.184,0.000,-31.250,-59.082,0.000,0.000
1737557824.188,0.000,-30.762,-65.918,-29.297,0.000
1737557824.192,0.000,-28.320,-64.453,-24.902,0.000
1737557824.196,0.000,-36.133,-78.613,-9.766,0.000
1737557824.200,-51.758,-32.227,-78.125,0.000,0.000
1737557824.204,-22.461,-22.461,-47.363,0.000,0.000
1737557824.208,27.832,-20.020,-41.992,0.000,0.000
1737557824.211,4.883,-26.855,-58.594,0.000,0.000
1737557824.215,-42.969,-33.203,-62.012,0.000,0.000
1737557824.219,-24.902,-26.367,-51.758,0.000,0.000
1737557824.223,-20.508,-24.414,-58.594,0.000,0.000
1737557824.227,12.207,-22.949,-61.035,0.000,0.000
1737557824.231,10.254,-20.508,-50.293,0.000,0.000
1737557824.235,-51.270,-20.020,-44.434,0.000,0.000
1737557824.239,-58.594,-17.090,-38.086,0.000,0.000
1737557824.243,-37.109,-16.113,-41.016,0.000,0.000
1737557824.247,-11.719,-23.438,-57.129,6.348,0.000
1737557824.251,-36.133,-26.367,-64.941,-68.359,0.000
1737557824.254,-35.645,-26.367,-55.664,-37.598,0.000
1737557824.258,-9.766,-28.320,-48.828,16.113,0.000
1737557824.262,-3.906,-29.785,-47.852,34.668,0.000
1737557824.266,-14.160,-21.973,-54.199,11.719,0.000
1737557824.270,-46.387,-18.555,-69.336,-52.246,0.000
1737557824.274,-42.969,-24.414,-69.336,-73.242,0.000
1737557824.278,-14.160,-26.367,-44.434,-45.898,0.000
1737557824.282,17.578,-24.902,-22.949,6.348,0.000
1737557824.286,8.301,-26.855,-29.297,32.227,0.000
1737557824.290,-28.320,-21.484,-41.504,-11.719,0.000
1737557824.293,-44.434,-15.137,-35.156,-8.789,0.000
1737557824.297,-33.203,-25.391,-33.691,-29.785,0.000
1737557824.301,11.230,-25.879,-39.551,-0.977,0.000
1737557824.305,16.113,-25.391,-45.410,27.832,0.000
1737557824.309,-40.039,-32.715,-42.969,-33.203,0.000
1737557824.313,-53.711,-26.855,-47.852,-44.434,0.000
1737557824.317,-8.789,-23.438,-55.664,-5.371,0.000
1737557824.321,12.695,-27.344,-52.246,23.438,0.000
1737557824.325,-7.324,-29.297,-50.781,27.832,0.000
1737557824.329,-52.734,-29.297,-59.570,-13.184,0.000
1737557824.333,-76.660,-27.832,-55.664,-37.109,0.000
1737557824.336,-33.203,-23.438,-40.527,-40.039,0.000
1737557824.340,0.000,-19.043,0.000,-33.691,0.000
1737557824.344,0.000,-21.973,0.000,7.324,0.000
1737557824.348,0.000,-29.785,0.000,-34.180,0.000
1737557824.352,0.000,-29.297,0.000,-64.941,0.000
1737557824.356,0.000,-27.344,0.000,-15.625,0.000
1737557824.360,0.000,-22.461,0.000,33.203,0.000
1737557824.364,0.000,-18.555,0.000,47.363,0.000
1737557824.368,0.000,-24.414,0.000,-1.953,0.000
1737557824.372,0.000,-29.785,0.000,-48.340,0.000
1737557824.376,0.000,-31.250,0.000,-38.574,0.000
1737557824.379,0.000,-28.320,0.000,-17.578,0.000
1737557824.383,0.000,-27.344,0.000,20.996,0.000
1737557824.387,-15.625,-22.461,-37.109,-33.203,0.000
1737557824.391,-41.504,-18.555,-37.598,-87.891,0.000
1737557824.395,-26.855,-22.461,-38.574,-70.312,0.000
1737557824.399,-0.488,-26.367,-33.691,-26.855,0.000
1737557824.403,0.977,-25.391,-33.203,4.395,0.000
1737557824.407,-18.066,-21.484,-41.504,-5.371,0.000
1737557824.411,-40.527,-18.555,-44.922,-20.996,0.000
1737557824.415,-36.621,-16.113,-42.969,-23.926,0.000
1737557824.418,-7.324,-14.648,-50.293,-6.348,0.000
1737557824.422,6.836,-21.484,-48.340,-5.371,0.000
1737557824.426,-17.090,-28.320,-36.133,-19.043,0.000
1737557824.430,-56.152,-27.344,-36.621,-24.414,0.000
1737557824.434,-36.133,-22.461,-36.133,-19.043,0.000
1737557824.438,-2.930,-20.508,-38.574,-26.855,0.000
1737557824.442,6.348,-25.391,-38.574,-21.484,0.000
1737557824.446,2.441,-30.273,-39.062,-9.277,0.000
1737557824.450,-52.734,-29.785,-60.547,-38.574,0.000
1737557824.454,-78.125,-25.391,-51.270,-35.156,0.000
1737557824.458,-39.551,-21.484,-15.137,-1.953,0.000
1737557824.461,5.859,-20.996,-17.090,16.113,0.000
1737557824.465,3.906,-22.461,-40.039,-11.230,0.000
1737557824.469,-41.992,-22.461,-55.176,-64.453,0.000
1737557824.473,-35.645,-20.020,-45.410,-48.828,0.000
1737557824.477,16.602,-19.043,-24.902,4.883,0.000
1737557824.481,14.160,-25.391,-11.719,1.465,0.000
1737557824.485,-25.391,-23.926,-18.066,-15.137,0.000
1737557824.489,-39.551,-15.625,-30.762,-10.254,0.000
1737557824.493,-45.898,-15.137,-20.996,-42.969,0.000
1737557824.497,-30.273,-19.531,-23.926,-41.992,0.000
1737557824.501,18.066,-15.625,-30.273,9.277,0.000
1737557824.504,12.695,-13.184,-38.574,33.691,0.000
1737557824.508,-34.180,-21.973,-62.500,12.695,0.000
1737557824.512,-51.270,-31.250,-52.734,-25.391,0.000
1737557824.516,-33.203,-29.785,-18.555,-8.301,0.000
1737557824.520,1.465,-24.902,0.000,20.508,0.000
1737557824.524,3.418,-23.438,-3.418,-9.277,0.000
1737557824.528,0.000,-28.320,-19.531,0.000,0.000
1737557824.532,0.000,-31.250,-38.086,0.000,0.000
1737557824.536,0.000,-29.297,-46.875,0.000,0.000
1737557824.540,0.000,-19.531,-39.551,0.000,0.000
1737557824.544,0.000,-14.648,-35.645,0.000,0.000
1737557824.547,0.000,-18.555,-36.621,0.000,0.000
1737557824.551,0.000,-13.672,-33.203,0.000,0.000
1737557824.555,0.000,-16.602,-44.922,0.000,0.000
1737557824.559,0.000,-23.438,-50.293,0.000,0.000
1737557824.563,0.000,-21.973,-21.973,0.000,0.000
1737557824.567,0.000,-26.367,-20.996,0.000,0.000
1737557824.571,0.000,-34.668,-56.641,0.000,0.000
1737557824.575,-15.137,-32.715,-45.410,-42.480,0.000
1737557824.579,-1.953,-25.391,-4.883,-0.488,0.000
1737557824.583,13.184,-15.625,-8.789,13.672,0.000
1737557824.586,-15.137,-13.672,-26.367,-22.949,0.000
1737557824.590,-63.477,-20.020,-25.391,-34.180,0.000
1737557824.594,-33.691,-20.020,-17.090,-10.742,0.000
1737557824.598,15.625,-14.648,-20.020,10.742,0.000
1737557824.602,11.719,-14.648,-30.762,3.418,0.000
1737557824.606,-8.301,-19.043,-31.250,-23.926,0.000
1737557824.610,-11.719,-18.555,-28.809,-38.574,0.000
1737557824.614,-14.648,-18.555,-32.715,-13.672,0.000
1737557824.618,0.488,-17.090,-37.109,9.766,0.000
1737557824.622,6.348,-17.090,-33.691,25.391,0.000
1737557824.626,-1.465,-25.391,-43.945,15.137,0.000
1737557824.629,-16.602,-28.320,-59.082,-34.668,0.000
1737557824.633,-28.320,-28.809,-40.527,-46.387,0.000
1737557824.637,1.465,-25.391,-28.809,-18.555,0.000
1737557824.641,22.461,-17.578,-36.621,23.438,0.000
1737557824.645,-0.977,-16.602,-34.180,23.926,0.000
1737557824.649,-33.691,-24.902,-28.809,-35.645,0.000
1737557824.653,-42.480,-32.227,-27.344,-55.176,0.000
1737557824.657,-12.207,-32.227,-36.621,-43.457,0.000
1737557824.661,6.836,-25.879,-61.035,1.465,0.000
1737557824.665,0.488,-18.066,-35.156,40.039,0.000
1737557824.669,-40.527,-24.414,-14.648,-1.953,0.000
1737557824.672,-66.895,-26.855,-26.367,-27.344,0.000
1737557824.676,-29.785,-23.438,-27.344,-36.621,0.000
1737557824.680,9.277,-29.297,-32.227,-2.930,0.000
1737557824.684,7.812,-24.414,-36.133,20.996,0.000
1737557824.688,-30.273,-16.113,-35.156,-20.996,0.000
1737557824.692,-36.621,-22.461,-31.250,-51.758,0.000
1737557824.696,-14.648,-26.855,-27.832,-20.508,0.000
1737557824.700,10.742,-24.414,-20.508,20.996,0.000
1737557824.704,11.230,-23.438,-25.391,23.926,0.000
1737557824.708,-29.297,-22.949,-41.992,-3.906,0.000
1737557824.711,-47.363,-31.250,-39.062,-37.598,0.000
1737557824.715,-19.043,-30.762,-32.227,-51.270,0.000
1737557824.719,18.555,-22.949,-30.762,3.418,0.000
1737557824.723,17.578,-22.461,-31.250,46.387,0.000
1737557824.727,-14.160,-24.902,-32.715,9.766,0.000
1737557824.731,-43.457,-21.973,-38.086,-16.113,0.000
1737557824.735,-41.016,-14.160,-48.340,-28.320,0.000
1737557824.739,-6.836,-20.508,-48.340,-39.062,0.000
1737557824.743,-2.930,-30.762,-26.367,5.371,0.000
1737557824.747,-23.926,-28.809,-5.859,8.789,0.000
1737557824.751,-36.621,-20.020,-18.066,-53.223,0.000
1737557824.754,-30.273,-18.066,-21.973,-38.574,0.000
1737557824.758,-4.395,-15.137,-14.160,18.066,0.000
1737557824.762,0.000,-13.184,0.000,37.598,0.000
1737557824.766,0.000,-16.602,0.000,12.695,0.000
1737557824.770,0.000,-23.926,0.000,-22.949,0.000
1737557824.774,0.000,-31.738,0.000,-28.809,0.000
1737557824.778,0.000,-24.902,0.000,-19.531,0.000
1737557824.782,0.000,-24.902,0.000,10.254,0.000
1737557824.786,0.000,-35.156,0.000,-16.113,0.000
1737557824.790,0.000,-39.551,0.000,-63.477,0.000
1737557824.794,0.000,-34.180,0.000,-37.598,0.000
1737557824.797,0.000,-30.762,0.000,-20.508,0.000
1737557824.801,0.000,-23.926,0.000,5.859,0.000
1737557824.805,0.000,-24.414,0.000,9.766,0.000
1737557824.809,-46.875,-26.855,-31.250,-32.227,0.000
1737557824.813,-52.734,-23.438,-44.434,-50.781,0.000
1737557824.817,-24.902,-21.973,-42.969,-24.902,0.000
1737557824.821,11.719,-19.043,-22.461,7.812,0.000
1737557824.825,-2.930,-20.020,-18.066,2.930,0.000
1737557824.829,-30.273,-20.996,-22.461,-59.570,0.000
1737557824.833,-26.367,-24.414,-25.879,-63.965,0.000
1737557824.837,-12.207,-29.785,-30.273,-14.160,0.000
1737557824.840,13.672,-27.832,-32.227,14.648,0.000
1737557824.844,9.277,-24.414,-48.828,11.230,0.000
1737557824.848,-32.715,-20.996,-46.875,-15.625,0.000
1737557824.852,-46.387,-19.043,-19.043,-24.414,0.000
1737557824.856,0.000,-16.602,0.000,0.000,0.000
1737557824.860,0.000,-18.066,0.000,0.000,0.000
1737557824.864,0.000,-20.996,0.000,0.000,0.000
1737557824.868,0.000,-24.414,0.000,0.000,0.000
1737557824.872,0.000,-20.996,0.000,0.000,0.000
1737557824.876,0.000,-18.066,0.000,0.000,0.000
1737557824.879,0.000,-19.531,0.000,0.000,0.000
1737557824.883,0.000,-22.949,0.000,0.000,0.000
1737557824.887,0.000,-20.996,0.000,0.000,0.000
1737557824.891,0.000,-20.996,0.000,0.000,0.000
1737557824.895,0.000,-22.461,0.000,0.000,0.000
1737557824.899,0.000,-18.555,0.000,0.000,0.000
1737557824.903,-9.277,-17.090,-22.461,21.973,0.000
1737557824.907,-38.574,-17.090,-46.387,-12.695,0.000
1737557824.911,-52.734,-14.160,-55.664,-49.316,0.000
1737557824.915,-25.879,-19.531,-43.457,-32.227,0.000
1737557824.919,25.879,-20.508,-29.297,-12.695,0.000
1737557824.922,20.020,-19.531,-16.113,8.301,0.000
1737557824.926,-42.969,-32.227,1.953,1.953,0.000
1737557824.930,-59.570,-31.250,-3.418,-56.152,0.000
1737557824.934,-31.250,-23.438,-30.762,-74.707,0.000
1737557824.938,-5.371,-21.484,-37.109,-48.340,0.000
1737557824.942,2.441,-12.695,-25.391,-11.230,0.000
1737557824.946,-45.898,-16.602,-35.645,-28.320,0.000
1737557824.950,0.000,-28.809,-49.316,-39.062,0.000
1737557824.954,0.000,-24.902,-37.109,-26.367,0.000
1737557824.958,0.000,-5.859,-20.508,0.488,0.000
1737557824.962,0.000,3.906,3.418,39.062,0.000
1737557824.965,0.000,-4.883,5.371,12.695,0.000
1737557824.969,0.000,-18.066,-10.742,-48.828,0.000
1737557824.973,0.000,-22.949,-5.859,-56.152,0.000
1737557824.977,0.000,-24.414,-15.137,-50.293,0.000
1737557824.981,0.000,-16.602,-15.137,-8.789,0.000
1737557824.985,0.000,-16.113,-0.488,-20.020,0.000
1737557824.989,0.000,-26.367,-3.906,-95.703,0.000
1737557824.993,0.000,-20.996,6.836,-107.910,0.000
1737557824.997,-130.859,-10.742,9.766,0.000,0.000
1737557825.001,-144.531,-12.207,22.949,0.000,0.000
1737557825.005,-168.457,-11.719,48.340,0.000,0.000
1737557825.008,-217.773,-10.742,47.363,0.000,0.000
1737557825.012,-250.488,-12.695,39.551,0.000,0.000
1737557825.016,-214.844,-0.488,24.414,0.000,0.000
1737557825.020,-170.898,8.301,22.949,0.000,0.000
1737557825.024,-174.316,4.883,15.137,0.000,0.000
1737557825.028,-184.570,4.395,-2.930,0.000,0.000
1737557825.032,-178.223,3.418,17.578,0.000,0.000
1737557825.036,-157.715,-0.488,35.645,0.000,0.000
1737557825.040,-148.438,-4.883,36.621,0.000,0.000
1737557825.044,-131.348,-8.789,25.879,-67.383,0.000
1737557825.047,-117.188,-13.672,4.395,-104.980,0.000
1737557825.051,-112.305,-25.391,-5.371,-142.090,0.000
1737557825.055,-73.730,-36.621,0.000,-66.895,0.000
1737557825.059,-17.578,-44.922,17.090,9.277,0.000
1737557825.063,26.367,-34.180,16.113,46.875,0.000
1737557825.067,-2.441,-38.086,-4.395,42.969,0.000
1737557825.071,-20.996,-47.363,-24.414,-22.461,0.000
1737557825.075,34.668,-41.016,-31.738,5.371,0.000
1737557825.079,46.875,-39.062,-38.574,99.609,0.000
1737557825.083,58.105,-32.715,-44.434,109.863,0.000
1737557825.087,72.754,-28.320,-62.988,37.598,0.000
1737557825.090,43.457,-31.738,-64.941,17.578,0.000
1737557825.094,34.668,-32.227,-33.691,39.551,0.000
1737557825.098,82.520,-32.227,-22.949,66.406,0.000
1737557825.102,100.098,-29.785,-36.621,105.469,0.000
1737557825.106,55.176,-27.344,-52.246,97.656,0.000
1737557825.110,31.250,-20.020,-65.430,69.336,0.000
1737557825.114,52.246,-17.578,-62.012,61.035,0.000
1737557825.118,87.891,-20.508,-58.105,59.570,0.000
1737557825.122,103.516,-25.879,-55.664,81.543,0.000
1737557825.126,62.500,-26.367,-58.594,67.871,0.000
1737557825.130,23.438,-28.320,-65.918,12.207,0.000
1737557825.133,29.785,-24.414,-61.523,5.371,0.000
1737557825.137,56.641,-17.090,-66.895,31.738,0.000
1737557825.141,87.402,-15.625,-65.918,68.359,0.000
1737557825.145,52.246,-17.090,-51.270,37.109,0.000
1737557825.149,0.488,-20.996,-48.340,29.297,0.000
1737557825.153,5.859,-20.020,-54.199,48.828,0.000
1737557825.157,32.227,-10.742,-46.387,23.926,0.000
1737557825.161,62.012,-9.766,-41.504,54.199,0.000
1737557825.165,52.246,-14.648,-59.570,104.980,0.000
1737557825.169,30.762,-18.555,-65.430,48.828,0.000
1737557825.172,15.625,-22.461,-57.129,-0.488,0.000
1737557825.176,10.742,-22.949,-49.316,26.367,0.000
1737557825.180,44.922,-19.043,-39.551,54.199,0.000
1737557825.184,36.133,-22.949,-53.223,63.477,0.000
1737557825.188,2.441,-20.996,-67.383,8.789,0.000
1737557825.192,-13.672,-22.949,-46.387,-13.184,0.000
1737557825.196,-22.461,-26.367,-42.969,30.762,0.000
1737557825.200,20.508,-22.949,-51.270,63.965,0.000
1737557825.204,40.527,-29.297,-64.941,72.754,0.000
1737557825.208,-12.695,-34.180,-64.941,13.184,0.000
1737557825.212,-28.320,-34.668,-29.297,-22.949,0.000
1737557825.215,2.441,-29.785,-17.578,4.883,0.000
1737557825.219,29.297,-29.297,-35.645,19.531,0.000
1737557825.223,43.457,-27.832,-40.527,40.527,0.000
1737557825.227,0.000,-27.344,-29.785,41.016,0.000
1737557825.231,0.000,-29.297,-28.320,1.953,0.000
1737557825.235,0.000,-24.902,-44.922,-6.348,0.000
1737557825.239,0.000,-22.949,-50.781,13.184,0.000
1737557825.243,0.000,-20.508,-31.250,36.133,0.000
1737557825.247,0.000,-21.484,-23.438,23.438,0.000
1737557825.251,0.000,-19.531,-30.273,-5.859,0.000
1737557825.255,0.000,-19.043,-30.762,-23.926,0.000
1737557825.258,0.000,-21.484,-24.414,11.719,0.000
1737557825.262,0.000,-18.555,-31.250,23.438,0.000
1737557825.266,0.000,-19.531,-43.945,-9.277,0.000
1737557825.270,0.000,-20.996,-51.270,-32.715,0.000
1737557825.274,0.000,-19.531,-51.270,-24.414,0.000
1737557825.278,-41.016,-10.742,-41.016,23.926,0.000
1737557825.282,-36.621,-11.719,-22.949,46.875,0.000
1737557825.286,2.930,-20.508,-23.926,5.371,0.000
1737557825.290,10.742,-30.273,-42.480,-38.086,0.000
1737557825.294,-9.277,-30.273,-39.551,-32.227,0.000
1737557825.298,-16.113,-21.484,-26.855,1.953,0.000
1737557825.301,-9.766,-26.367,-31.250,19.531,0.000
1737557825.305,9.277,-25.879,-38.086,2.441,0.000
1737557825.309,8.301,-23.926,-40.527,-25.879,0.000
1737557825.313,-36.621,-34.180,-23.438,-21.973,0.000
1737557825.317,-58.105,-35.645,-21.484,0.488,0.000
1737557825.321,-39.062,-26.367,-39.062,-0.977,0.000
1737557825.325,-4.883,-16.602,-33.203,-27.344,0.000
1737557825.329,-36.621,-17.090,-32.227,-18.066,0.000
1737557825.333,-62.500,-22.461,-53.223,-24.414,0.000
1737557825.337,-42.969,-27.344,-50.781,-24.414,0.000
1737557825.340,1.953,-26.367,-41.992,21.484,0.000
1737557825.344,0.977,-25.391,-37.598,37.598,0.000
1737557825.348,-36.621,-26.855,-24.414,13.184,0.000
1737557825.352,-47.363,-28.320,-27.832,-36.621,0.000
1737557825.356,-20.996,-23.926,-32.227,-56.152,0.000
1737557825.360,17.090,-10.742,-23.438,-37.598,0.000
1737557825.364,2.930,-13.672,-10.742,-4.395,0.000
1737557825.368,-34.668,-22.949,-13.672,-17.090,0.000
1737557825.372,-57.617,-24.414,-23.926,-40.527,0.000
1737557825.376,-47.363,-23.438,-30.762,-18.066,0.000
1737557825.380,-13.672,-17.090,-46.387,-4.395,0.000
1737557825.383,-2.930,-11.230,-48.828,18.066,0.000
1737557825.387,-16.113,-14.648,-49.805,8.789,0.000
1737557825.391,-27.832,-13.672,-50.293,-29.297,0.000
1737557825.395,-31.738,-17.090,-38.574,-46.387,0.000
1737557825.399,-18.066,-21.484,-28.320,-0.977,0.000
1737557825.403,4.395,-22.949,-12.207,7.324,0.000
1737557825.407,-15.625,-24.902,-21.973,-42.969,0.000
1737557825.411,-36.621,-18.555,-32.715,-33.203,0.000
1737557825.415,-24.414,-12.207,-18.555,-19.043,0.000
1737557825.419,14.160,-12.207,-15.137,23.438,0.000
1737557825.423,40.039,-15.137,-22.949,60.059,0.000
1737557825.426,4.883,-21.484,-32.715,29.297,0.000
1737557825.430,-55.664,-26.855,-38.574,-35.645,0.000
1737557825.434,-45.898,-23.926,-27.344,-64.453,0.000
1737557825.438,29.785,-14.160,-12.207,-16.113,0.000
1737557825.442,32.715,-15.137,-16.602,18.066,0.000
1737557825.446,-18.555,-22.949,-25.391,-1.953,0.000
1737557825.450,-47.852,-23.438,-18.066,-28.320,0.000
1737557825.454,-61.035,-22.949,-18.066,-45.410,0.000
1737557825.458,-21.973,-22.461,-38.086,-21.973,0.000
1737557825.462,-9.766,-26.855,-54.199,22.461,0.000
1737557825.465,-29.785,-29.297,-40.039,6.348,0.000
1737557825.469,-28.320,-25.391,-8.301,-18.066,0.000
1737557825.473,-30.273,-24.902,9.766,-9.766,0.000
1737557825.477,-5.371,-23.926,-11.230,-12.207,0.000
1737557825.481,14.160,-19.531,-30.273,17.090,0.000
1737557825.485,-11.230,-20.508,-29.785,32.715,0.000
1737557825.489,-41.016,-22.949,-30.273,-26.367,0.000
1737557825.493,-41.992,-21.484,-39.062,-39.551,0.000
1737557825.497,-10.742,-24.414,-40.039,-20.020,0.000
