timestamps,TP9,AF7,AF8,TP10,Right AUX
1737554049.556,-1000.000,-10.254,-29.297,58.594,0.000
1737554049.560,-1000.000,-13.184,-43.457,17.090,0.000
1737554049.564,-1000.000,-30.273,-48.828,-118.164,0.000
1737554049.568,-1000.000,-32.715,-25.391,-3.906,0.000
1737554049.572,-1000.000,-13.184,-20.508,47.363,0.000
1737554049.576,-1000.000,-4.395,-39.062,-241.211,0.000
1737554049.580,-1000.000,-3.906,-44.434,-391.113,0.000
1737554049.584,-1000.000,-30.762,-17.090,-384.277,0.000
1737554049.587,-954.102,-44.434,4.395,-376.953,0.000
1737554049.591,-1000.000,-32.227,-27.344,-179.199,0.000
1737554049.595,-447.266,-20.020,-33.691,21.484,0.000
1737554049.599,-173.340,-2.930,-11.719,41.504,0.000
1737554049.603,-1000.000,-7.324,-15.137,96.680,0.000
1737554049.607,-937.988,-7.324,-5.859,146.973,0.000
1737554049.611,-1000.000,-18.555,-7.324,165.527,0.000
1737554049.615,-406.738,-20.996,-30.273,176.758,0.000
1737554049.619,514.648,-6.836,-35.156,192.383,0.000
1737554049.623,-742.676,-19.043,-26.367,154.785,0.000
1737554049.626,-1000.000,-38.086,-11.230,179.199,0.000
1737554049.630,-957.031,-19.531,-18.066,183.594,0.000
1737554049.634,-938.477,1.953,-43.945,251.465,0.000
1737554049.638,-855.469,-6.836,-27.832,36.621,0.000
1737554049.642,-989.258,-25.879,-15.625,-258.301,0.000
1737554049.646,-962.891,-20.508,-17.578,-301.270,0.000
1737554049.650,-1000.000,-28.320,-17.578,-162.598,0.000
1737554049.654,-8.789,-36.621,-24.414,86.914,0.000
1737554049.658,999.512,-22.949,-18.066,196.777,0.000
1737554049.662,-322.266,-27.344,-22.949,157.227,0.000
1737554049.666,-1000.000,-33.203,-17.578,-16.602,0.000
1737554049.669,-931.641,-26.367,-18.555,-73.730,0.000
1737554049.673,-1000.000,-16.113,-52.734,-2.930,0.000
1737554049.677,159.180,-14.648,-39.551,-0.488,0.000
1737554049.681,98.145,-41.504,-17.578,49.316,0.000
1737554049.685,-1000.000,-46.387,-16.602,-19.043,0.000
1737554049.689,-1000.000,-0.488,-12.695,-149.902,0.000
1737554049.693,-231.445,3.906,-15.625,-102.051,0.000
1737554049.697,999.512,-11.230,-14.648,-34.180,0.000
1737554049.701,139.160,-20.020,-20.996,-14.160,0.000
1737554049.705,-1000.000,-29.297,-18.555,18.555,0.000
1737554049.709,-980.469,-21.973,-10.742,58.594,0.000
1737554049.712,-981.445,-26.855,-40.527,-23.926,0.000
1737554049.716,402.344,-42.969,-56.641,26.855,0.000
1737554049.720,320.312,-23.926,-32.227,182.617,0.000
1737554049.724,-1000.000,-8.301,-12.695,96.191,0.000
1737554049.728,-953.125,-8.301,-12.207,4.395,0.000
1737554049.732,-1000.000,-14.648,-19.043,79.590,0.000
1737554049.736,99.609,-23.438,-22.461,127.441,0.000
1737554049.740,296.387,-29.785,-25.391,-69.824,0.000
1737554049.744,-1000.000,-32.227,-20.508,-43.945,0.000
1737554049.748,-1000.000,-27.832,-23.438,79.102,0.000
1737554049.752,-538.086,-25.391,-41.016,-26.855,0.000
1737554049.755,973.633,-14.648,-43.457,-35.156,0.000
1737554049.759,594.238,-22.949,-22.461,37.109,0.000
1737554049.763,-833.008,-30.762,-25.391,65.918,0.000
1737554049.767,-1000.000,-25.879,-20.508,16.113,0.000
1737554049.771,-773.926,-24.414,-1.953,12.207,0.000
1737554049.775,562.500,-11.230,-12.207,-45.410,0.000
1737554049.779,999.512,-16.113,-14.648,46.875,0.000
1737554049.783,-341.797,-25.391,-24.414,74.219,0.000
1737554049.787,-1000.000,-18.555,-47.363,15.625,0.000
1737554049.791,-264.648,-8.301,-42.480,-124.512,0.000
1737554049.795,991.211,0.488,-32.227,-306.152,0.000
1737554049.798,999.512,-7.324,-21.973,-280.762,0.000
1737554049.802,-123.047,-23.438,-5.859,-297.852,0.000
1737554049.806,-1000.000,-28.809,-6.836,-400.391,0.000
1737554049.810,-282.227,-28.320,-13.672,-196.777,0.000
1737554049.814,936.035,-29.297,-27.344,296.387,0.000
1737554049.818,999.512,-37.109,-25.879,316.895,0.000
1737554049.822,608.887,-30.762,-17.578,228.027,0.000
1737554049.826,-870.117,-11.230,-27.344,178.223,0.000
1737554049.830,-743.652,-12.207,-21.484,78.613,0.000
1737554049.834,688.477,-15.137,-20.020,-26.855,0.000
1737554049.837,999.512,-18.555,-38.086,53.711,0.000
1737554049.841,473.633,-30.273,-25.391,166.992,0.000
1737554049.845,-977.051,-31.250,-8.789,176.270,0.000
1737554049.849,-707.520,-24.414,-11.230,12.207,0.000
1737554049.853,688.477,-28.320,0.000,-370.605,0.000
1737554049.857,999.512,-30.273,-12.695,-391.602,0.000
1737554049.861,524.414,-5.859,-19.043,-384.766,0.000
1737554049.865,-926.270,3.418,-11.230,-312.500,0.000
1737554049.869,-811.523,4.883,-28.809,-37.598,0.000
1737554049.873,626.465,-3.418,-32.227,78.125,0.000
1737554049.877,999.512,-43.945,-22.949,113.281,0.000
1737554049.880,849.609,-59.082,-20.508,110.352,0.000
1737554049.884,-385.254,-24.414,-25.391,110.840,0.000
1737554049.888,-1000.000,0.000,-18.066,99.121,0.000
1737554049.892,172.363,-6.836,-17.578,83.984,0.000
1737554049.896,999.512,-8.301,-20.020,103.516,0.000
1737554049.900,671.387,-25.391,-6.348,-25.879,0.000
1737554049.904,-770.996,-24.414,-9.277,-166.992,0.000
1737554049.908,-945.801,-7.812,-14.160,24.414,0.000
1737554049.912,527.832,-22.949,-22.461,36.133,0.000
1737554049.916,999.512,-27.344,-25.879,74.707,0.000
1737554049.919,999.512,-20.020,-19.043,87.891,0.000
1737554049.923,209.961,-10.254,-30.273,56.641,0.000
1737554049.927,-1000.000,-6.836,-26.855,104.980,0.000
1737554049.931,-141.113,-0.488,-12.207,84.961,0.000
1737554049.935,999.512,-11.230,-20.996,64.453,0.000
1737554049.939,999.512,-19.043,-34.668,54.199,0.000
1737554049.943,167.480,-20.508,-37.109,74.707,0.000
1737554049.947,-1000.000,-30.762,-27.832,138.672,0.000
1737554049.951,-54.199,-29.785,-10.742,167.969,0.000
1737554049.955,999.512,-27.832,-5.859,192.383,0.000
1737554049.959,999.512,-17.578,-15.625,258.301,0.000
1737554049.962,207.031,-17.090,-30.273,128.418,0.000
1737554049.966,-1000.000,-12.207,-41.504,83.984,0.000
1737554049.970,-388.184,-7.812,-25.391,72.754,0.000
1737554049.974,908.691,-11.230,-16.602,-177.246,0.000
1737554049.978,999.512,-10.254,-24.414,-243.652,0.000
1737554049.982,257.812,-20.996,-30.273,-121.582,0.000
1737554049.986,-1000.000,-32.227,-27.832,76.172,0.000
1737554049.990,-193.359,-30.762,-22.949,106.934,0.000
1737554049.994,999.512,-23.926,-19.531,75.195,0.000
1737554049.998,999.512,-9.277,-15.137,-1.465,0.000
1737554050.002,689.453,-18.555,-19.531,80.078,0.000
1737554050.005,-821.289,-38.574,-29.297,94.238,0.000
1737554050.009,-623.535,-31.738,-34.668,85.449,0.000
1737554050.013,871.582,-0.977,-25.879,124.512,0.000
1737554050.017,988.281,-5.859,-5.859,116.699,0.000
1737554050.021,992.188,-23.926,-21.484,57.617,0.000
1737554050.025,-299.805,-21.973,-29.297,-35.645,0.000
1737554050.029,-696.289,-25.391,-17.578,25.391,0.000
1737554050.033,855.469,-19.043,-31.250,36.621,0.000
1737554050.037,999.512,-24.414,-31.738,3.418,0.000
1737554050.041,977.539,-38.086,-30.273,-19.043,0.000
1737554050.044,701.660,-22.461,-27.832,-65.918,0.000
1737554050.048,569.824,-5.859,-10.742,-83.008,0.000
1737554050.052,967.285,-11.230,1.465,14.160,0.000
1737554050.056,958.008,-12.207,-7.812,10.742,0.000
1737554050.060,999.512,-29.297,-33.203,-48.828,0.000
1737554050.064,-216.309,-41.016,-38.086,65.918,0.000
1737554050.068,-1000.000,-13.184,-14.160,130.859,0.000
1737554050.072,409.180,-8.789,7.324,6.836,0.000
1737554050.076,999.512,5.859,3.906,-69.336,0.000
1737554050.080,882.324,9.766,-3.906,-6.348,0.000
1737554050.084,999.512,-10.254,-13.184,34.668,0.000
1737554050.087,-136.230,-9.766,-22.461,-99.609,0.000
1737554050.091,-316.895,-3.906,-26.367,-78.125,0.000
1737554050.095,999.512,8.301,-21.484,-22.949,0.000
1737554050.099,999.512,-11.230,-19.531,6.836,0.000
1737554050.103,-129.883,-4.883,-20.508,98.145,0.000
1737554050.107,-1000.000,12.695,-19.043,138.184,0.000
1737554050.111,-665.527,15.625,-21.973,162.598,0.000
1737554050.115,880.859,25.391,-17.090,-48.340,0.000
1737554050.119,522.949,13.184,-14.648,-294.434,0.000
1737554050.123,-977.539,4.883,-12.695,-269.531,0.000
1737554050.127,-977.051,11.230,-12.695,-107.422,0.000
1737554050.130,-1000.000,8.789,-28.320,-37.598,0.000
1737554050.134,-148.438,-3.906,-67.871,5.371,0.000
1737554050.138,999.512,12.695,-62.500,55.176,0.000
1737554050.142,241.699,45.898,-4.883,43.457,0.000
1737554050.146,-1000.000,31.250,14.648,52.246,0.000
1737554050.150,-266.113,22.949,17.090,59.570,0.000
1737554050.154,999.512,49.805,12.695,149.414,0.000
1737554050.158,957.031,54.688,-15.625,128.418,0.000
1737554050.162,937.500,23.438,-34.180,40.527,0.000
1737554050.166,978.516,20.508,-20.508,24.414,0.000
1737554050.170,969.727,34.668,-15.137,119.629,0.000
1737554050.173,969.727,12.207,-13.184,157.227,0.000
1737554050.177,970.215,-1.465,-18.555,75.195,0.000
1737554050.181,970.215,27.832,-22.461,62.500,0.000
1737554050.185,970.215,16.602,-11.719,122.559,0.000
1737554050.189,970.215,-9.277,-10.254,89.844,0.000
1737554050.193,970.215,9.766,-36.621,29.297,0.000
1737554050.197,970.215,0.488,-35.645,23.926,0.000
1737554050.201,969.727,-40.039,-25.879,43.457,0.000
1737554050.205,970.215,-37.109,-29.785,32.227,0.000
1737554050.209,974.121,-23.926,-19.043,-60.059,0.000
1737554050.212,952.148,-25.879,-30.762,-108.398,0.000
1737554050.216,941.895,-21.484,-27.344,0.000,0.000
1737554050.220,999.512,-32.227,-18.555,62.012,0.000
1737554050.224,-25.391,-32.227,-37.598,94.727,0.000
1737554050.228,-1000.000,-25.391,-48.340,-31.250,0.000
1737554050.232,-95.215,-28.809,-41.016,-306.152,0.000
1737554050.236,999.512,-26.855,-41.504,-263.672,0.000
1737554050.240,954.590,-24.414,-34.180,-56.152,0.000
1737554050.244,916.016,-27.344,-12.695,38.086,0.000
1737554050.248,874.512,-37.598,-21.973,54.688,0.000
1737554050.251,895.996,-48.340,-32.715,129.883,0.000
1737554050.255,999.512,-55.176,-30.273,144.531,0.000
1737554050.259,641.602,-51.270,-40.039,82.031,0.000
1737554050.263,-672.363,-37.109,-29.785,-90.332,0.000
1737554050.267,-1000.000,-34.180,-14.160,-303.711,0.000
1737554050.271,-430.664,-39.551,-17.578,-299.805,0.000
1737554050.275,848.145,-41.016,-39.551,-391.113,0.000
1737554050.279,999.512,-42.480,-42.480,-323.242,0.000
1737554050.283,892.578,-62.988,-31.738,189.453,0.000
1737554050.287,-445.312,-58.105,-22.949,259.766,0.000
1737554050.291,-483.398,-40.527,-12.695,114.746,0.000
1737554050.294,948.730,-46.387,-24.414,166.016,0.000
1737554050.298,999.512,-34.668,-39.062,135.254,0.000
1737554050.302,152.832,-39.551,-29.785,107.422,0.000
1737554050.306,-1000.000,-56.641,-30.762,-18.066,0.000
1737554050.310,-785.645,-39.551,-32.715,-266.113,0.000
1737554050.314,519.043,-25.879,-29.785,-250.000,0.000
1737554050.318,999.512,-35.645,-32.227,-166.992,0.000
1737554050.322,86.914,-44.922,-25.391,-275.391,0.000
1737554050.326,-1000.000,-42.969,-23.926,-350.098,0.000
1737554050.330,-960.938,-47.852,-7.812,-239.258,0.000
1737554050.334,257.324,-51.758,2.930,-38.086,0.000
1737554050.337,999.512,-47.852,-0.488,-132.812,0.000
1737554050.341,85.449,-38.574,-5.859,-285.156,0.000
1737554050.345,-1000.000,-38.574,-19.043,-121.094,0.000
1737554050.349,-844.727,-48.340,-18.555,143.066,0.000
1737554050.353,409.668,-35.645,-13.672,102.539,0.000
1737554050.357,999.512,-15.625,-23.926,-1.953,0.000
1737554050.361,449.219,-18.555,-27.832,-45.898,0.000
1737554050.365,-894.043,-19.531,-18.555,41.504,0.000
1737554050.369,-1000.000,-21.973,-2.441,64.941,0.000
1737554050.373,235.840,-26.855,-2.441,75.195,0.000
1737554050.376,999.512,-43.945,-31.738,98.633,0.000
1737554050.380,884.766,-51.758,-38.574,121.094,0.000
1737554050.384,-340.820,-41.504,-18.555,219.238,0.000
1737554050.388,-1000.000,-41.504,-15.625,177.734,0.000
1737554050.392,208.496,-33.691,-13.184,130.371,0.000
1737554050.396,999.512,-20.508,-19.531,144.531,0.000
1737554050.400,991.699,-15.137,-32.227,75.195,0.000
1737554050.404,-30.762,-30.762,-31.250,100.098,0.000
1737554050.408,-1000.000,-39.551,-23.438,192.383,0.000
1737554050.412,-82.520,-19.531,-13.184,249.512,0.000
1737554050.416,999.512,-17.090,-11.230,269.531,0.000
1737554050.419,999.512,-34.668,-22.461,196.289,0.000
1737554050.423,30.273,-43.945,-20.996,-41.504,0.000
1737554050.427,-1000.000,-52.734,-23.438,-91.309,0.000
1737554050.431,-167.969,-33.203,-20.508,79.590,0.000
1737554050.435,999.512,-14.160,-15.625,162.598,0.000
1737554050.439,999.512,-18.555,-20.508,118.164,0.000
1737554050.443,144.043,-16.113,-25.391,144.043,0.000
1737554050.447,-1000.000,-26.367,-5.371,135.254,0.000
1737554050.451,-294.434,-47.363,-8.789,38.574,0.000
1737554050.455,950.195,-34.180,-15.137,-95.215,0.000
1737554050.459,999.512,-19.531,-9.277,-89.844,0.000
1737554050.462,442.871,-14.160,-16.602,62.500,0.000
1737554050.466,-1000.000,-11.719,-16.602,23.438,0.000
1737554050.470,-522.949,-40.039,-22.949,53.223,0.000
1737554050.474,884.766,-41.504,-25.391,112.793,0.000
1737554050.478,999.512,-16.113,-27.344,-63.477,0.000
1737554050.482,146.484,-18.555,-18.066,-283.691,0.000
1737554050.486,-1000.000,-34.668,-11.719,-67.383,0.000
1737554050.490,-411.621,-35.645,-19.043,159.668,0.000
1737554050.494,887.207,-41.016,-27.832,51.758,0.000
1737554050.498,999.512,-22.461,-31.738,43.945,0.000
1737554050.502,312.500,-11.719,-24.902,-93.262,0.000
1737554050.505,-1000.000,-31.250,-39.062,-157.227,0.000
1737554050.509,-516.113,-35.645,-40.527,80.078,0.000
1737554050.513,898.926,-17.578,-11.719,68.359,0.000
1737554050.517,967.285,-10.742,-5.859,-68.848,0.000
1737554050.521,999.512,-43.457,-22.949,8.301,0.000
1737554050.525,-54.688,-44.434,-27.344,-109.863,0.000
1737554050.529,-1000.000,-23.926,-21.973,-331.055,0.000
1737554050.533,182.617,-20.508,-22.461,-242.676,0.000
1737554050.537,999.512,-22.461,-31.250,-352.539,0.000
1737554050.541,563.965,-26.855,-35.156,-436.523,0.000
1737554050.545,-887.695,-21.484,-23.926,48.340,0.000
1737554050.548,-812.500,-22.949,-27.832,335.938,0.000
1737554050.552,638.672,-34.180,-32.715,282.227,0.000
1737554050.556,999.512,-36.133,-28.809,226.074,0.000
1737554050.560,949.707,-21.973,-30.762,165.039,0.000
1737554050.564,-91.797,-23.926,-28.809,196.289,0.000
1737554050.568,-1000.000,-20.996,-39.551,212.402,0.000
1737554050.572,-182.617,-5.371,-19.043,201.172,0.000
1737554050.576,999.512,-11.719,-0.977,-89.844,0.000
1737554050.580,675.781,-30.273,-7.324,-309.082,0.000
1737554050.584,-647.949,-26.367,-4.395,-132.324,0.000
1737554050.587,-1000.000,-14.160,-5.371,43.945,0.000
1737554050.591,-132.812,-8.301,-1.953,37.598,0.000
1737554050.595,999.512,16.602,1.953,36.133,0.000
1737554050.599,916.016,10.742,-8.789,79.590,0.000
1737554050.603,-272.461,-19.043,-24.414,8.789,0.000
1737554050.607,-1000.000,1.953,-25.391,35.645,0.000
1737554050.611,-644.531,25.879,-19.531,79.590,0.000
1737554050.615,799.805,25.391,-20.996,-43.457,0.000
1737554050.619,799.805,27.832,-25.391,-134.766,0.000
1737554050.623,-704.590,15.137,-18.066,17.090,0.000
1737554050.627,-1000.000,21.973,-15.625,78.125,0.000
1737554050.630,-939.941,23.438,-17.578,10.742,0.000
1737554050.634,-1000.000,27.832,-15.625,47.363,0.000
1737554050.638,-1000.000,27.832,-19.043,80.078,0.000
1737554050.642,-1000.000,3.418,-30.273,62.012,0.000
1737554050.646,-931.152,-33.691,-54.688,12.207,0.000
1737554050.650,-1000.000,5.859,-66.895,-90.332,0.000
1737554050.654,-562.500,100.586,-28.320,-76.660,0.000
1737554050.658,977.051,129.395,15.137,32.715,0.000
1737554050.662,677.734,117.188,27.344,56.152,0.000
1737554050.666,-986.816,119.629,0.977,-187.500,0.000
1737554050.669,-555.664,144.531,-30.762,-171.875,0.000
1737554050.673,941.895,165.527,-48.340,79.590,0.000
1737554050.677,995.605,163.086,-20.996,118.652,0.000
1737554050.681,919.922,145.996,2.930,104.980,0.000
1737554050.685,983.398,136.719,-2.930,90.820,0.000
1737554050.689,970.215,113.281,-12.207,47.852,0.000
1737554050.693,970.215,95.703,-24.414,-1.465,0.000
1737554050.697,969.727,121.582,-40.527,7.812,0.000
1737554050.701,969.727,127.930,-44.922,-32.227,0.000
1737554050.705,970.215,108.398,-33.203,26.855,0.000
1737554050.709,970.215,93.750,-31.250,163.574,0.000
1737554050.712,970.215,84.473,-42.969,248.047,0.000
1737554050.716,970.215,72.266,-50.293,235.352,0.000
1737554050.720,969.727,70.312,-51.270,151.367,0.000
1737554050.724,970.215,79.590,-51.758,152.344,0.000
1737554050.728,973.145,50.781,-34.180,-29.785,0.000
1737554050.732,904.297,24.902,-11.719,-103.516,0.000
1737554050.736,999.512,52.246,-27.344,149.902,0.000
1737554050.740,225.586,49.316,-38.574,157.715,0.000
1737554050.744,-997.070,15.625,-33.203,183.594,0.000
1737554050.748,-1000.000,20.020,-28.320,187.500,0.000
1737554050.752,-728.027,31.738,-22.461,87.402,0.000
1737554050.755,678.711,15.137,-29.297,43.457,0.000
1737554050.759,953.125,16.602,-39.551,18.555,0.000
1737554050.763,-493.164,21.973,-41.504,-41.504,0.000
1737554050.767,-1000.000,0.488,-30.273,-79.590,0.000
1737554050.771,-1000.000,-12.207,-33.691,-91.797,0.000
1737554050.775,-41.992,-5.371,-41.504,-29.297,0.000
1737554050.779,999.512,-4.395,-41.992,27.344,0.000
1737554050.783,-251.953,-10.254,-39.062,-41.016,0.000
1737554050.787,-1000.000,-17.578,-26.367,-20.508,0.000
1737554050.791,-971.680,-24.902,-9.766,24.414,0.000
1737554050.794,160.645,-19.043,-2.441,53.223,0.000
1737554050.798,999.512,-10.254,-11.230,87.891,0.000
1737554050.802,-130.859,-3.418,-19.531,106.445,0.000
1737554050.806,-1000.000,-6.348,-25.879,92.285,0.000
1737554050.810,-1000.000,-19.043,-31.738,115.723,0.000
1737554050.814,-219.727,-24.414,-27.832,70.312,0.000
1737554050.818,999.512,-28.809,-21.973,35.645,0.000
1737554050.822,89.355,-38.574,-20.020,-49.805,0.000
1737554050.826,-1000.000,-31.250,-22.461,-109.863,0.000
1737554050.830,-1000.000,-13.672,-34.180,19.043,0.000
1737554050.834,-141.113,-2.930,-38.574,56.152,0.000
1737554050.837,999.512,0.000,-26.855,112.305,0.000
1737554050.841,306.152,-8.789,-14.648,94.727,0.000
1737554050.845,-979.492,-22.461,-10.742,-68.848,0.000
1737554050.849,-1000.000,-35.156,-16.113,-72.754,0.000
1737554050.853,-113.770,-30.273,-20.020,-53.223,0.000
1737554050.857,999.512,-20.020,-18.555,-49.316,0.000
1737554050.861,927.246,-9.277,-31.250,-84.961,0.000
1737554050.865,-349.121,-21.484,-19.531,0.488,0.000
1737554050.869,-1000.000,-22.949,6.836,63.477,0.000
1737554050.873,378.906,-2.930,-18.066,-223.633,0.000
1737554050.877,999.512,-1.953,-55.664,-337.891,0.000
1737554050.880,999.512,-7.812,-28.320,-180.664,0.000
1737554050.884,202.637,-30.762,7.324,60.059,0.000
1737554050.888,-1000.000,-30.273,5.859,56.152,0.000
1737554050.892,71.777,-15.625,-3.906,19.531,0.000
1737554050.896,999.512,-16.602,-16.113,173.340,0.000
1737554050.900,902.832,-18.066,-14.648,152.832,0.000
1737554050.904,999.512,-27.832,-3.418,159.668,0.000
1737554050.908,49.316,-22.949,-22.461,155.273,0.000
1737554050.912,-62.500,-14.648,-22.461,49.805,0.000
1737554050.916,999.512,-28.320,-11.230,-62.500,0.000
1737554050.920,999.512,-19.043,-17.578,-26.367,0.000
1737554050.923,-118.652,-27.832,-27.344,46.875,0.000
1737554050.927,-1000.000,-32.715,-32.715,133.301,0.000
1737554050.931,-367.188,-3.906,-27.832,37.598,0.000
1737554050.935,886.230,7.324,-20.508,-120.605,0.000
1737554050.939,999.512,4.395,-12.207,26.367,0.000
1737554050.943,299.316,-19.043,-21.484,129.395,0.000
1737554050.947,-1000.000,-37.109,-26.367,15.625,0.000
1737554050.951,-530.273,-20.996,-23.926,-84.473,0.000
1737554050.955,821.289,-12.695,-17.090,56.152,0.000
1737554050.959,999.512,-27.832,-11.719,91.797,0.000
1737554050.963,445.801,-20.020,-19.043,22.461,0.000
1737554050.966,-1000.000,-20.020,-14.648,187.012,0.000
1737554050.970,-617.188,-15.625,-8.301,139.648,0.000
1737554050.974,774.902,-0.488,-16.113,69.336,0.000
1737554050.978,999.512,-1.465,-19.043,213.379,0.000
1737554050.982,565.918,-1.465,-18.555,40.527,0.000
1737554050.986,-890.625,10.742,-18.555,-98.633,0.000
1737554050.990,-804.199,18.555,-25.879,80.078,0.000
1737554050.994,620.605,21.484,-35.156,72.754,0.000
1737554050.998,999.512,31.738,-28.320,35.156,0.000
1737554051.002,195.801,29.297,-18.555,9.766,0.000
1737554051.005,-991.211,18.555,-19.043,-140.137,0.000
1737554051.009,-1000.000,23.438,-31.250,-73.242,0.000
1737554051.013,-901.367,44.922,-31.250,0.488,0.000
1737554051.017,535.156,34.668,-22.461,-12.207,0.000
1737554051.021,258.789,3.418,-27.832,-11.230,0.000
1737554051.025,-1000.000,18.555,-22.949,-26.855,0.000
1737554051.029,-1000.000,34.668,-35.645,20.508,0.000
1737554051.033,-333.984,22.461,-55.176,10.254,0.000
1737554051.037,908.691,33.203,-20.996,-105.957,0.000
1737554051.041,999.512,52.246,15.625,-8.789,0.000
1737554051.045,131.348,47.363,27.344,91.797,0.000
1737554051.048,-1000.000,33.691,14.648,59.082,0.000
1737554051.052,335.449,27.344,-7.324,23.926,0.000
1737554051.056,999.512,35.645,-4.395,69.824,0.000
1737554051.060,903.809,43.457,0.000,27.344,0.000
1737554051.064,972.656,38.086,-34.668,-90.820,0.000
1737554051.068,970.703,24.414,-29.785,-41.992,0.000
1737554051.072,973.145,8.789,-4.395,35.156,0.000
1737554051.076,941.895,4.395,9.277,-1.953,0.000
1737554051.080,999.512,-12.207,2.441,-162.598,0.000
1737554051.084,755.859,-17.090,-14.648,-183.105,0.000
1737554051.087,448.242,17.578,-13.672,-93.750,0.000
1737554051.091,907.227,24.902,-14.648,-74.219,0.000
1737554051.095,999.512,0.977,-18.555,-25.391,0.000
1737554051.099,945.312,-6.836,-35.156,-152.344,0.000
1737554051.103,975.586,-9.277,-29.785,-150.391,0.000
1737554051.107,969.727,-12.207,-12.695,-116.211,0.000
1737554051.111,969.727,-23.438,-23.926,-148.926,0.000
1737554051.115,970.215,-36.621,-34.668,-126.953,0.000
1737554051.119,969.727,-34.668,-31.250,21.484,0.000
1737554051.123,969.727,-39.062,-38.086,124.512,0.000
1737554051.127,970.215,-38.086,-38.574,67.383,0.000
1737554051.130,969.727,-30.762,-29.297,-263.672,0.000
1737554051.134,969.727,-30.762,-35.645,-379.395,0.000
1737554051.138,970.215,-33.691,-30.762,14.648,0.000
1737554051.142,969.727,-35.645,-20.020,147.461,0.000
1737554051.146,969.727,-31.250,-27.832,114.258,0.000
1737554051.150,980.957,-39.551,-34.180,150.879,0.000
1737554051.154,917.480,-43.945,-19.043,147.461,0.000
1737554051.158,999.512,-45.898,-14.160,165.527,0.000
1737554051.162,827.148,-46.387,-26.855,2.930,0.000
1737554051.166,-708.496,-56.641,-26.855,-186.523,0.000
1737554051.170,-676.270,-49.316,-19.043,-58.105,0.000
1737554051.173,886.230,-33.691,-17.578,142.578,0.000
1737554051.177,937.500,-33.203,-15.137,132.812,0.000
1737554051.181,999.512,-24.414,-14.648,92.773,0.000
1737554051.185,306.641,-43.457,-2.441,-29.297,0.000
1737554051.189,-705.078,-57.129,-2.441,62.500,0.000
1737554051.193,611.816,-38.086,-32.227,127.441,0.000
1737554051.197,999.512,-30.762,-42.969,1.953,0.000
1737554051.201,999.512,-34.180,-30.273,-13.184,0.000
1737554051.205,-31.250,-48.828,-25.879,-12.695,0.000
1737554051.209,-1000.000,-51.270,-18.555,6.348,0.000
1737554051.213,289.551,-54.199,-3.418,59.082,0.000
1737554051.216,999.512,-63.965,-2.930,65.430,0.000
1737554051.220,999.512,-57.129,-16.602,-187.012,0.000
1737554051.224,270.508,-27.344,-24.902,-329.590,0.000
1737554051.228,-979.004,-32.715,-18.555,-110.840,0.000
1737554051.232,315.430,-37.109,-21.484,-22.949,0.000
1737554051.236,999.512,-8.789,-19.043,-186.523,0.000
1737554051.240,902.344,-19.531,-22.949,-61.035,0.000
1737554051.244,972.168,-53.223,-41.992,187.500,0.000
1737554051.248,970.703,-52.734,-22.949,300.781,0.000
1737554051.252,970.215,-19.043,-11.230,62.012,0.000
1737554051.255,970.215,-4.395,-18.555,-143.066,0.000
1737554051.259,970.215,-30.273,-7.324,-31.250,0.000
1737554051.263,970.215,-38.574,-3.906,27.344,0.000
1737554051.267,970.215,-14.648,-22.949,58.594,0.000
1737554051.271,970.215,-6.348,-30.273,-29.297,0.000
1737554051.275,969.727,-10.742,-36.621,20.020,0.000
1737554051.279,970.215,-34.180,-55.176,110.352,0.000
1737554051.283,970.215,-42.480,-41.504,45.898,0.000
1737554051.287,970.215,-34.180,-25.391,-10.254,0.000
1737554051.291,970.215,-49.805,-24.902,111.328,0.000
1737554051.295,969.727,-46.875,-26.855,80.566,0.000
1737554051.298,970.215,-19.043,-22.949,35.156,0.000
1737554051.302,970.215,-13.184,-6.836,47.852,0.000
1737554051.306,969.727,-16.113,-8.789,18.555,0.000
1737554051.310,970.215,-9.766,-13.672,110.352,0.000
1737554051.314,970.215,-7.324,-14.648,22.949,0.000
1737554051.318,970.215,-14.648,-29.297,-173.340,0.000
1737554051.322,970.215,-18.066,-49.805,-120.117,0.000
1737554051.326,969.727,-25.391,-39.551,-36.621,0.000
1737554051.330,970.215,-34.668,-18.555,36.621,0.000
1737554051.334,970.215,-30.273,-10.742,153.320,0.000
1737554051.338,969.727,-33.203,-31.738,13.672,0.000
1737554051.341,970.215,-35.645,-44.434,-99.609,0.000
1737554051.345,970.215,-31.738,-9.766,63.477,0.000
1737554051.349,970.215,-22.461,-1.465,-22.461,0.000
1737554051.353,969.727,-21.484,-22.461,-338.867,0.000
1737554051.357,969.727,-24.902,-31.250,-445.312,0.000
1737554051.361,970.215,-29.785,-19.043,-364.746,0.000
1737554051.365,970.215,-38.086,-18.066,-155.273,0.000
1737554051.369,969.727,-26.855,-20.020,-219.727,0.000
1737554051.373,970.215,-35.645,-16.602,-166.016,0.000
1737554051.377,969.727,-27.832,-31.738,54.688,0.000
1737554051.380,969.727,6.836,-31.250,139.648,0.000
1737554051.384,970.215,-7.812,-11.719,117.188,0.000
1737554051.388,970.215,-16.602,-19.043,185.059,0.000
1737554051.392,973.145,-9.766,-24.414,239.258,0.000
1737554051.396,939.941,-11.719,-10.254,146.973,0.000
1737554051.400,999.512,-7.812,-27.832,-5.371,0.000
1737554051.404,712.402,-30.273,-35.645,-178.223,0.000
1737554051.408,454.102,-47.363,-20.508,-11.719,0.000
1737554051.412,951.660,-27.832,-26.367,100.098,0.000
1737554051.416,996.582,-11.230,-24.414,157.227,0.000
1737554051.420,948.242,-1.953,-7.812,301.758,0.000
1737554051.423,975.098,-17.090,-13.672,215.332,0.000
1737554051.427,970.215,-30.273,-15.625,154.297,0.000
1737554051.431,970.215,-11.719,-17.090,192.383,0.000
1737554051.435,969.727,-3.906,-18.555,-89.355,0.000
1737554051.439,970.215,-21.484,-1.953,-192.383,0.000
1737554051.443,970.215,-22.461,-2.441,12.207,0.000
1737554051.447,970.215,-11.719,-4.395,14.648,0.000
1737554051.451,970.215,-16.602,-16.113,50.293,0.000
1737554051.455,975.586,-26.855,-35.645,114.746,0.000
1737554051.459,921.875,-28.320,-30.762,104.980,0.000
1737554051.462,999.512,-33.203,-15.137,164.062,0.000
1737554051.466,615.234,-26.855,-17.578,-43.457,0.000
1737554051.470,31.738,-24.414,-20.020,-401.367,0.000
1737554051.474,812.500,-24.414,-18.066,-235.840,0.000
1737554051.478,999.512,-6.836,-19.531,-24.902,0.000
1737554051.482,925.781,-5.859,-25.879,36.621,0.000
1737554051.486,979.492,-9.766,-32.227,100.098,0.000
1737554051.490,970.215,-10.254,-28.320,67.383,0.000
1737554051.494,970.215,-26.855,-25.391,110.840,0.000
1737554051.498,970.215,-20.020,-22.949,93.262,0.000
1737554051.502,969.727,-18.066,-24.902,205.566,0.000
1737554051.505,969.727,-45.898,-23.438,259.277,0.000
1737554051.509,981.934,-29.297,-16.602,142.090,0.000
1737554051.513,902.832,4.883,-27.832,198.730,0.000
1737554051.517,999.512,-5.371,-20.020,248.047,0.000
1737554051.521,562.988,-22.949,-7.812,-13.672,0.000
1737554051.525,-806.641,-25.391,-24.902,-21.484,0.000
1737554051.529,-1000.000,-22.949,-26.367,131.348,0.000
1737554051.533,-12.207,-18.555,-23.438,107.422,0.000
1737554051.537,999.512,-4.395,-30.273,165.527,0.000
1737554051.541,999.512,-18.066,-18.555,57.617,0.000
1737554051.545,-86.426,-46.387,-14.648,-115.234,0.000
1737554051.548,-1000.000,-37.598,-13.672,1.953,0.000
1737554051.552,217.285,-20.020,-0.977,217.773,0.000
1737554051.556,999.512,-8.789,-13.184,193.848,0.000
1737554051.560,999.512,-0.488,-18.066,144.531,0.000
1737554051.564,571.777,-8.789,-23.438,163.086,0.000
1737554051.568,-982.910,-18.066,-42.969,125.488,0.000
1737554051.572,-254.395,-2.441,-36.133,-125.488,0.000
1737554051.576,999.512,-5.371,-28.809,-301.270,0.000
1737554051.580,941.895,-30.273,-20.996,-276.855,0.000
1737554051.584,943.359,-30.273,-12.695,-33.691,0.000
1737554051.588,976.562,-23.926,-20.996,96.191,0.000
1737554051.591,979.492,-16.113,-20.508,25.391,0.000
1737554051.595,916.992,-12.207,-13.672,81.543,0.000
1737554051.599,999.512,-17.090,-9.766,31.738,0.000
1737554051.603,755.371,-14.648,-17.090,7.812,0.000
1737554051.607,-788.574,-24.414,-24.414,21.973,0.000
1737554051.611,-359.863,-26.855,-29.297,-20.020,0.000
1737554051.615,999.512,-21.484,-26.855,-30.762,0.000
1737554051.619,956.543,-17.090,-21.484,98.145,0.000
1737554051.623,937.500,-19.531,-41.016,179.199,0.000
1737554051.627,978.516,-25.879,-43.945,132.324,0.000
1737554051.631,971.191,-19.043,-10.254,55.664,0.000
1737554051.634,970.703,-19.043,-0.488,8.789,0.000
1737554051.638,904.297,-34.180,-13.672,112.305,0.000
1737554051.642,999.512,-40.039,-5.371,148.926,0.000
1737554051.646,225.098,-25.879,-4.395,76.172,0.000
1737554051.650,-541.016,-16.113,-20.996,101.562,0.000
1737554051.654,783.203,-5.859,-21.973,133.789,0.000
1737554051.658,999.512,-8.789,-27.344,248.047,0.000
1737554051.662,999.512,-21.973,-28.809,183.594,0.000
1737554051.666,546.387,-27.344,-21.484,-60.547,0.000
1737554051.670,-660.645,-27.832,-14.648,-87.402,0.000
1737554051.673,296.875,-8.789,-9.766,-91.309,0.000
1737554051.677,999.512,-3.906,-21.973,-227.539,0.000
1737554051.681,905.273,-22.461,-26.367,-416.016,0.000
1737554051.685,973.633,-9.277,-14.160,-91.797,0.000
1737554051.689,970.215,-0.977,-12.695,175.781,0.000
1737554051.693,969.727,-18.555,-8.301,-65.918,0.000
1737554051.697,970.215,-17.090,-10.254,-140.137,0.000
1737554051.701,970.215,-7.812,-18.555,-77.148,0.000
1737554051.705,970.215,-11.230,-17.090,-58.594,0.000
1737554051.709,969.727,-29.297,-16.602,7.812,0.000
1737554051.713,970.215,-30.762,-32.715,88.379,0.000
1737554051.716,970.215,-11.230,-32.715,141.113,0.000
1737554051.720,969.727,-15.137,-18.066,5.371,0.000
1737554051.724,970.215,-10.742,-20.996,-10.742,0.000
1737554051.728,970.215,2.930,-13.184,33.691,0.000
1737554051.732,979.004,-9.277,-1.465,122.559,0.000
1737554051.736,923.828,-14.648,-18.066,174.316,0.000
1737554051.740,999.512,-14.160,-41.992,163.574,0.000
1737554051.744,853.516,-27.344,-30.273,102.539,0.000
1737554051.748,-646.484,-35.645,-8.789,20.996,0.000
1737554051.752,-270.020,-24.902,-14.160,145.996,0.000
1737554051.755,999.512,-21.484,-20.020,83.984,0.000
1737554051.759,999.512,-23.926,-15.625,-122.559,0.000
1737554051.763,271.973,-10.742,-16.602,-413.574,0.000
1737554051.767,-1000.000,-8.301,-20.508,-467.285,0.000
1737554051.771,-217.285,3.906,-33.691,-244.629,0.000
1737554051.775,999.512,10.742,-34.180,-82.520,0.000
1737554051.779,946.777,-8.789,-24.902,-70.801,0.000
1737554051.783,942.383,-29.297,-28.320,-41.016,0.000
1737554051.787,977.051,-36.133,-24.902,-17.090,0.000
1737554051.791,980.957,-25.391,-19.531,0.977,0.000
1737554051.795,902.832,-26.855,-13.672,-82.520,0.000
1737554051.798,999.512,-35.156,-11.719,-107.422,0.000
1737554051.802,576.172,-29.297,-20.996,-169.922,0.000
1737554051.806,-1000.000,-34.668,-28.320,-186.035,0.000
1737554051.810,-444.824,-37.109,-22.949,-146.484,0.000
1737554051.814,999.512,-18.555,-22.461,-87.402,0.000
1737554051.818,974.121,-4.883,-25.391,220.215,0.000
1737554051.822,927.734,-11.230,-31.250,255.859,0.000
1737554051.826,981.445,-22.949,-25.391,256.836,0.000
1737554051.830,970.215,-23.926,-16.113,24.902,0.000
1737554051.834,973.633,-23.926,-20.020,-94.238,0.000
1737554051.838,927.734,-20.020,-10.254,133.789,0.000
1737554051.841,999.512,-27.832,-6.348,180.176,0.000
1737554051.845,619.629,-35.156,-20.996,152.344,0.000
1737554051.849,159.668,-25.879,-29.297,132.812,0.000
1737554051.853,873.047,-31.738,-22.949,82.031,0.000
1737554051.857,999.512,-21.484,-12.207,120.605,0.000
1737554051.861,933.105,0.000,-5.859,190.430,0.000
1737554051.865,978.516,-2.930,-17.578,130.371,0.000
1737554051.869,977.539,-9.766,-17.090,125.488,0.000
1737554051.873,937.012,-15.137,-5.371,103.516,0.000
1737554051.877,974.609,-35.156,-6.836,48.340,0.000
1737554051.880,953.125,-34.668,-12.207,-74.707,0.000
1737554051.884,-237.793,-25.391,-9.766,-253.906,0.000
1737554051.888,-1000.000,-31.250,-8.301,-278.809,0.000
1737554051.892,-183.594,-12.695,-23.438,-288.086,0.000
1737554051.896,999.512,2.441,-36.621,-89.355,0.000
1737554051.900,956.055,-0.488,-26.367,30.762,0.000
1737554051.904,941.406,-5.859,-14.160,25.879,0.000
1737554051.908,978.027,-4.395,-5.859,55.176,0.000
1737554051.912,969.727,-18.066,-7.812,19.531,0.000
1737554051.916,909.180,-24.902,-14.160,31.738,0.000
1737554051.920,999.512,-11.719,-16.602,56.152,0.000
1737554051.923,244.629,-13.672,-16.602,95.215,0.000
1737554051.927,-1000.000,-21.484,-18.555,151.855,0.000
1737554051.931,-348.633,-21.973,-20.996,187.500,0.000
1737554051.935,964.355,-23.438,-25.879,68.359,0.000
1737554051.939,983.887,-31.250,-25.879,60.059,0.000
1737554051.943,916.992,-17.090,-25.879,160.156,0.000
1737554051.947,-489.258,-8.789,-29.297,40.039,0.000
1737554051.951,-616.211,-21.484,-21.484,133.789,0.000
1737554051.955,870.117,-14.160,-9.766,205.078,0.000
1737554051.959,999.512,5.371,-7.324,-35.156,0.000
1737554051.963,229.980,-3.906,-9.277,-312.988,0.000
1737554051.966,-1000.000,-13.184,-6.348,-165.039,0.000
1737554051.970,-515.625,-14.160,-10.742,177.734,0.000
1737554051.974,819.824,-19.043,-7.812,126.953,0.000
1737554051.978,999.512,-9.277,-11.230,124.023,0.000
1737554051.982,416.992,-10.742,-26.855,96.680,0.000
1737554051.986,-834.473,-24.414,-25.879,47.363,0.000
1737554051.990,-1000.000,-36.133,-25.879,42.480,0.000
1737554051.994,-484.863,-32.227,-27.832,-210.449,0.000
1737554051.998,999.512,-26.367,-34.180,-263.672,0.000
1737554052.002,416.504,-31.250,-34.668,-90.820,0.000
1737554052.006,-390.625,-22.949,-32.715,27.344,0.000
1737554052.009,897.949,-7.324,-40.527,78.125,0.000
1737554052.013,999.512,0.488,-13.184,75.195,0.000
1737554052.017,909.668,7.812,3.418,28.809,0.000
1737554052.021,983.398,3.418,-8.789,29.297,0.000
1737554052.025,969.727,-6.836,-8.789,49.805,0.000
1737554052.029,969.727,-15.625,-5.859,51.270,0.000
1737554052.033,969.727,-24.902,-18.555,1.953,0.000
1737554052.037,969.727,-21.484,-25.391,-3.906,0.000
1737554052.041,970.215,-12.207,-19.531,100.586,0.000
1737554052.045,970.215,-14.160,-18.066,81.055,0.000
1737554052.048,970.215,-9.277,-14.160,-26.367,0.000
1737554052.052,978.027,-24.902,-12.695,35.645,0.000
1737554052.056,902.344,-30.762,-20.020,50.781,0.000
1737554052.060,999.512,-10.254,-23.926,-51.270,0.000
1737554052.064,453.125,-12.207,-27.344,-96.191,0.000
1737554052.068,-1000.000,-19.531,-29.785,0.000,0.000
1737554052.072,-259.766,-26.367,-24.902,73.730,0.000
1737554052.076,999.512,-20.996,-29.785,6.348,0.000
1737554052.080,999.512,0.000,-42.969,-94.727,0.000
1737554052.084,174.316,-3.418,-35.156,-273.438,0.000
1737554052.088,-1000.000,-22.461,-20.020,-139.160,0.000
1737554052.091,-411.133,-38.086,-9.766,231.934,0.000
1737554052.095,942.871,-35.645,-9.766,93.750,0.000
1737554052.099,999.512,-10.254,-17.578,-51.758,0.000
1737554052.103,-117.188,10.254,-28.320,121.582,0.000
1737554052.107,-1000.000,-5.371,-22.461,125.000,0.000
1737554052.111,-957.520,-26.855,-22.461,35.156,0.000
1737554052.115,-989.746,-20.996,-24.414,54.199,0.000
1737554052.119,-1000.000,-14.648,-14.160,215.332,0.000
1737554052.123,-1000.000,-12.207,-17.090,169.922,0.000
1737554052.127,-1000.000,-17.578,-19.043,39.551,0.000
1737554052.130,-1000.000,-20.020,-24.414,43.945,0.000
1737554052.134,-1000.000,-19.043,-27.344,107.422,0.000
1737554052.138,-1000.000,-15.625,-27.832,104.492,0.000
1737554052.142,-1000.000,-9.277,-16.602,-27.832,0.000
1737554052.146,-954.590,-18.555,-9.277,22.949,0.000
1737554052.150,-1000.000,-5.371,-31.738,-100.586,0.000
1737554052.154,-925.293,-3.418,-25.391,-81.055,0.000
1737554052.158,585.449,-19.531,-21.484,87.402,0.000
1737554052.162,231.934,-16.602,-44.922,-20.996,0.000
1737554052.166,-1000.000,-14.160,-41.504,-105.469,0.000
1737554052.170,-925.781,-18.066,-15.625,-39.062,0.000
1737554052.173,-1000.000,-14.648,-19.043,119.141,0.000
1737554052.177,105.469,-7.812,-24.414,59.082,0.000
1737554052.181,581.543,-28.320,-27.832,42.969,0.000
1737554052.185,-947.754,-38.086,-37.109,120.117,0.000
1737554052.189,-983.887,-11.719,-18.066,-100.098,0.000
1737554052.193,-1000.000,-12.207,-25.879,-280.762,0.000
1737554052.197,-518.066,-41.504,-29.785,-1.465,0.000
1737554052.201,372.559,-24.414,-17.090,21.484,0.000
1737554052.205,-747.070,3.906,-35.645,-55.176,0.000
1737554052.209,-1000.000,-22.949,-33.203,13.184,0.000
1737554052.213,-1000.000,-48.828,-11.719,103.516,0.000
1737554052.216,-97.656,-19.531,-11.230,191.895,0.000
1737554052.220,884.766,-7.324,-25.391,161.133,0.000
1737554052.224,-607.422,-35.156,-25.879,59.082,0.000
1737554052.228,-1000.000,-20.508,-30.762,-10.254,0.000
1737554052.232,-1000.000,-1.953,-40.039,10.742,0.000
1737554052.236,-847.168,-14.648,-53.223,60.547,0.000
1737554052.240,353.027,-8.789,-46.387,29.297,0.000
1737554052.244,-306.641,-13.184,-15.625,-98.145,0.000
1737554052.248,-1000.000,-46.875,-0.977,-3.906,0.000
1737554052.252,-1000.000,-54.199,-7.812,66.406,0.000
1737554052.255,-333.008,-20.508,-24.902,20.508,0.000
1737554052.259,990.234,0.977,-21.973,-132.812,0.000
1737554052.263,-301.270,-11.719,-21.484,-272.461,0.000
1737554052.267,-1000.000,-34.180,-19.531,-84.473,0.000
1737554052.271,-1000.000,-33.203,-28.320,44.922,0.000
1737554052.275,-789.551,-18.555,-39.062,111.816,0.000
1737554052.279,651.855,-22.949,-24.902,75.684,0.000
1737554052.283,-36.621,-33.691,-16.602,-29.785,0.000
1737554052.287,-1000.000,-41.504,-14.648,-106.934,0.000
1737554052.291,-940.918,-43.457,-30.273,-309.570,0.000
1737554052.295,-1000.000,-20.996,-20.508,-387.695,0.000
1737554052.298,333.984,-6.348,-13.672,-361.816,0.000
1737554052.302,307.617,-11.230,-34.668,-242.676,0.000
1737554052.306,-1000.000,-18.066,-42.969,26.855,0.000
1737554052.310,-1000.000,-38.086,-26.855,238.770,0.000
1737554052.314,-179.688,-33.203,-7.324,249.512,0.000
1737554052.318,999.512,-17.090,-17.578,129.883,0.000
1737554052.322,566.406,-25.391,-29.785,104.980,0.000
1737554052.326,660.156,-24.902,-20.508,89.355,0.000
1737554052.330,999.512,-24.414,-15.625,-45.410,0.000
1737554052.334,945.801,-28.809,-23.438,-288.574,0.000
1737554052.338,973.633,-21.973,-32.227,-431.641,0.000
1737554052.341,970.215,-7.812,-31.738,-346.680,0.000
1737554052.345,970.215,-11.719,-38.574,-109.863,0.000
1737554052.349,979.004,-18.555,-39.551,52.246,0.000
1737554052.353,929.688,-7.812,-29.785,106.445,0.000
1737554052.357,995.117,-11.719,-26.855,217.285,0.000
1737554052.361,872.559,-17.090,-24.414,289.551,0.000
1737554052.365,-345.215,-19.043,-14.648,217.285,0.000
1737554052.369,-1000.000,-17.090,1.953,34.180,0.000
1737554052.373,-435.059,-4.395,-5.859,36.133,0.000
1737554052.377,846.191,1.953,-16.602,88.379,0.000
1737554052.381,999.512,-0.488,-11.719,97.656,0.000
1737554052.384,23.926,-2.441,-14.648,147.949,0.000
1737554052.388,-1000.000,-6.836,-9.277,104.004,0.000
1737554052.392,-1000.000,-14.160,-7.324,63.477,0.000
1737554052.396,70.312,-12.207,-11.719,13.672,0.000
1737554052.400,999.512,-10.254,-15.137,-189.941,0.000
1737554052.404,-330.078,-8.789,-26.367,-53.223,0.000
1737554052.408,-1000.000,-1.953,-3.906,84.473,0.000
1737554052.412,-1000.000,2.930,-2.441,90.332,0.000
1737554052.416,-91.309,11.230,-22.949,94.727,0.000
1737554052.420,838.379,6.836,-21.973,114.258,0.000
1737554052.423,-600.586,23.438,-10.254,181.152,0.000
1737554052.427,-1000.000,28.809,1.465,117.188,0.000
1737554052.431,-931.641,1.953,-12.207,177.246,0.000
1737554052.435,-1000.000,20.996,-18.066,159.180,0.000
1737554052.439,-1000.000,31.250,-11.719,180.176,0.000
1737554052.443,-1000.000,8.301,-19.043,146.484,0.000
1737554052.447,-1000.000,14.160,-17.578,-78.125,0.000
1737554052.451,-1000.000,17.090,-19.531,-87.891,0.000
1737554052.455,-1000.000,-1.465,-13.184,98.633,0.000
1737554052.459,-1000.000,7.324,-21.973,225.098,0.000
1737554052.463,-995.117,-12.695,-45.410,25.879,0.000
1737554052.466,-946.777,-31.250,-49.805,-187.500,0.000
1737554052.470,-1000.000,26.367,-25.391,91.309,0.000
1737554052.474,-131.836,59.570,9.766,181.152,0.000
1737554052.478,999.512,39.062,13.672,28.320,0.000
1737554052.482,943.359,41.504,1.465,73.242,0.000
1737554052.486,948.730,56.152,-12.695,7.324,0.000
1737554052.490,975.098,51.758,-16.113,-68.848,0.000
1737554052.494,970.215,32.715,-8.789,77.637,0.000
1737554052.498,970.215,16.602,3.906,63.477,0.000
1737554052.502,970.215,22.949,8.789,-74.707,0.000
1737554052.505,970.215,8.789,-2.441,-28.320,0.000
1737554052.509,980.957,-5.859,-10.254,-13.184,0.000
1737554052.513,910.645,-5.371,-17.090,-17.578,0.000
1737554052.517,999.512,-19.043,-29.297,-109.863,0.000
1737554052.521,636.230,-5.371,-31.738,-345.703,0.000
1737554052.525,-672.363,4.883,-28.809,-275.391,0.000
1737554052.529,-1000.000,-9.277,-32.227,-376.953,0.000
1737554052.533,-166.016,-27.832,-32.227,-243.164,0.000
1737554052.537,999.512,-25.391,-30.273,143.066,0.000
1737554052.541,912.598,-17.090,-31.738,180.176,0.000
1737554052.545,999.512,-23.926,-20.996,116.211,0.000
1737554052.548,126.465,-26.855,-10.742,106.445,0.000
1737554052.552,-1000.000,-35.156,-8.789,62.012,0.000
1737554052.556,-436.035,-65.430,-15.137,55.176,0.000
1737554052.560,999.512,-51.270,-23.926,130.859,0.000
1737554052.564,178.711,-29.785,-36.133,180.176,0.000
1737554052.568,-1000.000,-48.828,-43.945,137.207,0.000
1737554052.572,-1000.000,-49.316,-44.434,-8.789,0.000
1737554052.576,-163.086,-25.391,-53.711,-29.785,0.000
1737554052.580,999.512,-14.160,-59.082,132.324,0.000
1737554052.584,110.352,-39.062,-36.621,148.926,0.000
1737554052.588,-1000.000,-49.316,-8.301,25.391,0.000
1737554052.591,-966.309,-54.199,-11.719,-39.551,0.000
1737554052.595,-1000.000,-48.828,-37.598,-72.754,0.000
1737554052.599,-754.395,-49.316,-30.273,19.043,0.000
1737554052.603,-779.785,-60.547,-6.348,83.008,0.000
1737554052.607,-1000.000,-51.270,-11.719,31.250,0.000
1737554052.611,-975.098,-40.039,-25.391,-196.289,0.000
1737554052.615,-1000.000,-40.527,-31.250,-26.855,0.000
1737554052.619,251.465,-41.992,-20.508,81.055,0.000
1737554052.623,256.836,-47.363,-16.602,-110.840,0.000
1737554052.627,-1000.000,-47.852,-33.691,-4.395,0.000
1737554052.630,-989.746,-34.180,-41.504,114.746,0.000
1737554052.634,-994.141,-36.621,-25.879,142.578,0.000
1737554052.638,-783.691,-45.898,-17.090,163.086,0.000
1737554052.642,-832.520,-34.180,-20.996,-62.500,0.000
1737554052.646,-1000.000,-55.176,-14.160,-85.938,0.000
1737554052.650,-983.398,-66.895,-20.020,126.953,0.000
1737554052.654,-1000.000,-30.273,-33.203,106.934,0.000
1737554052.658,354.980,-10.742,-19.531,50.781,0.000
1737554052.662,426.758,-17.090,-21.484,15.625,0.000
1737554052.666,-1000.000,-26.367,-20.508,23.926,0.000
1737554052.670,-1000.000,-32.227,-10.254,104.004,0.000
1737554052.673,-958.984,-33.203,-17.090,123.047,0.000
1737554052.677,-1000.000,-28.809,-21.973,61.035,0.000
1737554052.681,-1000.000,-46.875,-20.508,62.012,0.000
1737554052.685,-950.684,-56.641,-16.602,229.492,0.000
1737554052.689,-1000.000,-29.297,-7.812,147.949,0.000
1737554052.693,-869.629,-24.414,1.465,22.949,0.000
1737554052.697,623.535,-24.902,-2.441,83.984,0.000
1737554052.701,738.770,-25.879,-7.324,-51.758,0.000
1737554052.705,-812.012,-37.109,-28.320,16.113,0.000
1737554052.709,-1000.000,-29.785,-38.574,97.656,0.000
1737554052.713,-942.383,-22.949,-15.137,10.742,0.000
1737554052.716,-1000.000,-24.902,-10.254,98.633,0.000
1737554052.720,-1000.000,-28.320,-38.086,69.336,0.000
1737554052.724,-1000.000,-41.504,-33.691,-30.762,0.000
1737554052.728,-991.699,-47.852,-0.488,9.766,0.000
1737554052.732,-1000.000,-26.367,0.488,12.695,0.000
1737554052.736,-1000.000,-17.578,-18.066,-9.277,0.000
1737554052.740,-659.668,-13.672,-19.531,60.547,0.000
1737554052.744,-747.070,-6.348,-19.531,124.023,0.000
1737554052.748,-994.141,-20.508,-22.461,127.441,0.000
1737554052.752,-1000.000,-21.973,-20.508,29.297,0.000
1737554052.756,-260.254,-19.043,-12.207,-39.551,0.000
1737554052.759,999.512,-18.066,-3.418,-38.086,0.000
1737554052.763,16.602,-32.227,-11.230,-20.508,0.000
1737554052.767,-1000.000,-42.480,-21.973,41.504,0.000
1737554052.771,-1000.000,-25.391,-26.367,0.977,0.000
1737554052.775,-770.020,-13.184,-28.320,-18.555,0.000
1737554052.779,733.887,-10.742,-16.602,-9.277,0.000
1737554052.783,531.250,-6.836,-4.395,-20.020,0.000
1737554052.787,-930.176,-26.855,-16.113,-35.645,0.000
1737554052.791,-1000.000,-26.367,-9.766,10.742,0.000
1737554052.795,-822.266,-7.812,-4.395,35.156,0.000
1737554052.799,594.727,-21.484,-28.320,56.641,0.000
1737554052.802,336.914,-34.180,-16.602,98.145,0.000
1737554052.806,-1000.000,-21.973,-17.578,-52.246,0.000
1737554052.810,-958.984,-1.465,-24.414,-104.492,0.000
1737554052.814,-1000.000,-21.973,-14.648,19.043,0.000
1737554052.818,157.715,-30.762,-24.414,-30.762,0.000
1737554052.822,525.879,-18.555,-24.414,-102.051,0.000
1737554052.826,-921.875,-25.879,-14.648,-123.535,0.000
1737554052.830,-1000.000,-16.602,-18.555,-146.484,0.000
1737554052.834,-865.723,-18.066,-18.066,-55.664,0.000
1737554052.838,512.695,-22.461,-4.395,85.449,0.000
1737554052.841,749.023,-16.113,-10.254,95.215,0.000
1737554052.845,-775.391,-18.555,-29.297,-20.508,0.000
1737554052.849,-1000.000,-25.879,-27.832,50.293,0.000
1737554052.853,-1000.000,-20.996,-16.602,116.211,0.000
1737554052.857,99.609,-21.973,-13.184,19.531,0.000
1737554052.861,999.512,-35.645,-13.672,-8.789,0.000
1737554052.865,-380.859,-42.969,-19.043,-47.852,0.000
1737554052.869,-1000.000,-23.438,-18.066,-76.172,0.000
1737554052.873,-939.453,3.418,-17.578,-41.992,0.000
1737554052.877,-1000.000,0.977,-20.020,-94.727,0.000
1737554052.881,-1000.000,-7.812,-16.113,-92.285,0.000
1737554052.884,-939.453,-8.789,-20.020,-20.996,0.000
1737554052.888,-1000.000,-11.230,-30.762,125.977,0.000
1737554052.892,-680.176,-2.930,-30.273,187.500,0.000
1737554052.896,738.770,5.859,-32.715,131.836,0.000
1737554052.900,999.512,2.930,-29.785,135.254,0.000
1737554052.904,-374.023,18.555,-19.043,6.836,0.000
1737554052.908,-1000.000,20.508,-23.438,-105.469,0.000
1737554052.912,-942.871,14.160,-30.762,-32.227,0.000
1737554052.916,-1000.000,23.926,-22.949,40.527,0.000
1737554052.920,-1000.000,21.973,-10.254,64.941,0.000
1737554052.923,-1000.000,20.996,-15.625,-0.977,0.000
1737554052.927,-1000.000,24.902,-12.207,-105.469,0.000
1737554052.931,-1000.000,11.719,-9.766,14.648,0.000
1737554052.935,-1000.000,-2.441,-5.859,162.109,0.000
1737554052.939,-1000.000,4.395,-14.648,112.793,0.000
1737554052.943,-970.215,11.719,-23.438,87.891,0.000
1737554052.947,-998.535,-0.488,-9.277,26.367,0.000
1737554052.951,-997.070,15.137,5.859,-7.324,0.000
1737554052.955,191.406,65.918,5.859,3.418,0.000
1737554052.959,999.512,70.312,-6.348,-35.645,0.000
1737554052.963,887.207,52.246,-2.930,-75.684,0.000
1737554052.966,-469.238,50.293,-9.277,-95.215,0.000
1737554052.970,-704.102,38.574,-19.043,-28.809,0.000
1737554052.974,841.309,21.973,-21.973,41.016,0.000
1737554052.978,996.094,19.531,-24.414,6.836,0.000
1737554052.982,929.199,17.578,-41.992,-113.770,0.000
1737554052.986,856.934,-15.625,-38.086,-123.535,0.000
1737554052.990,-466.309,-16.113,-11.719,-62.500,0.000
1737554052.994,-567.383,9.277,-11.230,-16.113,0.000
1737554052.998,875.977,1.953,-11.719,33.691,0.000
1737554053.002,999.512,-15.137,-18.066,37.109,0.000
1737554053.006,-33.203,-10.254,-37.598,56.641,0.000
1737554053.009,-1000.000,-12.207,-39.551,12.695,0.000
1737554053.013,-221.191,-42.969,-29.785,92.285,0.000
1737554053.017,999.512,-37.109,-29.297,123.047,0.000
1737554053.021,981.934,-10.254,-39.062,127.441,0.000
1737554053.025,-195.312,-12.207,-51.270,38.574,0.000
1737554053.029,-1000.000,-24.902,-47.363,-1.953,0.000
1737554053.033,-986.816,-36.621,-31.250,64.941,0.000
1737554053.037,127.930,-28.320,-25.879,36.621,0.000
1737554053.041,999.512,-29.297,-28.320,54.199,0.000
1737554053.045,-226.074,-47.852,-33.691,108.887,0.000
1737554053.049,-1000.000,-53.223,-46.875,48.828,0.000
1737554053.052,-1000.000,-49.316,-43.457,84.961,0.000
1737554053.056,26.855,-41.504,-29.297,177.246,0.000
1737554053.060,999.512,-32.227,-15.625,27.344,0.000
1737554053.064,-193.359,-32.227,-7.812,25.391,0.000
1737554053.068,-1000.000,-42.480,-18.066,-14.160,0.000
1737554053.072,-947.754,-37.598,-26.367,-275.391,0.000
1737554053.076,-994.141,-34.180,-32.227,-425.781,0.000
1737554053.080,-1000.000,-49.316,-30.762,-215.820,0.000
1737554053.084,-978.516,-64.453,-11.719,65.918,0.000
1737554053.088,-978.516,-61.035,-11.230,3.418,0.000
1737554053.091,-1000.000,-48.828,-20.996,-52.246,0.000
1737554053.095,72.754,-40.039,-16.602,30.273,0.000
1737554053.099,999.512,-51.270,-20.996,-53.223,0.000
1737554053.103,-76.172,-63.477,-31.738,-6.836,0.000
1737554053.107,-1000.000,-55.176,-29.785,98.145,0.000
1737554053.111,-987.305,-39.062,-15.137,-4.395,0.000
1737554053.115,-908.691,-27.832,-19.531,-14.160,0.000
1737554053.119,560.547,-19.043,-25.391,5.859,0.000
1737554053.123,548.340,-22.949,-17.090,54.688,0.000
1737554053.127,-908.691,-32.227,-17.090,94.727,0.000
1737554053.131,-1000.000,-46.875,-11.230,50.781,0.000
1737554053.134,-570.312,-56.152,-9.277,62.500,0.000
1737554053.138,939.941,-41.016,-18.066,93.750,0.000
1737554053.142,490.723,-35.156,-22.949,25.879,0.000
1737554053.146,-976.074,-52.246,-15.625,-16.602,0.000
1737554053.150,-970.215,-55.664,-15.625,-15.625,0.000
1737554053.154,-1000.000,-45.410,-25.391,11.230,0.000
1737554053.158,52.734,-40.527,-23.926,147.949,0.000
1737554053.162,625.977,-29.785,-21.484,152.344,0.000
1737554053.166,-860.840,-31.250,-16.113,-134.766,0.000
1737554053.170,-1000.000,-32.715,-6.836,-323.242,0.000
1737554053.174,-1000.000,-18.555,-0.488,-239.258,0.000
1737554053.177,159.668,-7.812,-7.324,-297.363,0.000
1737554053.181,901.855,-8.301,-28.320,-395.996,0.000
1737554053.185,-520.020,-4.883,-28.809,-241.211,0.000
1737554053.189,-1000.000,-18.066,-10.254,-53.711,0.000
1737554053.193,-772.461,-35.645,-5.371,118.164,0.000
1737554053.197,498.047,-30.273,-21.973,84.473,0.000
1737554053.201,999.512,-26.855,-30.762,92.285,0.000
1737554053.205,-171.875,-36.133,-10.254,147.949,0.000
1737554053.209,-1000.000,-47.363,-6.836,153.320,0.000
1737554053.213,-934.082,-27.832,-12.695,186.523,0.000
1737554053.217,270.996,-9.277,-12.207,182.129,0.000
1737554053.220,999.512,-38.086,-5.859,185.059,0.000
1737554053.224,-285.645,-27.344,-11.230,-109.375,0.000
1737554053.228,-1000.000,-4.395,-18.555,-402.344,0.000
1737554053.232,-1000.000,-18.555,-23.926,-232.910,0.000
1737554053.236,-332.520,-16.602,-23.438,-36.133,0.000
1737554053.240,999.512,-29.297,-18.555,10.254,0.000
1737554053.244,342.773,-33.691,-19.531,24.902,0.000
1737554053.248,-1000.000,-31.250,-21.484,21.973,0.000
1737554053.252,-999.023,-40.039,-33.691,42.969,0.000
1737554053.256,151.367,-30.273,-28.320,-5.371,0.000
1737554053.259,999.512,-32.715,-11.230,56.641,0.000
1737554053.263,257.812,-17.090,-6.348,-7.324,0.000
1737554053.267,-1000.000,5.859,-6.348,-164.551,0.000
1737554053.271,-928.711,-2.930,-18.066,35.156,0.000
1737554053.275,342.285,-10.254,-34.180,172.363,0.000
1737554053.279,999.512,-7.812,-17.090,105.469,0.000
1737554053.283,805.664,-32.715,-4.883,79.590,0.000
1737554053.287,-387.207,-41.504,-12.207,42.480,0.000
1737554053.291,-1000.000,-15.625,-15.625,129.395,0.000
1737554053.295,-825.195,-15.137,-18.066,10.254,0.000
1737554053.299,581.543,-17.090,-15.625,-60.547,0.000
1737554053.302,471.680,-8.301,-23.926,19.043,0.000
1737554053.306,-1000.000,-21.973,-30.273,-108.398,0.000
1737554053.310,-976.562,-25.391,-18.066,-160.645,0.000
1737554053.314,-1000.000,-15.625,-12.695,-41.504,0.000
1737554053.318,106.445,-24.414,-21.973,0.977,0.000
1737554053.322,583.496,-41.016,-13.184,68.848,0.000
1737554053.326,-867.188,-40.039,-1.953,-107.422,0.000
1737554053.330,-1000.000,-10.742,-13.184,-159.180,0.000
1737554053.334,-738.770,-8.301,-14.648,144.531,0.000
1737554053.338,535.156,-15.137,-14.648,116.699,0.000
1737554053.341,999.512,-2.930,-26.855,60.059,0.000
1737554053.345,-143.555,-18.555,-29.785,36.133,0.000
1737554053.349,-1000.000,-38.574,-21.973,67.383,0.000
1737554053.353,-1000.000,-29.297,-16.113,-16.602,0.000
1737554053.357,-583.008,-18.555,-20.508,-158.203,0.000
1737554053.361,883.301,-6.348,-16.602,95.215,0.000
1737554053.365,785.645,-14.648,-19.043,304.199,0.000
1737554053.369,-698.242,-27.344,-32.227,197.266,0.000
1737554053.373,-985.840,-19.043,-32.715,56.152,0.000
1737554053.377,379.883,-1.465,-19.531,-53.711,0.000
1737554053.381,999.512,1.953,-18.066,-58.105,0.000
1737554053.384,-138.184,-15.137,-12.207,59.082,0.000
1737554053.388,-1000.000,-42.480,-9.766,184.570,0.000
1737554053.392,-1000.000,-40.039,-27.832,152.832,0.000
1737554053.396,-306.152,-10.254,-21.484,78.125,0.000
1737554053.400,999.512,-14.160,-15.137,6.348,0.000
1737554053.404,253.418,-20.508,-25.391,18.066,0.000
1737554053.408,-1000.000,2.441,-12.695,124.023,0.000
1737554053.412,-1000.000,-0.488,-1.953,59.570,0.000
1737554053.416,-212.402,-10.254,-11.230,-6.348,0.000
1737554053.420,999.512,-15.137,-25.391,-41.504,0.000
1737554053.424,236.816,-17.578,-21.973,-18.555,0.000
1737554053.427,-1000.000,-13.672,-7.324,95.215,0.000
1737554053.431,-1000.000,-9.766,-12.207,226.562,0.000
1737554053.435,-6.348,-17.090,-33.203,58.594,0.000
1737554053.439,999.512,-32.715,-39.062,-49.805,0.000
1737554053.443,361.328,-26.367,-25.391,-25.391,0.000
1737554053.447,-919.434,-12.695,-30.762,-43.457,0.000
1737554053.451,-1000.000,-16.113,-27.344,53.711,0.000
1737554053.455,-275.879,-9.766,-16.602,33.691,0.000
1737554053.459,999.512,-3.418,-14.648,-253.418,0.000
1737554053.463,559.570,-11.719,-12.695,-297.852,0.000
1737554053.466,-772.949,-19.531,-14.160,-44.922,0.000
1737554053.470,-1000.000,-29.785,-5.371,-44.434,0.000
1737554053.474,-587.402,-34.180,-1.953,-106.934,0.000
1737554053.478,733.887,-13.672,-10.254,-119.629,0.000
1737554053.482,999.512,9.766,-18.066,20.020,0.000
1737554053.486,-165.527,-2.441,-22.461,79.102,0.000
1737554053.490,-1000.000,-21.973,-35.645,-65.430,0.000
1737554053.494,-310.059,-27.832,-28.809,-77.148,0.000
1737554053.498,919.434,-24.902,-35.645,-59.570,0.000
1737554053.502,999.512,-3.906,-52.246,89.844,0.000
1737554053.506,463.867,-8.789,-21.973,160.156,0.000
1737554053.509,-1000.000,-12.695,0.488,18.555,0.000
1737554053.513,-604.004,-13.672,-2.930,13.672,0.000
1737554053.517,909.668,-29.297,0.977,-21.484,0.000
1737554053.521,931.641,-20.020,3.418,-95.703,0.000
1737554053.525,-416.992,-5.859,-13.184,-16.113,0.000
1737554053.529,-1000.000,-21.484,-16.113,169.434,0.000
1737554053.533,-951.172,-29.297,-16.113,36.133,0.000
1737554053.537,166.016,-14.648,-20.996,-10.254,0.000
1737554053.541,999.512,-18.555,-13.672,46.387,0.000
1737554053.545,-63.477,-28.320,-16.113,79.590,0.000
1737554053.549,-1000.000,-22.461,-23.926,-139.160,0.000
1737554053.552,-987.305,-20.020,-24.902,-305.176,0.000
1737554053.556,-934.082,-16.602,-20.996,-144.043,0.000
1737554053.560,505.859,-19.043,-23.438,-184.570,0.000
1737554053.564,332.520,-37.598,-20.996,-330.566,0.000
1737554053.568,-1000.000,-34.668,-17.578,-385.742,0.000
1737554053.572,-777.832,-6.836,-30.273,-157.227,0.000
1737554053.576,513.184,-11.719,-26.855,51.758,0.000
1737554053.580,999.512,-24.902,-16.113,129.395,0.000
1737554053.584,282.227,-13.184,-16.113,184.570,0.000
1737554053.588,-962.402,-10.254,-11.719,243.164,0.000
1737554053.592,-1000.000,-18.555,-11.719,208.008,0.000
1737554053.595,-51.270,-12.695,-11.719,173.340,0.000
1737554053.599,999.512,-15.137,-6.836,191.406,0.000
1737554053.603,653.809,-26.855,-16.602,154.297,0.000
1737554053.607,-663.574,-8.789,-35.156,136.230,0.000
1737554053.611,-1000.000,0.977,-30.273,70.801,0.000
1737554053.615,-962.891,-12.695,-14.648,-177.246,0.000
1737554053.619,76.172,-13.672,-9.766,-221.191,0.000
1737554053.623,999.512,-15.625,-11.719,103.027,0.000
1737554053.627,-6.348,-25.391,-20.508,237.793,0.000
1737554053.631,-1000.000,-24.902,-15.625,205.078,0.000
1737554053.635,-200.684,-15.137,-1.953,175.781,0.000
1737554053.638,999.512,-5.859,-11.719,145.020,0.000
1737554053.642,520.508,-16.113,-24.414,-165.527,0.000
1737554053.646,-819.824,-31.738,-17.578,-170.410,0.000
1737554053.650,-1000.000,-35.156,-18.555,62.988,0.000
1737554053.654,-170.410,-18.066,-37.109,11.719,0.000
1737554053.658,999.512,-2.930,-39.062,63.477,0.000
1737554053.662,927.246,0.977,-28.809,107.422,0.000
1737554053.666,-238.770,-22.949,-27.344,58.105,0.000
1737554053.670,-1000.000,-40.039,-29.297,79.102,0.000
1737554053.674,-290.527,-22.461,-30.762,2.930,0.000
1737554053.677,974.609,-20.020,-24.414,-252.930,0.000
1737554053.681,999.512,-21.484,-22.461,-296.387,0.000
1737554053.685,-73.730,-10.742,-27.344,-490.234,0.000
1737554053.689,-1000.000,-2.930,-31.250,-415.039,0.000
1737554053.693,-317.383,-17.090,-20.020,-210.938,0.000
1737554053.697,990.234,-22.949,-13.672,-347.656,0.000
1737554053.701,913.574,0.000,-22.949,-257.812,0.000
1737554053.705,999.512,-8.301,-19.043,145.508,0.000
1737554053.709,324.219,-53.223,-22.949,169.922,0.000
1737554053.713,-1000.000,-47.363,-30.273,5.859,0.000
1737554053.717,-195.801,2.441,-22.949,183.594,0.000
1737554053.720,999.512,20.996,-17.578,159.668,0.000
1737554053.724,67.383,1.465,-9.766,182.129,0.000
1737554053.728,-1000.000,-18.555,3.906,236.328,0.000
1737554053.732,-1000.000,-19.043,-5.859,133.301,0.000
1737554053.736,-34.668,-6.348,-15.625,95.703,0.000
1737554053.740,999.512,-9.277,-16.113,226.562,0.000
1737554053.744,366.211,-18.066,-20.996,174.316,0.000
1737554053.748,-956.055,-13.672,-11.719,-73.730,0.000
1737554053.752,-980.957,-21.484,-12.207,-147.949,0.000
1737554053.756,-1000.000,-36.621,-27.832,-214.355,0.000
1737554053.760,111.328,-31.738,-34.668,-223.633,0.000
1737554053.763,670.410,-22.461,-36.133,-157.227,0.000
1737554053.767,-803.223,-26.855,-28.320,-94.238,0.000
1737554053.771,-1000.000,-24.414,-11.719,31.738,0.000
1737554053.775,-104.004,-16.602,-2.441,147.461,0.000
1737554053.779,999.512,-6.836,-1.465,149.902,0.000
1737554053.783,599.609,-6.348,-19.043,187.988,0.000
1737554053.787,-717.773,-0.488,-10.254,203.125,0.000
1737554053.791,-1000.000,12.207,11.719,284.668,0.000
1737554053.795,-238.770,-0.488,3.418,249.023,0.000
1737554053.799,999.512,-11.230,-14.160,212.891,0.000
1737554053.802,359.863,0.977,-21.484,206.055,0.000
1737554053.806,-1000.000,12.695,-25.391,110.352,0.000
1737554053.810,-952.637,9.277,-35.156,137.695,0.000
1737554053.814,-1000.000,19.531,-29.297,172.852,0.000
1737554053.818,-439.453,31.738,-13.672,219.727,0.000
1737554053.822,113.281,31.738,-13.184,103.516,0.000
1737554053.826,-907.715,32.227,-21.484,-164.551,0.000
1737554053.830,-1000.000,35.156,-20.996,-262.207,0.000
1737554053.834,-1000.000,27.832,-8.301,63.477,0.000
1737554053.838,266.602,17.578,-5.371,247.070,0.000
1737554053.842,582.520,22.949,-12.695,109.375,0.000
1737554053.845,-958.008,35.645,-18.066,173.340,0.000
1737554053.849,-1000.000,21.973,-16.113,231.934,0.000
1737554053.853,-970.703,12.695,-18.066,193.359,0.000
1737554053.857,-960.938,33.203,-24.414,168.945,0.000
1737554053.861,200.684,40.039,-16.602,-4.395,0.000
1737554053.865,-6.836,20.996,0.488,-102.051,0.000
1737554053.869,-1000.000,10.254,-14.648,-55.176,0.000
1737554053.873,-561.035,9.766,-26.367,-131.348,0.000
1737554053.877,805.176,20.996,-8.301,-431.152,0.000
1737554053.881,999.512,42.969,-6.836,-358.887,0.000
1737554053.885,917.480,56.152,-17.578,101.074,0.000
1737554053.888,983.398,38.574,-11.719,195.312,0.000
1737554053.892,962.891,27.344,-4.883,97.168,0.000
1737554053.896,920.410,12.207,-1.953,156.738,0.000
1737554053.900,999.512,-12.207,-2.930,137.695,0.000
1737554053.904,68.359,2.930,-27.832,75.195,0.000
1737554053.908,-1000.000,-1.953,-27.832,3.418,0.000
1737554053.912,-1000.000,-14.648,-11.719,-13.184,0.000
1737554053.916,-266.602,1.465,-29.785,12.695,0.000
1737554053.920,999.512,12.695,-37.109,-73.242,0.000
1737554053.924,392.090,6.836,-21.484,57.129,0.000
1737554053.928,-912.598,-11.230,-26.855,182.129,0.000
1737554053.931,-1000.000,-31.250,-38.086,211.914,0.000
1737554053.935,-433.594,-26.855,-39.062,144.043,0.000
1737554053.939,999.512,-16.113,-25.391,75.195,0.000
1737554053.943,364.258,-30.273,-12.207,75.684,0.000
1737554053.947,-1000.000,-43.457,-27.344,7.812,0.000
1737554053.951,-935.547,-36.133,-38.574,-180.664,0.000
1737554053.955,-1000.000,-31.738,-33.203,-354.492,0.000
1737554053.959,-468.750,-26.855,-34.668,-429.199,0.000
1737554053.963,999.512,-10.254,-40.039,-263.672,0.000
1737554053.967,352.539,-29.785,-26.367,-44.434,0.000
1737554053.971,-1000.000,-50.781,-13.672,-21.484,0.000
1737554053.974,-169.434,-46.387,-21.484,36.133,0.000
1737554053.978,999.512,-39.551,-32.715,22.461,0.000
1737554053.982,999.512,-26.367,-32.715,-96.191,0.000
1737554053.986,153.320,-37.109,-32.227,-61.035,0.000
1737554053.990,-1000.000,-57.129,-35.645,65.430,0.000
1737554053.994,-629.395,-38.086,-38.574,125.488,0.000
1737554053.998,801.270,-15.625,-27.832,63.477,0.000
1737554054.002,957.520,-30.273,-22.949,19.531,0.000
1737554054.006,-358.398,-46.387,-26.367,-0.488,0.000
1737554054.010,-1000.000,-43.945,-18.555,22.461,0.000
1737554054.013,-570.801,-33.203,-17.578,22.949,0.000
1737554054.017,713.867,-34.668,-21.484,16.602,0.000
1737554054.021,999.512,-36.621,-22.461,-60.547,0.000
1737554054.025,54.199,-44.434,-10.254,-24.902,0.000
1737554054.029,-1000.000,-64.941,2.441,150.879,0.000
1737554054.033,-764.648,-57.617,-6.348,163.574,0.000
1737554054.037,514.160,-36.621,-18.555,158.691,0.000
1737554054.041,999.512,-38.574,-20.508,229.980,0.000
1737554054.045,247.559,-37.109,-19.043,211.426,0.000
1737554054.049,-1000.000,-37.598,-22.949,136.230,0.000
1737554054.053,-979.004,-48.340,-24.902,121.582,0.000
1737554054.056,231.445,-43.945,-21.973,93.750,0.000
1737554054.060,999.512,-25.879,-17.090,35.156,0.000
1737554054.064,111.816,-20.996,-22.949,5.859,0.000
1737554054.068,-1000.000,-39.551,-12.695,-150.391,0.000
1737554054.072,-990.234,-48.340,-6.348,-321.289,0.000
1737554054.076,-941.895,-42.969,-10.254,-362.793,0.000
1737554054.080,419.434,-38.086,-26.855,-432.129,0.000
1737554054.084,392.090,-41.504,-33.203,-320.801,0.000
1737554054.088,-1000.000,-47.852,-5.859,-151.367,0.000
1737554054.092,-1000.000,-50.293,-6.836,-15.137,0.000
1737554054.095,201.172,-41.016,-19.043,151.367,0.000
1737554054.099,999.512,-17.578,-5.859,132.812,0.000
1737554054.103,849.609,-23.926,-1.953,62.012,0.000
1737554054.107,-288.574,-30.273,-13.184,41.992,0.000
1737554054.111,-1000.000,-30.273,-5.859,41.016,0.000
1737554054.115,-299.805,-42.969,-4.883,4.395,0.000
1737554054.119,999.512,-37.109,-16.113,-42.480,0.000
1737554054.123,730.469,-37.109,-10.254,68.848,0.000
1737554054.127,-570.312,-41.504,-8.789,72.754,0.000
1737554054.131,-1000.000,-26.855,-19.531,-2.441,0.000
1737554054.135,-338.379,-21.484,-22.461,-3.418,0.000
1737554054.138,891.602,-31.738,-17.578,84.961,0.000
1737554054.142,999.512,-37.598,-22.461,199.707,0.000
1737554054.146,209.473,-23.926,-23.926,82.031,0.000
1737554054.150,-1000.000,-14.160,-20.996,175.781,0.000
1737554054.154,-375.488,-15.137,-25.879,239.258,0.000
1737554054.158,968.750,-19.043,-18.555,158.203,0.000
1737554054.162,999.512,-32.227,-11.230,161.621,0.000
1737554054.166,-86.426,-40.527,-12.695,202.637,0.000
1737554054.170,-1000.000,-34.180,-15.625,37.598,0.000
1737554054.174,-1000.000,-38.574,-17.090,-173.340,0.000
1737554054.177,158.691,-19.043,-8.789,92.773,0.000
1737554054.181,999.512,10.742,-16.602,51.270,0.000
1737554054.185,-239.746,-11.230,-24.414,-56.641,0.000
1737554054.189,-1000.000,-17.090,-28.320,-5.371,0.000
1737554054.193,-1000.000,-1.465,-35.156,-54.688,0.000
1737554054.197,-304.199,-0.488,-34.668,-3.418,0.000
1737554054.201,999.512,10.254,-16.113,70.801,0.000
1737554054.205,120.605,27.344,-12.695,-2.441,0.000
1737554054.209,-1000.000,23.926,-20.508,47.852,0.000
1737554054.213,-1000.000,15.137,-16.113,61.523,0.000
1737554054.217,-584.961,22.461,-29.785,23.438,0.000
1737554054.220,898.926,21.484,-37.109,44.922,0.000
1737554054.224,46.875,1.953,-30.762,-106.445,0.000
1737554054.228,-1000.000,21.484,-27.344,-337.402,0.000
1737554054.232,-932.129,28.809,-22.949,-164.551,0.000
1737554054.236,-1000.000,-15.625,-20.508,5.371,0.000
1737554054.240,235.840,0.488,-1.953,7.324,0.000
1737554054.244,695.312,43.457,4.883,129.395,0.000
1737554054.248,-875.488,19.043,6.348,104.492,0.000
1737554054.252,-1000.000,13.184,13.184,61.523,0.000
1737554054.256,422.363,34.180,5.371,269.531,0.000
1737554054.260,999.512,37.109,-4.883,290.527,0.000
1737554054.263,947.266,41.504,-9.277,88.867,0.000
1737554054.267,858.398,18.555,-1.953,103.516,0.000
1737554054.271,329.102,-2.930,3.418,172.363,0.000
1737554054.275,573.242,-16.113,-9.277,144.043,0.000
1737554054.279,999.512,-13.672,-25.879,88.867,0.000
1737554054.283,412.109,1.465,-19.531,36.133,0.000
1737554054.287,-886.719,-11.230,-11.230,52.734,0.000
1737554054.291,-1000.000,-17.578,-14.648,25.391,0.000
1737554054.295,-122.559,-10.742,-22.949,53.223,0.000
1737554054.299,994.629,-11.719,-28.809,54.688,0.000
1737554054.303,999.512,-16.602,-28.809,2.441,0.000
1737554054.306,83.984,-29.297,-35.156,-36.621,0.000
1737554054.310,-1000.000,-46.387,-48.828,16.113,0.000
1737554054.314,-177.246,-43.457,-36.133,206.055,0.000
1737554054.318,999.512,-23.438,-16.602,295.898,0.000
1737554054.322,804.688,-19.531,-22.461,16.113,0.000
1737554054.326,-464.355,-44.434,-31.738,-312.012,0.000
1737554054.330,-1000.000,-53.711,-21.484,-223.145,0.000
1737554054.334,-192.383,-35.645,-13.672,22.949,0.000
1737554054.338,953.613,-29.297,-32.227,75.195,0.000
1737554054.342,999.512,-44.434,-38.086,-14.648,0.000
1737554054.346,283.691,-64.941,-39.062,-53.223,0.000
1737554054.349,-1000.000,-47.363,-35.645,-346.680,0.000
1737554054.353,-921.387,-29.297,-35.645,-396.973,0.000
1737554054.357,342.285,-20.996,-35.645,47.363,0.000
1737554054.361,999.512,-18.066,-20.508,177.734,0.000
1737554054.365,369.141,-40.039,-22.949,1.953,0.000
1737554054.369,-975.586,-52.734,-20.508,-63.965,0.000
1737554054.373,-966.309,-44.922,-15.625,-77.148,0.000
1737554054.377,276.855,-43.945,-23.926,-32.715,0.000
1737554054.381,999.512,-35.645,-17.090,42.969,0.000
1737554054.385,331.543,-35.645,-12.695,40.039,0.000
1737554054.388,-975.098,-50.781,-22.949,87.402,0.000
1737554054.392,-1000.000,-48.340,-25.879,145.996,0.000
1737554054.396,90.820,-37.598,-26.855,166.016,0.000
1737554054.400,999.512,-38.086,-25.391,52.246,0.000
1737554054.404,387.207,-47.363,-22.949,32.227,0.000
1737554054.408,-895.020,-47.852,-38.574,-104.492,0.000
1737554054.412,-1000.000,-35.645,-33.203,-134.277,0.000
1737554054.416,-131.836,-20.996,-19.531,-10.254,0.000
1737554054.420,969.238,-19.043,-20.508,-62.012,0.000
1737554054.424,999.512,-25.879,-9.766,100.098,0.000
1737554054.428,396.484,-32.715,-10.742,217.285,0.000
1737554054.431,-1000.000,-30.762,-20.508,118.164,0.000
1737554054.435,-421.387,-24.414,-11.719,108.887,0.000
1737554054.439,999.512,-28.320,-14.160,142.578,0.000
1737554054.443,439.941,-40.527,-21.484,94.238,0.000
1737554054.447,-904.297,-38.574,-17.090,-32.227,0.000
1737554054.451,-1000.000,-26.855,-27.832,-24.902,0.000
1737554054.455,-560.059,-28.809,-39.551,45.898,0.000
1737554054.459,760.742,-29.297,-32.715,124.023,0.000
1737554054.463,999.512,-27.344,-20.020,113.281,0.000
1737554054.467,-153.320,-33.691,-18.555,2.441,0.000
1737554054.470,-1000.000,-27.832,-17.090,11.230,0.000
1737554054.474,-440.430,-25.879,-15.625,11.230,0.000
1737554054.478,895.508,-34.668,-14.648,-21.484,0.000
1737554054.482,999.512,-24.902,-13.672,45.898,0.000
1737554054.486,-178.223,-23.438,-16.602,108.398,0.000
1737554054.490,-1000.000,-32.227,-24.414,-41.504,0.000
1737554054.494,-1000.000,-38.574,-20.508,-192.871,0.000
1737554054.498,42.969,-34.180,-4.883,-232.422,0.000
1737554054.502,999.512,-18.555,-18.555,-158.203,0.000
1737554054.506,11.230,-36.621,-24.414,-18.066,0.000
1737554054.510,-1000.000,-41.504,-16.602,21.973,0.000
1737554054.513,-1000.000,-20.508,-16.113,2.441,0.000
1737554054.517,-122.559,-25.391,-14.160,-3.418,0.000
1737554054.521,999.512,-28.809,-7.324,-21.973,0.000
1737554054.525,-162.109,-25.879,-10.742,10.742,0.000
1737554054.529,-1000.000,-24.902,-23.438,73.730,0.000
1737554054.533,-1000.000,-20.508,-12.695,115.723,0.000
1737554054.537,-154.785,-25.879,0.977,115.723,0.000
1737554054.541,999.512,-35.645,-4.883,15.625,0.000
1737554054.545,138.672,-33.203,-12.695,-41.992,0.000
1737554054.549,-1000.000,-25.879,-29.297,-47.363,0.000
1737554054.553,-1000.000,-29.785,-24.414,-25.879,0.000
1737554054.556,-212.402,-25.391,-19.531,45.898,0.000
1737554054.560,999.512,-18.555,-50.781,-54.199,0.000
1737554054.564,151.367,-25.879,-33.691,-314.941,0.000
1737554054.568,-1000.000,-19.531,0.000,-462.891,0.000
1737554054.572,-974.121,-32.227,-5.371,-216.309,0.000
1737554054.576,258.301,-43.945,-7.324,-7.812,0.000
1737554054.580,999.512,-11.230,-2.930,-17.090,0.000
1737554054.584,999.512,-22.461,-11.719,131.836,0.000
1737554054.588,281.738,-34.180,-26.855,179.688,0.000
1737554054.592,-1000.000,-12.207,-14.648,116.699,0.000
1737554054.596,-278.809,6.836,-9.277,82.031,0.000
1737554054.599,999.512,2.441,-30.762,52.246,0.000
1737554054.603,476.562,-27.344,-22.949,110.840,0.000
1737554054.607,-839.844,-30.273,1.465,70.801,0.000
1737554054.611,-1000.000,-23.926,-4.883,8.301,0.000
1737554054.615,-337.891,-20.020,-6.348,-6.348,0.000
1737554054.619,994.141,-7.324,-4.395,-8.301,0.000
1737554054.623,904.785,-5.859,-19.531,15.625,0.000
1737554054.627,-419.922,-11.719,-34.668,-10.742,0.000
1737554054.631,-1000.000,-22.461,-35.645,-221.191,0.000
1737554054.635,-1000.000,-20.996,-23.438,-376.465,0.000
1737554054.638,-117.188,-12.207,-18.066,-299.805,0.000
1737554054.642,999.512,-15.625,-22.949,-333.496,0.000
1737554054.646,-208.984,-25.391,-27.832,-321.289,0.000
1737554054.650,-1000.000,-41.504,-28.809,-244.629,0.000
1737554054.654,-219.238,-41.504,-14.648,-72.754,0.000
1737554054.658,960.938,-27.344,0.977,239.746,0.000
1737554054.662,999.512,-12.207,-9.766,323.730,0.000
1737554054.666,659.668,-8.789,-18.555,244.629,0.000
1737554054.670,-645.508,-8.301,-15.625,137.695,0.000
1737554054.674,-1000.000,-9.766,-19.531,150.391,0.000
1737554054.678,12.695,-24.902,-25.391,159.668,0.000
1737554054.681,999.512,-10.742,-33.203,75.684,0.000
1737554054.685,72.754,-5.859,-29.297,33.203,0.000
1737554054.689,-1000.000,-21.973,-29.297,95.703,0.000
1737554054.693,-961.914,-48.340,-35.645,93.262,0.000
1737554054.697,216.309,-59.570,-22.461,80.566,0.000
1737554054.701,999.512,-25.879,-14.648,133.301,0.000
1737554054.705,872.559,-6.348,-13.184,234.863,0.000
1737554054.709,-250.000,-11.230,-8.789,240.723,0.000
1737554054.713,-1000.000,-12.695,-16.113,185.059,0.000
1737554054.717,35.645,-5.371,-24.414,174.316,0.000
1737554054.721,999.512,0.488,-34.180,170.898,0.000
1737554054.724,261.719,-26.367,-35.645,113.281,0.000
1737554054.728,-980.957,-43.945,-19.531,-31.250,0.000
1737554054.732,-1000.000,-26.855,-18.066,-170.898,0.000
1737554054.736,-174.805,-18.066,-23.926,-78.125,0.000
1737554054.740,999.512,-12.207,-24.902,-4.395,0.000
1737554054.744,285.645,-6.348,-28.320,-150.391,0.000
1737554054.748,-976.074,-13.184,-23.926,-173.340,0.000
1737554054.752,-1000.000,-19.043,-14.160,0.000,0.000
1737554054.756,-307.617,-20.508,-14.648,137.695,0.000
1737554054.760,999.512,-22.949,-20.508,116.699,0.000
1737554054.764,634.766,-31.738,-32.227,96.680,0.000
1737554054.767,-722.656,-39.551,-41.992,119.629,0.000
1737554054.771,-1000.000,-26.367,-24.414,105.469,0.000
1737554054.775,-166.504,-23.926,-4.883,81.055,0.000
1737554054.779,999.512,-25.879,-5.859,-10.254,0.000
1737554054.783,612.793,-13.184,-25.879,-162.109,0.000
1737554054.787,-712.402,-25.879,-33.203,-154.785,0.000
1737554054.791,-1000.000,-30.762,-25.879,153.320,0.000
1737554054.795,-224.609,-27.344,-19.043,164.551,0.000
1737554054.799,952.637,-24.414,-15.137,-1.953,0.000
1737554054.803,999.512,-12.695,-25.879,-30.762,0.000
1737554054.806,121.582,-25.879,-27.344,23.438,0.000
1737554054.810,-1000.000,-21.973,-27.344,97.168,0.000
1737554054.814,-723.145,-2.930,-37.598,-68.359,0.000
1737554054.818,569.824,-5.371,-32.227,-271.973,0.000
1737554054.822,999.512,-13.672,-21.484,-90.820,0.000
1737554054.826,59.570,-24.902,-20.020,-53.223,0.000
1737554054.830,-1000.000,-18.066,-18.555,-166.504,0.000
1737554054.834,-966.797,-16.113,-20.996,-96.191,0.000
1737554054.838,136.719,-19.531,-28.809,-106.445,0.000
1737554054.842,999.512,-13.184,-28.320,9.277,0.000
1737554054.845,386.230,-29.297,-14.160,102.539,0.000
1737554054.849,-940.918,-44.434,-7.812,1.465,0.000
1737554054.853,-1000.000,-27.832,-11.719,-53.711,0.000
1737554054.857,82.520,3.418,-15.625,-49.805,0.000
1737554054.861,999.512,10.742,-19.043,49.805,0.000
1737554054.865,307.129,-2.441,-20.020,110.840,0.000
1737554054.869,-968.750,-2.930,-21.484,108.887,0.000
1737554054.873,-1000.000,-5.859,-22.949,56.641,0.000
1737554054.877,-106.934,-20.020,-15.137,-29.297,0.000
1737554054.881,999.512,-7.324,-22.949,47.852,0.000
1737554054.885,251.465,7.812,-38.574,145.996,0.000
1737554054.888,-983.398,18.066,-25.879,112.793,0.000
1737554054.892,-1000.000,27.344,-14.648,37.109,0.000
1737554054.896,-583.008,23.438,-18.555,87.891,0.000
1737554054.900,946.777,27.344,-18.555,84.473,0.000
1737554054.904,272.461,36.133,-18.555,167.480,0.000
1737554054.908,-1000.000,23.926,-20.020,281.738,0.000
1737554054.912,-979.004,15.137,-5.859,1.465,0.000
1737554054.916,-970.215,9.766,0.977,-138.184,0.000
1737554054.920,-1000.000,10.254,-6.348,-6.836,0.000
1737554054.924,-1000.000,29.785,-1.465,-241.699,0.000
1737554054.928,-933.105,17.578,-11.230,-312.988,0.000
1737554054.931,-1000.000,15.137,-27.344,-32.227,0.000
1737554054.935,-551.270,34.180,-10.742,54.199,0.000
1737554054.939,802.734,46.387,27.832,31.738,0.000
1737554054.943,999.512,26.855,21.484,38.086,0.000
1737554054.947,28.809,-0.977,15.137,17.090,0.000
1737554054.951,-1000.000,30.762,20.020,20.020,0.000
1737554054.955,-92.285,45.898,16.602,108.887,0.000
1737554054.959,999.512,28.320,1.953,105.957,0.000
1737554054.963,937.988,28.809,-14.160,55.664,0.000
1737554054.967,948.730,44.922,-2.441,92.773,0.000
1737554054.971,975.586,44.434,-5.371,129.883,0.000
1737554054.974,964.355,36.133,4.395,75.195,0.000
1737554054.978,916.992,28.809,25.391,82.031,0.000
1737554054.982,999.512,8.789,13.184,98.145,0.000
1737554054.986,157.227,7.324,8.301,-88.867,0.000
1737554054.990,-1000.000,13.672,0.000,-165.039,0.000
1737554054.994,-188.477,-20.020,-13.184,-122.559,0.000
1737554054.998,999.512,-23.926,-15.137,-211.914,0.000
1737554055.002,988.770,11.719,-17.090,-136.230,0.000
1737554055.006,774.902,12.207,-22.949,44.434,0.000
1737554055.010,-427.246,0.000,-41.992,-49.805,0.000
1737554055.014,-1000.000,-20.996,-34.180,-327.637,0.000
1737554055.017,-135.742,-32.227,-23.438,-402.344,0.000
1737554055.021,999.512,-23.926,-28.320,-251.465,0.000
1737554055.025,919.434,-33.691,-24.414,-91.309,0.000
1737554055.029,905.762,-38.086,-25.391,175.293,0.000
1737554055.033,972.656,-16.602,-20.508,141.113,0.000
1737554055.037,922.363,-24.414,-27.344,-16.113,0.000
1737554055.041,999.512,-57.129,-45.898,78.125,0.000
1737554055.045,59.570,-55.664,-39.551,121.094,0.000
1737554055.049,-1000.000,-42.969,-20.996,77.148,0.000
1737554055.053,-1000.000,-44.434,-16.113,125.488,0.000
1737554055.056,-189.453,-51.270,-37.109,81.055,0.000
1737554055.060,999.512,-41.992,-42.480,4.883,0.000
1737554055.064,604.004,-36.133,-30.762,95.703,0.000
1737554055.068,-693.848,-57.129,-32.227,145.020,0.000
1737554055.072,-1000.000,-58.594,-27.344,39.551,0.000
1737554055.076,-330.078,-53.711,-23.926,-12.695,0.000
1737554055.080,999.512,-41.992,-21.973,72.266,0.000
1737554055.084,802.734,-24.414,-21.484,187.012,0.000
1737554055.088,-526.855,-30.273,-21.484,-24.414,0.000
1737554055.092,-1000.000,-38.086,-32.227,-185.059,0.000
1737554055.096,-865.234,-53.223,-39.062,43.945,0.000
1737554055.099,537.109,-51.758,-21.484,142.090,0.000
1737554055.103,682.617,-47.852,-19.531,150.879,0.000
1737554055.107,-870.117,-51.270,-21.484,69.336,0.000
1737554055.111,-1000.000,-47.363,-20.508,-179.688,0.000
1737554055.115,-963.379,-44.922,-27.344,-171.875,0.000
1737554055.119,-957.520,-39.062,-12.207,-1.465,0.000
1737554055.123,-899.902,-47.852,-12.207,-3.418,0.000
1737554055.127,-944.824,-67.871,-24.414,62.012,0.000
1737554055.131,-1000.000,-60.059,-14.648,203.613,0.000
1737554055.135,-691.895,-47.363,-11.230,115.723,0.000
1737554055.139,616.699,-35.156,-24.414,38.086,0.000
1737554055.142,999.512,-32.227,-32.715,122.559,0.000
1737554055.146,86.426,-35.645,-27.832,97.656,0.000
1737554055.150,-1000.000,-33.691,-32.715,26.855,0.000
1737554055.154,-907.715,-48.340,-48.828,14.648,0.000
1737554055.158,333.984,-47.852,-41.504,54.688,0.000
1737554055.162,999.512,-35.645,-20.508,34.668,0.000
1737554055.166,-8.789,-32.227,-22.461,39.551,0.000
1737554055.170,-1000.000,-55.176,-24.902,33.691,0.000
1737554055.174,-1000.000,-57.129,-11.230,-197.754,0.000
1737554055.178,-72.754,-23.438,-7.812,-301.758,0.000
1737554055.181,999.512,-16.113,-17.578,-322.754,0.000
1737554055.185,136.719,-22.461,-18.066,-401.367,0.000
1737554055.189,-1000.000,-23.926,-13.672,-343.262,0.000
1737554055.193,-960.449,-28.809,-23.438,-199.219,0.000
1737554055.197,165.039,-29.297,-44.922,-276.855,0.000
1737554055.201,999.512,-30.273,-49.805,-358.398,0.000
1737554055.205,324.707,-21.484,-32.227,-311.523,0.000
1737554055.209,-1000.000,-14.648,-23.438,-241.211,0.000
1737554055.213,-552.246,-25.879,-17.578,122.070,0.000
1737554055.217,806.641,-44.434,-20.996,335.449,0.000
1737554055.221,999.512,-54.688,-20.508,248.047,0.000
1737554055.224,448.242,-36.621,-7.812,217.285,0.000
1737554055.228,-816.895,-14.160,-15.625,247.070,0.000
1737554055.232,-1000.000,-8.301,-19.043,178.711,0.000
1737554055.236,-165.039,-19.043,-9.277,58.594,0.000
1737554055.240,999.512,-30.762,-20.508,72.754,0.000
1737554055.244,416.504,-22.949,-41.016,-134.766,0.000
1737554055.248,-939.453,-11.230,-22.461,-410.645,0.000
1737554055.252,-1000.000,-20.020,-10.254,-251.953,0.000
1737554055.256,62.500,-27.344,-25.391,45.898,0.000
1737554055.260,999.512,-16.113,-27.344,31.250,0.000
1737554055.263,999.512,-22.461,-15.625,37.598,0.000
1737554055.267,116.211,-26.855,-8.789,155.273,0.000
1737554055.271,-1000.000,-18.066,-11.719,18.555,0.000
1737554055.275,-327.148,-14.160,-26.367,-32.227,0.000
1737554055.279,958.008,-18.555,-35.645,151.367,0.000
1737554055.283,999.512,-25.391,-21.484,107.910,0.000
1737554055.287,93.750,-24.902,-4.883,125.000,0.000
1737554055.291,-1000.000,-33.203,-5.371,175.781,0.000
1737554055.295,-231.445,-31.738,-20.020,168.945,0.000
1737554055.299,987.793,-23.926,-25.879,211.426,0.000
1737554055.303,999.512,-24.414,-25.391,201.172,0.000
1737554055.306,175.781,-18.066,-26.855,133.301,0.000
1737554055.310,-1000.000,-14.160,-21.484,0.488,0.000
1737554055.314,-674.316,-23.926,-11.719,-118.652,0.000
1737554055.318,640.137,-15.625,-16.602,-135.742,0.000
1737554055.322,999.512,-11.719,-11.719,-8.301,0.000
1737554055.326,203.613,-13.672,-13.672,86.426,0.000
1737554055.330,-1000.000,-21.484,-24.902,88.867,0.000
1737554055.334,-838.379,-27.832,-23.926,147.949,0.000
1737554055.338,459.473,-22.461,-20.020,158.691,0.000
1737554055.342,999.512,-16.113,-36.621,72.754,0.000
1737554055.346,126.953,-26.855,-51.758,82.520,0.000
1737554055.349,-1000.000,-27.832,-38.086,177.734,0.000
1737554055.353,-1000.000,-9.766,-18.066,145.996,0.000
1737554055.357,0.488,-19.043,-8.789,104.004,0.000
1737554055.361,999.512,-18.555,-5.859,38.574,0.000
1737554055.365,298.828,-13.672,-10.254,-81.543,0.000
1737554055.369,-1000.000,-12.207,-23.926,-205.078,0.000
1737554055.373,-1000.000,-4.395,-34.668,-66.895,0.000
1737554055.377,73.730,-15.137,-26.855,118.164,0.000
1737554055.381,999.512,-22.949,-24.414,32.715,0.000
1737554055.385,356.934,-16.113,-30.762,50.781,0.000
1737554055.388,-906.738,-16.602,-32.227,111.816,0.000
1737554055.392,-1000.000,-18.555,-36.621,0.977,0.000
1737554055.396,-236.328,-19.531,-29.785,51.758,0.000
1737554055.400,999.512,-25.879,-11.230,106.445,0.000
1737554055.404,319.336,-35.645,-5.371,-15.137,0.000
1737554055.408,-861.328,-36.133,-11.230,27.832,0.000
1737554055.412,-1000.000,-14.648,-16.113,84.473,0.000
1737554055.416,-197.754,-6.836,-21.973,104.004,0.000
1737554055.420,999.512,-24.902,-23.438,126.465,0.000
1737554055.424,696.777,-27.832,-26.855,113.281,0.000
1737554055.428,-595.703,-18.555,-34.180,70.312,0.000
1737554055.431,-1000.000,-14.160,-26.855,-223.633,0.000
1737554055.435,-502.441,-16.113,-21.484,-232.422,0.000
1737554055.439,813.477,-13.672,-31.250,102.539,0.000
1737554055.443,999.512,-16.602,-33.691,145.996,0.000
1737554055.447,-74.707,-27.832,-24.414,55.176,0.000
1737554055.451,-1000.000,-35.156,-25.391,75.684,0.000
1737554055.455,-251.465,-15.625,-26.855,130.371,0.000
1737554055.459,980.469,-5.859,-22.461,65.430,0.000
1737554055.463,999.512,-20.508,-25.391,15.137,0.000
1737554055.467,61.035,-17.578,-23.438,41.504,0.000
1737554055.471,-1000.000,-18.555,-12.695,99.121,0.000
1737554055.474,-910.156,-17.578,-11.230,-62.988,0.000
1737554055.478,264.160,-19.531,-18.066,-7.812,0.000
1737554055.482,999.512,-24.414,-26.855,93.262,0.000
1737554055.486,231.445,-25.879,-36.621,41.992,0.000
1737554055.490,-1000.000,-28.809,-37.598,115.723,0.000
1737554055.494,-785.156,-34.180,-16.602,199.219,0.000
1737554055.498,539.551,-29.785,-7.812,41.992,0.000
1737554055.502,999.512,-3.906,-27.832,-79.102,0.000
1737554055.506,63.965,-12.695,-32.227,8.301,0.000
1737554055.510,-1000.000,-34.180,-34.668,135.742,0.000
1737554055.514,-1000.000,-27.832,-40.039,123.535,0.000
1737554055.517,-156.738,-13.672,-18.066,-81.055,0.000
1737554055.521,999.512,-4.883,-6.348,-59.082,0.000
1737554055.525,359.863,-20.020,-10.742,20.020,0.000
1737554055.529,-978.516,-28.320,-9.766,-38.574,0.000
1737554055.533,-1000.000,-8.789,-18.555,11.719,0.000
1737554055.537,12.207,-10.742,-26.855,-31.738,0.000
1737554055.541,999.512,-18.066,-17.090,-38.574,0.000
1737554055.545,321.777,-7.812,-25.879,54.688,0.000
1737554055.549,-940.430,-10.254,-51.758,-36.621,0.000
1737554055.553,-1000.000,-18.066,-42.969,-59.082,0.000
1737554055.556,-321.777,-13.184,-6.836,60.059,0.000
1737554055.560,999.512,-17.578,-1.953,37.598,0.000
1737554055.564,231.934,-29.785,-22.461,-219.238,0.000
1737554055.568,-1000.000,-23.438,-23.438,-416.504,0.000
1737554055.572,-1000.000,-11.230,-13.184,-336.426,0.000
1737554055.576,-493.652,-20.508,-5.859,-313.965,0.000
1737554055.580,874.512,-28.320,-4.883,-178.223,0.000
1737554055.584,975.586,-19.043,-15.137,100.586,0.000
1737554055.588,-350.586,-26.367,-19.531,286.133,0.000
1737554055.592,-1000.000,-27.832,-19.043,132.812,0.000
1737554055.596,-1000.000,-22.949,-24.414,-304.199,0.000
1737554055.599,-428.711,-25.879,-36.133,-469.238,0.000
1737554055.603,913.086,-18.555,-42.969,-235.352,0.000
1737554055.607,991.699,-18.555,-35.645,127.930,0.000
1737554055.611,923.828,-20.508,-24.902,260.254,0.000
1737554055.615,925.781,-25.391,-21.973,297.852,0.000
1737554055.619,999.512,-41.992,-17.090,239.258,0.000
1737554055.623,757.324,-26.855,-4.883,137.207,0.000
1737554055.627,-546.387,-14.160,1.465,122.070,0.000
1737554055.631,-1000.000,-6.836,-4.395,79.590,0.000
1737554055.635,-867.188,-3.418,-8.789,-27.832,0.000
1737554055.638,306.152,-4.883,-12.695,19.531,0.000
1737554055.642,999.512,-11.230,-24.414,63.965,0.000
1737554055.646,126.953,-24.902,-11.719,156.738,0.000
1737554055.650,-1000.000,-29.785,-13.672,223.633,0.000
1737554055.654,-819.824,-25.879,-28.809,133.301,0.000
1737554055.658,446.289,-8.789,-25.879,105.469,0.000
1737554055.662,999.512,12.695,-15.625,123.535,0.000
1737554055.666,674.316,7.324,-4.395,61.523,0.000
1737554055.670,-620.605,-15.625,-1.953,111.816,0.000
1737554055.674,-1000.000,-13.672,-28.320,45.410,0.000
1737554055.678,231.445,-21.973,-20.508,15.625,0.000
1737554055.681,999.512,-21.973,-1.953,-97.656,0.000
1737554055.685,89.844,3.418,-10.742,-280.762,0.000
1737554055.689,-1000.000,-11.719,-15.137,-183.594,0.000
1737554055.693,-1000.000,-27.832,-18.066,-294.434,0.000
1737554055.697,-445.801,-0.977,-27.344,-282.227,0.000
1737554055.701,999.512,-5.859,-36.133,-214.844,0.000
1737554055.705,170.410,-41.504,-18.555,-220.215,0.000
1737554055.709,-1000.000,-46.875,-8.301,69.336,0.000
1737554055.713,-898.926,-12.695,-14.160,120.117,0.000
1737554055.717,-1000.000,14.160,-10.742,-39.062,0.000
1737554055.721,-168.945,5.371,-14.160,75.684,0.000
1737554055.724,470.215,-9.277,-33.203,158.691,0.000
1737554055.728,-911.621,-30.273,-40.039,117.188,0.000
1737554055.732,-1000.000,-36.621,-33.203,59.570,0.000
1737554055.736,-1000.000,-22.461,-36.133,72.754,0.000
1737554055.740,91.797,-8.301,-18.555,192.871,0.000
1737554055.744,637.695,-8.301,-2.441,249.023,0.000
1737554055.748,-881.836,-11.719,-30.762,90.332,0.000
1737554055.752,-1000.000,-14.160,-37.109,1.465,0.000
1737554055.756,-942.383,-21.973,-21.484,101.562,0.000
1737554055.760,-1000.000,-32.227,-21.973,70.312,0.000
1737554055.763,-980.469,-30.273,-20.020,-119.629,0.000
1737554055.767,-976.562,-12.207,-18.066,-149.414,0.000
1737554055.771,-1000.000,-16.602,-23.438,100.586,0.000
1737554055.775,9.277,-20.020,-27.344,176.758,0.000
1737554055.779,999.512,-21.484,-50.781,104.004,0.000
1737554055.783,426.270,-37.598,-63.477,-102.539,0.000
1737554055.787,-921.875,-23.438,-31.250,-59.082,0.000
1737554055.791,-992.188,10.254,-9.766,200.195,0.000
1737554055.795,-1000.000,14.648,-7.812,53.223,0.000
1737554055.799,-82.520,10.742,-8.789,-223.633,0.000
1737554055.803,983.398,1.953,-22.949,-395.996,0.000
1737554055.806,-315.918,-1.953,-34.180,-367.676,0.000
1737554055.810,-1000.000,5.859,-26.367,-174.805,0.000
1737554055.814,-949.219,17.090,-14.648,-96.191,0.000
1737554055.818,174.316,9.277,-24.902,-13.184,0.000
1737554055.822,999.512,2.930,-19.043,108.887,0.000
1737554055.826,-285.156,11.719,-17.090,74.219,0.000
1737554055.830,-1000.000,6.836,-22.461,98.633,0.000
1737554055.834,-943.848,16.602,-16.602,51.758,0.000
1737554055.838,-998.047,11.719,-12.695,-38.574,0.000
1737554055.842,-1000.000,-6.836,-9.277,-201.172,0.000
1737554055.846,-1000.000,-7.812,-6.348,-411.133,0.000
1737554055.849,-973.145,-4.883,-11.230,-348.145,0.000
1737554055.853,-987.793,-5.371,-18.555,-240.234,0.000
1737554055.857,-1000.000,-26.367,-33.203,-241.211,0.000
1737554055.861,287.598,-8.301,-28.809,-331.543,0.000
1737554055.865,684.082,49.805,1.465,-415.527,0.000
1737554055.869,-1000.000,35.156,16.113,-286.133,0.000
1737554055.873,-566.895,21.484,18.555,-187.988,0.000
1737554055.877,933.105,41.992,13.672,-196.777,0.000
1737554055.881,997.070,35.645,1.465,-249.512,0.000
1737554055.885,920.410,46.875,-17.578,-12.207,0.000
1737554055.888,982.910,37.598,-11.230,303.223,0.000
1737554055.892,969.727,17.578,-2.930,333.984,0.000
1737554055.896,970.215,23.438,-13.672,227.539,0.000
1737554055.900,970.215,14.648,-4.395,183.105,0.000
1737554055.904,969.727,0.488,0.977,272.461,0.000
1737554055.908,969.727,-16.602,-7.324,271.973,0.000
1737554055.912,976.074,-39.062,-24.414,204.590,0.000
1737554055.916,943.848,-29.297,-28.809,204.590,0.000
1737554055.920,958.984,-10.742,-24.902,151.855,0.000
1737554055.924,989.258,-6.348,-44.922,124.512,0.000
1737554055.928,-130.371,-20.020,-46.875,-102.539,0.000
1737554055.931,-1000.000,-34.180,-28.320,-219.238,0.000
1737554055.935,-312.012,-28.320,-33.203,-147.461,0.000
1737554055.939,946.777,-21.973,-40.527,-74.707,0.000
1737554055.943,999.512,-26.367,-33.691,104.492,0.000
1737554055.947,33.203,-32.227,-37.109,95.703,0.000
1737554055.951,-1000.000,-34.668,-46.875,108.887,0.000
1737554055.955,-729.492,-42.969,-51.758,-19.531,0.000
1737554055.959,529.785,-46.875,-50.293,-94.727,0.000
1737554055.963,999.512,-46.875,-27.832,66.406,0.000
1737554055.967,45.410,-37.598,-20.996,130.371,0.000
1737554055.970,-1000.000,-28.809,-21.484,83.984,0.000
1737554055.974,-1000.000,-26.855,-12.695,-220.215,0.000
1737554055.978,-284.668,-24.414,-20.020,-195.801,0.000
1737554055.982,999.512,-35.645,-27.344,65.430,0.000
1737554055.986,928.223,-56.152,-32.227,225.586,0.000
1737554055.990,-221.680,-58.594,-40.039,353.516,0.000
1737554055.994,-1000.000,-41.504,-40.039,182.129,0.000
1737554055.998,-134.277,-28.809,-30.273,75.195,0.000
1737554056.002,999.512,-30.762,-32.227,235.352,0.000
1737554056.006,214.355,-36.621,-31.250,171.387,0.000
1737554056.010,-1000.000,-42.969,-28.320,130.371,0.000
1737554056.013,-1000.000,-50.293,-39.551,173.828,0.000
1737554056.017,-85.938,-54.199,-37.598,169.434,0.000
1737554056.021,999.512,-42.480,-26.367,119.629,0.000
1737554056.025,246.582,-23.438,-19.531,63.477,0.000
1737554056.029,-982.422,-31.250,-8.301,76.660,0.000
1737554056.033,-1000.000,-43.457,-3.418,84.473,0.000
1737554056.037,-390.625,-37.109,-17.090,43.457,0.000
1737554056.041,999.512,-31.738,-27.344,-98.145,0.000
1737554056.045,458.984,-40.039,-23.926,-65.430,0.000
1737554056.049,-899.414,-41.016,-20.508,51.270,0.000
1737554056.053,-1000.000,-38.574,-20.020,-36.133,0.000
1737554056.056,-242.676,-31.738,-21.484,2.441,0.000
1737554056.060,999.512,-47.852,-31.250,-72.754,0.000
1737554056.064,388.672,-57.129,-24.414,-61.523,0.000
1737554056.068,-932.617,-48.828,-16.113,140.137,0.000
1737554056.072,-1000.000,-41.992,-16.113,-6.836,0.000
1737554056.076,-712.402,-25.879,-22.461,-16.113,0.000
1737554056.080,596.680,-25.879,-20.508,15.137,0.000
1737554056.084,999.512,-30.762,-9.766,5.859,0.000
1737554056.088,-221.191,-26.367,-3.906,-45.410,0.000
1737554056.092,-1000.000,-20.508,-11.230,-335.938,0.000
1737554056.096,-541.504,-20.996,-13.184,-387.695,0.000
1737554056.099,790.039,-31.738,-11.719,-47.363,0.000
1737554056.103,999.512,-40.527,-15.137,116.211,0.000
1737554056.107,-70.801,-47.363,-15.625,35.156,0.000
1737554056.111,-1000.000,-57.617,-10.742,155.762,0.000
1737554056.115,-432.617,-45.898,-13.672,256.836,0.000
1737554056.119,865.234,-21.973,-29.297,122.070,0.000
1737554056.123,999.512,-15.625,-41.992,88.379,0.000
1737554056.127,106.445,-21.973,-34.180,91.309,0.000
1737554056.131,-1000.000,-31.738,-16.113,84.473,0.000
1737554056.135,-492.676,-30.762,-6.836,143.555,0.000
1737554056.139,997.070,-21.973,-18.555,-96.191,0.000
1737554056.142,734.375,-15.625,-20.020,-485.840,0.000
1737554056.146,-661.133,-31.250,-3.418,-309.082,0.000
1737554056.150,-1000.000,-41.504,-10.742,-60.059,0.000
1737554056.154,-833.008,-38.574,-28.809,-46.875,0.000
1737554056.158,335.449,-17.090,-19.043,-26.367,0.000
1737554056.162,999.512,-6.348,-16.113,76.172,0.000
1737554056.166,700.195,-10.254,-27.832,227.539,0.000
1737554056.170,-522.949,-22.949,-37.109,68.848,0.000
1737554056.174,-1000.000,-29.297,-21.973,-77.637,0.000
1737554056.178,-178.223,-33.691,-13.672,-50.781,0.000
1737554056.181,999.512,-36.621,-26.855,19.043,0.000
1737554056.185,360.840,-12.207,-13.184,81.055,0.000
1737554056.189,-962.402,-16.113,-13.672,75.684,0.000
1737554056.193,-1000.000,-39.062,-15.137,183.594,0.000
1737554056.197,-90.820,-23.926,-13.672,217.773,0.000
1737554056.201,999.512,0.488,-23.926,106.934,0.000
1737554056.205,713.867,-0.977,-19.531,123.047,0.000
1737554056.209,-591.797,-19.043,-18.555,162.598,0.000
1737554056.213,-1000.000,-31.250,-16.113,168.945,0.000
1737554056.217,-43.945,-31.738,-7.812,89.844,0.000
1737554056.221,999.512,-12.695,-6.836,-97.656,0.000
1737554056.224,595.703,-2.930,-9.277,-95.703,0.000
1737554056.228,-686.523,-17.090,-18.066,85.449,0.000
1737554056.232,-1000.000,-16.602,-35.156,40.527,0.000
1737554056.236,-512.695,-13.184,-17.090,-40.039,0.000
1737554056.240,861.816,-21.484,0.977,35.156,0.000
1737554056.244,935.059,-20.020,-12.695,44.922,0.000
1737554056.248,-372.559,-7.812,-11.719,-62.500,0.000
1737554056.252,-1000.000,-4.395,-9.766,-115.723,0.000
1737554056.256,-322.754,-18.066,-7.812,-43.945,0.000
1737554056.260,907.227,-25.391,-7.324,45.410,0.000
1737554056.264,999.512,-20.020,-13.184,171.875,0.000
1737554056.267,194.824,-17.090,-9.766,128.418,0.000
1737554056.271,-1000.000,-20.508,-4.883,37.598,0.000
1737554056.275,-780.273,-22.949,-9.277,-9.766,0.000
1737554056.279,578.613,-11.230,-16.602,-37.598,0.000
1737554056.283,999.512,-0.488,-21.973,113.770,0.000
1737554056.287,-247.559,-21.973,-15.625,114.746,0.000
1737554056.291,-1000.000,-26.367,-2.441,-228.027,0.000
1737554056.295,-995.117,1.953,-6.836,-389.160,0.000
1737554056.299,-896.484,9.277,-5.859,-170.410,0.000
1737554056.303,-598.633,5.371,-17.578,8.301,0.000
1737554056.306,-916.992,14.160,-20.508,10.742,0.000
1737554056.310,-1000.000,19.531,-12.207,-187.500,0.000
1737554056.314,-976.562,16.113,-9.277,-267.090,0.000
1737554056.318,-1000.000,14.160,-9.766,-178.223,0.000
1737554056.322,-1000.000,12.695,-14.648,-257.324,0.000
1737554056.326,-1000.000,11.719,-17.578,-98.633,0.000
1737554056.330,-987.793,23.438,-22.949,107.422,0.000
1737554056.334,-1000.000,7.812,-2.930,175.781,0.000
1737554056.338,-1000.000,19.043,24.902,150.391,0.000
1737554056.342,-449.219,52.246,28.320,-13.672,0.000
1737554056.346,-482.910,43.457,27.344,-62.500,0.000
1737554056.349,-1000.000,40.039,23.438,-26.855,0.000
1737554056.353,-885.742,31.250,21.484,-22.949,0.000
1737554056.357,346.191,17.090,24.902,68.359,0.000
1737554056.361,999.512,25.391,18.066,138.184,0.000
1737554056.365,660.156,10.742,3.418,125.000,0.000
1737554056.369,-574.707,7.324,-0.488,6.836,0.000
1737554056.373,-1000.000,25.879,0.488,-266.602,0.000
1737554056.377,-689.453,21.484,-3.906,-283.691,0.000
1737554056.381,598.145,12.207,-2.441,-195.801,0.000
1737554056.385,999.512,17.090,-8.789,-131.836,0.000
1737554056.388,-115.723,14.648,-11.719,-126.953,0.000
1737554056.392,-1000.000,-22.949,0.488,-155.762,0.000
1737554056.396,-336.426,-31.738,-21.973,-114.746,0.000
1737554056.400,970.215,0.488,-41.992,139.648,0.000
1737554056.404,999.512,8.789,-1.953,336.426,0.000
1737554056.408,-106.934,9.277,30.762,154.297,0.000
1737554056.412,-1000.000,16.113,28.320,172.363,0.000
1737554056.416,-123.047,41.992,10.254,322.754,0.000
1737554056.420,999.512,14.648,7.812,176.758,0.000
1737554056.424,943.848,-21.484,-11.719,77.148,0.000
1737554056.428,946.777,-10.254,-29.785,123.535,0.000
1737554056.431,976.074,11.230,-12.207,176.758,0.000
1737554056.435,969.727,24.902,-16.602,190.430,0.000
1737554056.439,909.668,9.766,-19.531,137.695,0.000
1737554056.443,999.512,-27.344,-23.926,125.488,0.000
1737554056.447,250.488,-39.062,-26.367,124.023,0.000
1737554056.451,-1000.000,-23.438,-21.484,88.867,0.000
1737554056.455,-412.109,-24.414,-22.949,82.520,0.000
1737554056.459,901.855,-17.090,-25.391,128.906,0.000
1737554056.463,999.512,-20.020,-29.297,79.590,0.000
1737554056.467,551.270,-31.250,-26.855,55.176,0.000
1737554056.471,-733.887,-29.297,-32.227,112.305,0.000
1737554056.474,-1000.000,-38.574,-32.715,117.676,0.000
1737554056.478,-5.371,-42.969,-33.691,160.156,0.000
1737554056.482,999.512,-41.016,-39.551,211.914,0.000
1737554056.486,491.211,-52.246,-35.156,202.637,0.000
1737554056.490,-952.148,-76.660,-21.973,83.984,0.000
1737554056.494,-882.324,-73.242,-18.555,16.113,0.000
1737554056.498,479.004,-52.246,-36.621,-15.625,0.000
1737554056.502,999.512,-39.551,-39.062,-78.125,0.000
1737554056.506,102.539,-29.785,-24.902,-31.250,0.000
1737554056.510,-1000.000,-28.320,-20.020,-213.867,0.000
1737554056.514,-1000.000,-35.156,-18.555,-349.609,0.000
1737554056.517,-274.414,-41.016,-21.973,-213.867,0.000
1737554056.521,987.305,-40.039,-27.344,-6.348,0.000
1737554056.525,997.070,-48.828,-24.902,37.109,0.000
1737554056.529,-138.672,-62.012,-17.578,14.160,0.000
1737554056.533,-1000.000,-52.246,-27.344,38.574,0.000
1737554056.537,-1000.000,-54.199,-47.363,24.902,0.000
1737554056.541,319.336,-55.664,-40.527,129.395,0.000
1737554056.545,461.426,-33.691,-25.879,57.129,0.000
1737554056.549,-990.234,-37.109,-18.555,66.406,0.000
1737554056.553,-1000.000,-40.527,-18.555,204.102,0.000
1737554056.557,-102.051,-26.855,-26.855,170.410,0.000
1737554056.560,999.512,-26.367,-18.066,144.531,0.000
1737554056.564,890.625,-21.973,-12.207,214.355,0.000
1737554056.568,-338.867,-29.297,-18.066,118.652,0.000
1737554056.572,-1000.000,-38.574,-18.555,41.504,0.000
1737554056.576,-944.336,-42.480,-22.949,92.773,0.000
1737554056.580,268.555,-41.992,-21.973,139.648,0.000
1737554056.584,999.512,-41.992,-18.555,32.227,0.000
1737554056.588,-319.336,-56.152,-15.625,-49.316,0.000
1737554056.592,-1000.000,-61.035,-6.348,29.785,0.000
1737554056.596,-470.215,-32.227,-11.230,60.059,0.000
1737554056.599,851.562,-11.230,-17.090,-20.996,0.000
1737554056.603,999.512,-18.066,-13.672,-0.977,0.000
1737554056.607,-176.758,-22.949,-27.832,-225.586,0.000
1737554056.611,-1000.000,-21.484,-34.180,-460.938,0.000
1737554056.615,-1000.000,-30.762,-29.297,-446.289,0.000
1737554056.619,-159.668,-42.969,-9.766,-309.082,0.000
1737554056.623,999.512,-50.781,-2.930,-16.113,0.000
1737554056.627,820.801,-49.805,-13.184,115.234,0.000
1737554056.631,-397.461,-32.715,-6.836,144.043,0.000
1737554056.635,-1000.000,-29.785,-4.395,71.289,0.000
1737554056.639,-15.137,-22.949,-7.812,-1.953,0.000
1737554056.642,999.512,-25.391,-11.719,-29.297,0.000
1737554056.646,307.129,-34.180,-12.207,-52.246,0.000
1737554056.650,-1000.000,-31.250,-10.742,26.367,0.000
1737554056.654,-470.703,-36.133,-14.648,28.809,0.000
1737554056.658,862.793,-40.039,-21.973,-1.953,0.000
1737554056.662,999.512,-22.461,-16.602,196.289,0.000
1737554056.666,439.453,-30.273,-7.812,231.445,0.000
1737554056.670,-816.406,-33.203,-17.578,49.805,0.000
1737554056.674,-1000.000,-15.137,-28.320,9.766,0.000
1737554056.678,-218.262,-19.043,-29.785,-49.805,0.000
1737554056.682,999.512,-29.297,-18.066,105.957,0.000
1737554056.685,960.449,-32.227,-8.789,177.734,0.000
1737554056.689,-169.922,-28.809,-9.766,53.711,0.000
1737554056.693,-1000.000,-38.574,-7.812,-11.230,0.000
1737554056.697,-234.863,-38.574,-10.254,83.008,0.000
1737554056.701,999.512,-21.484,-12.695,156.738,0.000
1737554056.705,664.062,-21.973,-15.625,35.645,0.000
1737554056.709,-666.016,-17.090,-25.879,-18.555,0.000
1737554056.713,-1000.000,-15.625,-22.461,7.324,0.000
1737554056.717,-173.340,-24.414,-6.348,39.551,0.000
1737554056.721,999.512,-25.879,-8.789,-33.203,0.000
1737554056.724,873.535,-36.621,-26.367,-67.871,0.000
1737554056.728,-329.102,-33.203,-27.832,-5.859,0.000
1737554056.732,-1000.000,-12.695,-8.301,-30.273,0.000
1737554056.736,-339.844,-14.160,-3.906,67.383,0.000
1737554056.740,999.512,-29.785,-8.301,32.227,0.000
1737554056.744,666.992,-10.742,3.906,-377.441,0.000
1737554056.748,-719.727,1.953,0.488,-498.047,0.000
1737554056.752,-1000.000,-22.461,-7.324,-194.336,0.000
1737554056.756,-79.590,-36.621,-10.254,16.113,0.000
1737554056.760,979.980,-27.344,-24.902,2.930,0.000
1737554056.764,999.512,-31.738,-17.578,8.789,0.000
1737554056.767,214.355,-33.691,-12.207,78.125,0.000
1737554056.771,-1000.000,-25.879,-24.414,84.473,0.000
1737554056.775,-644.043,-18.066,-22.461,104.980,0.000
1737554056.779,722.656,-14.648,-13.184,54.199,0.000
1737554056.783,999.512,-28.809,-5.859,-12.207,0.000
1737554056.787,-80.566,-32.715,-11.230,-168.945,0.000
1737554056.791,-1000.000,-35.645,-20.508,-270.508,0.000
1737554056.795,-1000.000,-34.668,-22.461,-374.023,0.000
1737554056.799,-195.801,-19.043,-24.414,-445.312,0.000
1737554056.803,999.512,-16.113,-27.344,-228.027,0.000
1737554056.806,508.301,-23.926,-25.391,-217.773,0.000
1737554056.810,-1000.000,-33.691,-20.996,-114.746,0.000
1737554056.814,-702.637,-47.363,-19.531,233.398,0.000
1737554056.818,695.801,-25.879,-15.625,190.430,0.000
1737554056.822,999.512,5.371,-16.602,0.000,0.000
1737554056.826,212.402,-4.883,-22.461,102.539,0.000
1737554056.830,-985.352,-21.973,-11.230,297.852,0.000
1737554056.834,-1000.000,-27.344,-15.625,169.922,0.000
1737554056.838,-86.426,-20.508,-28.320,118.164,0.000
1737554056.842,999.512,-15.137,-19.043,100.098,0.000
1737554056.846,591.797,-30.762,-29.297,122.559,0.000
1737554056.849,-722.656,-32.227,-26.855,180.664,0.000
1737554056.853,-1000.000,-21.484,0.000,175.781,0.000
1737554056.857,-135.254,-16.113,-12.695,23.438,0.000
1737554056.861,980.957,-7.812,-19.043,-17.578,0.000
1737554056.865,999.512,-6.836,0.000,76.172,0.000
1737554056.869,166.504,-13.672,0.000,107.422,0.000
1737554056.873,-1000.000,-19.531,-1.953,108.398,0.000
1737554056.877,-296.875,-18.066,-5.859,151.855,0.000
1737554056.881,999.512,-25.879,-16.113,309.082,0.000
1737554056.885,604.004,-21.973,-26.367,235.840,0.000
1737554056.889,-768.555,-4.395,-21.484,33.203,0.000
1737554056.892,-1000.000,-10.742,-26.367,14.160,0.000
1737554056.896,-954.590,-14.648,-46.387,-19.043,0.000
1737554056.900,339.844,-8.789,-31.250,-30.273,0.000
1737554056.904,699.707,-20.996,-21.973,5.371,0.000
1737554056.908,-845.215,-22.949,-28.320,-32.227,0.000
1737554056.912,-1000.000,-15.625,-13.672,54.199,0.000
1737554056.916,-973.145,-25.391,-12.207,135.742,0.000
1737554056.920,-925.781,-31.738,-16.113,20.996,0.000
1737554056.924,-776.367,-28.809,-20.020,-1.953,0.000
1737554056.928,-929.199,-28.809,-25.391,234.863,0.000
1737554056.932,-1000.000,-24.902,-31.738,231.445,0.000
1737554056.935,-176.758,-19.043,-44.434,27.832,0.000
1737554056.939,999.512,-19.531,-41.992,81.055,0.000
1737554056.943,933.105,-11.719,-22.461,50.293,0.000
1737554056.947,-330.566,-14.160,-15.137,-4.395,0.000
1737554056.951,-1000.000,-24.414,-15.137,-146.973,0.000
1737554056.955,-1000.000,-20.508,-26.855,-473.633,0.000
1737554056.959,-338.379,-20.996,-38.086,-472.656,0.000
1737554056.963,999.512,-24.414,-26.855,-304.199,0.000
1737554056.967,893.066,-19.531,-12.695,-251.953,0.000
1737554056.971,-354.492,-25.391,-16.602,-341.797,0.000
1737554056.974,-1000.000,-30.762,-29.297,-329.102,0.000
1737554056.978,62.012,-15.137,-20.996,-83.008,0.000
1737554056.982,999.512,-14.648,-20.020,155.273,0.000
1737554056.986,492.676,-21.973,-33.203,312.500,0.000
1737554056.990,-858.887,-20.508,-28.320,247.070,0.000
1737554056.994,-1000.000,-22.461,-22.461,176.758,0.000
1737554056.998,104.004,-20.996,-20.508,252.441,0.000
1737554057.002,999.512,-19.531,-17.578,169.434,0.000
1737554057.006,504.883,-20.508,-20.508,121.094,0.000
1737554057.010,-798.828,-23.438,-31.250,62.500,0.000
1737554057.014,-1000.000,-29.297,-28.809,2.930,0.000
1737554057.017,-918.945,-25.879,-19.043,33.691,0.000
1737554057.021,368.652,-17.578,-20.508,111.816,0.000
1737554057.025,869.629,-17.090,-28.809,114.258,0.000
1737554057.029,-589.844,-11.719,-25.391,72.266,0.000
1737554057.033,-1000.000,-5.371,-11.230,96.680,0.000
1737554057.037,-98.633,-9.766,-26.367,88.379,0.000
1737554057.041,999.512,-11.719,-35.156,144.531,0.000
1737554057.045,969.238,-19.531,-21.973,114.258,0.000
1737554057.049,-90.820,-24.902,-29.297,50.781,0.000
1737554057.053,-1000.000,-20.508,-27.832,16.602,0.000
1737554057.057,-423.340,-21.484,-16.602,13.672,0.000
1737554057.060,999.512,-13.672,-17.090,-53.223,0.000
1737554057.064,750.488,-20.996,-19.531,-152.344,0.000
1737554057.068,-592.773,-26.367,-20.020,21.484,0.000
1737554057.072,-1000.000,-30.762,-12.695,96.680,0.000
1737554057.076,-236.816,-28.809,-18.555,24.902,0.000
1737554057.080,950.684,-7.812,-20.020,20.996,0.000
1737554057.084,999.512,-4.883,-21.973,88.379,0.000
1737554057.088,103.027,-5.371,-35.645,104.004,0.000
1737554057.092,-1000.000,-11.230,-16.602,18.555,0.000
1737554057.096,-962.891,-17.578,-8.789,22.949,0.000
1737554057.099,258.789,-15.137,-17.578,-40.527,0.000
1737554057.103,999.512,-8.301,-10.254,-227.051,0.000
1737554057.107,-124.512,-14.160,-11.230,-309.082,0.000
1737554057.111,-1000.000,-17.578,-21.973,-350.586,0.000
1737554057.115,-966.309,-27.832,-26.855,-319.336,0.000
1737554057.119,113.770,-26.367,-25.879,-335.449,0.000
1737554057.123,999.512,-11.230,-28.320,-335.938,0.000
1737554057.127,215.332,-19.043,-35.156,-349.121,0.000
1737554057.131,-1000.000,-11.719,-27.832,-139.648,0.000
1737554057.135,-624.023,-1.465,-18.066,192.383,0.000
1737554057.139,708.008,-15.137,-16.113,172.363,0.000
1737554057.142,999.512,-18.555,-13.184,208.984,0.000
1737554057.146,217.285,-6.348,-7.812,36.621,0.000
1737554057.150,-1000.000,-8.789,-12.695,-159.180,0.000
1737554057.154,-891.113,-11.230,-22.461,41.992,0.000
1737554057.158,377.930,-5.371,-13.672,142.578,0.000
1737554057.162,999.512,-5.859,-9.766,59.570,0.000
1737554057.166,221.191,-15.625,-13.184,-24.902,0.000
1737554057.170,-998.047,-12.207,-16.113,104.004,0.000
1737554057.174,-1000.000,-8.789,-17.090,263.184,0.000
1737554057.178,-40.039,2.930,-11.230,176.270,0.000
1737554057.181,999.512,6.348,-14.160,130.371,0.000
1737554057.185,598.145,-12.207,-22.461,189.453,0.000
1737554057.189,-768.066,1.953,-18.066,163.086,0.000
1737554057.193,-1000.000,0.000,-22.461,198.242,0.000
1737554057.197,-944.336,6.348,-21.484,76.172,0.000
1737554057.201,-1000.000,17.578,-8.301,51.758,0.000
1737554057.205,-1000.000,10.742,-18.555,93.262,0.000
1737554057.209,-1000.000,18.555,-14.648,70.801,0.000
1737554057.213,-1000.000,26.367,0.977,40.039,0.000
1737554057.217,-1000.000,24.414,-9.277,-55.176,0.000
1737554057.221,-1000.000,17.090,-14.160,35.645,0.000
1737554057.224,-1000.000,16.113,-9.766,42.480,0.000
1737554057.228,-953.613,24.414,-12.207,2.441,0.000
1737554057.232,-1000.000,30.762,-14.160,-8.789,0.000
1737554057.236,-861.328,21.973,-16.113,67.871,0.000
1737554057.240,435.547,17.578,-29.785,143.066,0.000
1737554057.244,999.512,9.277,-42.969,113.770,0.000
1737554057.248,33.691,4.395,-22.949,122.070,0.000
1737554057.252,-1000.000,15.625,3.906,-1.953,0.000
1737554057.256,-708.008,26.367,-5.371,-126.953,0.000
1737554057.260,647.461,44.434,-7.812,-154.785,0.000
1737554057.264,999.512,55.664,-11.719,-78.125,0.000
1737554057.267,912.109,50.293,-46.875,14.648,0.000
1737554057.271,980.469,32.715,-32.715,-6.348,0.000
1737554057.275,974.609,19.531,-11.230,30.762,0.000
1737554057.279,903.320,15.137,-22.949,164.551,0.000
1737554057.283,999.512,20.508,-6.348,58.105,0.000
1737554057.287,345.703,16.602,-2.930,-75.684,0.000
1737554057.291,-1000.000,-7.812,-17.578,-9.277,0.000
1737554057.295,-558.105,-30.762,-22.949,-46.387,0.000
1737554057.299,863.281,-18.066,-26.855,-86.426,0.000
1737554057.303,999.512,8.301,-47.363,-18.555,0.000
1737554057.307,918.945,-4.883,-52.734,20.996,0.000
1737554057.310,982.422,-17.578,-44.434,-6.836,0.000
1737554057.314,973.633,-18.066,-32.227,-152.344,0.000
1737554057.318,904.297,-21.973,-30.762,-152.344,0.000
1737554057.322,999.512,-38.086,-50.781,62.988,0.000
1737554057.326,252.930,-60.059,-46.387,175.293,0.000
1737554057.330,-987.305,-49.316,-27.832,235.840,0.000
1737554057.334,-1000.000,-34.180,-31.738,125.977,0.000
1737554057.338,-192.383,-46.875,-37.598,-11.719,0.000
1737554057.342,999.512,-58.105,-32.227,51.758,0.000
1737554057.346,834.961,-44.922,-32.227,66.895,0.000
1737554057.349,-402.344,-25.391,-27.832,28.809,0.000
1737554057.353,-1000.000,-29.297,-28.809,89.844,0.000
1737554057.357,-434.570,-36.133,-30.762,-46.387,0.000
1737554057.361,999.512,-34.180,-36.621,-145.996,0.000
1737554057.365,556.641,-41.016,-42.969,10.254,0.000
1737554057.369,-825.195,-41.992,-33.691,148.438,0.000
1737554057.373,-1000.000,-53.223,-30.273,111.328,0.000
1737554057.377,-487.793,-65.430,-28.809,140.625,0.000
1737554057.381,908.203,-41.016,-29.785,73.242,0.000
1737554057.385,848.633,-24.902,-18.555,-27.344,0.000
1737554057.389,-500.000,-28.809,-7.324,-104.492,0.000
1737554057.392,-1000.000,-38.574,-17.090,-107.422,0.000
1737554057.396,-639.160,-41.504,-22.949,-75.195,0.000
1737554057.400,651.367,-32.715,-23.438,-73.242,0.000
1737554057.404,999.512,-28.320,-20.996,-97.656,0.000
1737554057.408,-60.547,-34.668,-24.414,-111.816,0.000
1737554057.412,-1000.000,-44.922,-28.320,-21.973,0.000
1737554057.416,-684.082,-41.016,-29.297,177.734,0.000
1737554057.420,640.625,-29.297,-31.250,146.484,0.000
1737554057.424,999.512,-30.273,-19.043,48.828,0.000
1737554057.428,-76.660,-42.480,-5.859,68.359,0.000
1737554057.432,-1000.000,-54.199,-12.207,13.184,0.000
1737554057.435,-969.727,-47.852,-13.672,-47.363,0.000
1737554057.439,98.633,-28.809,-14.648,-118.652,0.000
1737554057.443,999.512,-33.203,-27.344,-26.855,0.000
1737554057.447,296.387,-32.715,-32.227,144.043,0.000
1737554057.451,-1000.000,-25.879,-33.203,-31.738,0.000
1737554057.455,-1000.000,-24.414,-29.785,-260.254,0.000
1737554057.459,160.645,-13.672,-25.879,-338.379,0.000
1737554057.463,999.512,-10.254,-19.531,-173.828,0.000
1737554057.467,999.512,-23.438,-0.488,101.562,0.000
1737554057.471,216.797,-38.086,-3.906,-93.750,0.000
1737554057.474,-1000.000,-36.621,-17.090,-199.219,0.000
1737554057.478,-533.203,-46.387,-23.438,-18.066,0.000
1737554057.482,999.512,-44.434,-25.879,69.824,0.000
1737554057.486,243.164,-29.297,-23.926,164.062,0.000
1737554057.490,-1000.000,-37.109,-13.184,162.598,0.000
1737554057.494,-1000.000,-22.461,-6.836,83.496,0.000
1737554057.498,-716.797,-4.395,-16.113,111.816,0.000
1737554057.502,802.734,-4.883,-13.672,184.570,0.000
1737554057.506,490.723,-16.602,-12.695,191.406,0.000
1737554057.510,-935.059,-23.926,-21.973,117.676,0.000
1737554057.514,-1000.000,-27.832,-34.180,47.852,0.000
1737554057.517,-471.191,-29.297,-21.973,64.941,0.000
1737554057.521,999.512,-21.484,2.930,28.320,0.000
1737554057.525,527.344,-32.227,-2.930,-111.816,0.000
1737554057.529,-855.957,-48.340,-11.719,-60.059,0.000
1737554057.533,-1000.000,-42.480,-18.066,111.328,0.000
1737554057.537,-404.297,-28.320,-20.508,94.727,0.000
1737554057.541,903.809,-22.461,-14.160,70.801,0.000
1737554057.545,999.512,-27.344,-11.230,62.012,0.000
1737554057.549,-137.207,-32.227,-13.184,-55.176,0.000
1737554057.553,-1000.000,-25.879,-15.137,7.812,0.000
1737554057.556,-367.188,-17.578,-16.602,111.328,0.000
1737554057.560,999.512,-19.531,-11.719,-31.250,0.000
1737554057.564,660.645,-11.230,-17.090,-74.219,0.000
1737554057.568,-774.414,-8.789,-26.367,3.906,0.000
1737554057.572,-1000.000,-23.926,-21.484,32.227,0.000
1737554057.576,-993.164,-23.438,-13.184,102.539,0.000
1737554057.580,-873.047,-25.879,2.441,57.129,0.000
1737554057.584,-544.922,-45.410,9.277,45.410,0.000
1737554057.588,-905.273,-31.738,-11.230,147.949,0.000
1737554057.592,-976.074,-20.508,-5.859,18.066,0.000
1737554057.596,-1000.000,-39.062,3.906,22.949,0.000
1737554057.599,-158.691,-16.113,-29.785,80.078,0.000
1737554057.603,579.102,-1.953,-39.551,-195.312,0.000
1737554057.607,-837.402,-11.230,-20.020,-275.879,0.000
1737554057.611,-1000.000,-14.648,-17.090,-13.184,0.000
1737554057.615,-937.500,-20.996,-12.695,-61.523,0.000
1737554057.619,-1000.000,-18.066,-6.836,-46.387,0.000
1737554057.623,-1000.000,-20.020,-10.742,104.004,0.000
1737554057.627,-1000.000,-29.785,-17.578,93.262,0.000
1737554057.631,-1000.000,-21.484,-16.602,79.590,0.000
1737554057.635,-1000.000,-4.395,-24.414,-17.578,0.000
1737554057.639,-1000.000,-2.930,-27.344,-114.746,0.000
1737554057.642,-1000.000,-17.090,-18.555,-264.648,0.000
1737554057.646,-1000.000,-34.180,-10.742,-117.188,0.000
1737554057.650,-1000.000,-21.973,-12.207,183.594,0.000
1737554057.654,-1000.000,-8.789,-23.926,-209.473,0.000
1737554057.658,-1000.000,-12.207,-17.090,-317.383,0.000
1737554057.662,-1000.000,-21.484,-8.301,48.828,0.000
1737554057.666,-1000.000,-31.250,-6.836,47.363,0.000
1737554057.670,-1000.000,-24.414,-3.906,24.902,0.000
1737554057.674,-1000.000,-32.715,-18.555,179.688,0.000
1737554057.678,-1000.000,-33.203,-27.832,222.656,0.000
1737554057.682,-1000.000,-16.602,-23.438,71.289,0.000
1737554057.685,-1000.000,-21.484,-11.719,65.918,0.000
1737554057.689,-1000.000,-17.090,-5.371,119.141,0.000
1737554057.693,-1000.000,-11.230,-7.324,23.438,0.000
1737554057.697,-1000.000,-18.555,-11.719,9.277,0.000
1737554057.701,-997.070,-19.531,-27.832,106.934,0.000
1737554057.705,-999.023,-22.461,-33.691,38.086,0.000
1737554057.709,-1000.000,-33.203,-7.324,48.828,0.000
1737554057.713,-1000.000,-29.297,2.441,95.703,0.000
1737554057.717,-1000.000,-10.742,-24.414,-151.367,0.000
1737554057.721,-1000.000,-6.836,-17.090,-233.887,0.000
1737554057.724,-1000.000,-9.277,-11.719,-244.629,0.000
1737554057.728,-1000.000,-14.648,-17.578,-371.582,0.000
1737554057.732,-998.047,-18.555,-19.531,-215.332,0.000
1737554057.736,-1000.000,-18.066,-17.090,-316.406,0.000
1737554057.740,-993.652,-26.855,-12.207,-205.566,0.000
1737554057.744,-977.539,-19.043,-1.953,168.457,0.000
1737554057.748,-944.824,-15.625,-4.883,162.598,0.000
1737554057.752,-1000.000,-10.742,-14.160,45.410,0.000
1737554057.756,-805.176,14.160,-8.789,98.145,0.000
1737554057.760,505.371,15.625,-8.301,111.816,0.000
1737554057.764,999.512,1.465,-7.324,58.105,0.000
1737554057.767,-29.297,-5.371,4.395,151.855,0.000
1737554057.771,-1000.000,-25.391,1.953,285.156,0.000
1737554057.775,-967.773,-13.184,-25.391,171.875,0.000
1737554057.779,-982.910,13.672,-0.977,16.113,0.000
1737554057.783,-1000.000,12.207,23.438,61.523,0.000
1737554057.787,-990.723,1.953,-1.953,37.598,0.000
1737554057.791,-953.613,-8.301,-6.836,-65.918,0.000
1737554057.795,-1000.000,-7.324,2.441,-46.387,0.000
1737554057.799,-138.184,-1.465,-2.441,30.762,0.000
1737554057.803,999.512,0.488,6.836,52.734,0.000
1737554057.807,658.691,1.953,18.555,100.586,0.000
1737554057.810,-657.227,5.371,20.508,55.176,0.000
1737554057.814,-1000.000,11.230,7.324,-143.555,0.000
1737554057.818,-916.992,-4.395,3.418,-43.945,0.000
1737554057.822,375.977,-12.695,7.812,180.664,0.000
1737554057.826,957.520,25.391,-12.695,98.633,0.000
1737554057.830,-442.383,10.742,-16.602,-6.348,0.000
1737554057.834,-1000.000,-13.672,10.742,30.762,0.000
1737554057.838,-485.840,6.348,16.602,22.461,0.000
1737554057.842,799.805,25.391,12.695,-64.941,0.000
1737554057.846,999.512,29.785,36.621,54.199,0.000
1737554057.849,39.551,20.020,45.410,86.426,0.000
1737554057.853,-1000.000,-6.348,10.254,49.805,0.000
1737554057.857,-312.500,0.488,-2.930,15.137,0.000
1737554057.861,960.449,49.316,20.996,9.766,0.000
1737554057.865,999.512,22.949,-0.488,75.195,0.000
1737554057.869,80.078,1.953,5.371,10.742,0.000
1737554057.873,-1000.000,12.207,20.020,-38.574,0.000
1737554057.877,-704.102,0.977,-2.930,-74.219,0.000
1737554057.881,622.070,20.996,-2.930,10.254,0.000
1737554057.885,999.512,45.898,6.836,100.098,0.000
1737554057.888,936.523,61.523,8.789,53.223,0.000
1737554057.892,-303.223,43.457,16.113,42.480,0.000
1737554057.896,-835.938,2.441,34.668,149.902,0.000
1737554057.900,617.676,19.043,22.461,74.219,0.000
1737554057.904,999.512,45.898,38.574,26.367,0.000
1737554057.908,65.918,44.434,49.805,75.195,0.000
1737554057.912,-1000.000,38.086,17.578,84.961,0.000
1737554057.916,-995.117,35.156,17.090,115.723,0.000
1737554057.920,-928.223,38.574,41.992,-168.945,0.000
1737554057.924,-877.930,41.992,25.391,-393.066,0.000
1737554057.928,-998.047,29.297,14.160,-371.582,0.000
1737554057.931,-977.539,17.090,51.270,-306.152,0.000
1737554057.935,-1000.000,46.875,41.992,-365.723,0.000
1737554057.939,-948.730,26.855,8.301,-298.340,0.000
1737554057.943,410.156,28.809,4.395,-125.977,0.000
1737554057.947,198.242,54.199,19.531,53.711,0.000
1737554057.951,-1000.000,30.762,34.668,89.355,0.000
1737554057.955,-980.957,13.672,34.180,98.633,0.000
1737554057.959,-975.586,29.785,21.484,18.555,0.000
1737554057.963,-1000.000,57.617,7.324,-116.211,0.000
1737554057.967,-1000.000,87.891,24.902,146.484,0.000
1737554057.971,-1000.000,99.121,9.766,59.570,0.000
1737554057.974,-1000.000,79.102,4.883,-4.395,0.000
1737554057.978,-1000.000,89.844,53.711,198.242,0.000
1737554057.982,-1000.000,135.254,57.129,213.867,0.000
1737554057.986,-1000.000,138.184,11.719,-4.883,0.000
1737554057.990,-1000.000,93.750,-30.762,-144.531,0.000
1737554057.994,-1000.000,120.117,-18.555,-265.625,0.000
1737554057.998,-1000.000,179.199,30.762,-277.344,0.000
1737554058.002,-996.582,142.090,21.484,-12.695,0.000
1737554058.006,-1000.000,144.043,-7.324,176.270,0.000
1737554058.010,-978.516,186.523,16.113,102.539,0.000
1737554058.014,-977.539,182.617,37.598,78.613,0.000
1737554058.017,-1000.000,187.012,20.996,148.438,0.000
1737554058.021,258.789,216.797,17.090,71.777,0.000
1737554058.025,496.094,192.871,8.789,27.344,0.000
1737554058.029,-1000.000,184.570,-3.906,124.512,0.000
1737554058.033,-1000.000,224.121,19.043,184.570,0.000
1737554058.037,-952.637,246.582,24.414,245.117,0.000
1737554058.041,-1000.000,252.441,1.465,183.594,0.000
1737554058.045,-1000.000,217.773,-12.695,48.828,0.000
1737554058.049,-1000.000,167.480,9.766,38.086,0.000
1737554058.053,-1000.000,105.469,28.320,4.395,0.000
1737554058.056,-1000.000,16.113,15.625,-172.363,0.000
1737554058.060,-1000.000,-46.875,30.762,-293.945,0.000
1737554058.064,-1000.000,-72.266,44.922,-137.207,0.000
1737554058.068,-1000.000,-116.211,17.578,-24.414,0.000
1737554058.072,-968.750,-160.645,14.648,-6.348,0.000
1737554058.076,-1000.000,-171.875,37.109,66.895,0.000
1737554058.080,-925.781,-186.523,49.316,66.406,0.000
1737554058.084,80.566,-198.730,42.969,115.723,0.000
1737554058.088,-293.457,-187.988,26.367,122.559,0.000
1737554058.092,-1000.000,-159.668,46.875,85.938,0.000
1737554058.096,-942.383,-129.395,55.664,98.633,0.000
1737554058.099,-1000.000,-67.383,56.152,87.891,0.000
1737554058.103,164.551,-4.395,50.293,129.395,0.000
1737554058.107,209.961,63.965,12.695,-48.340,0.000
1737554058.111,-1000.000,166.504,20.020,-277.344,0.000
1737554058.115,-993.652,228.516,41.504,-338.379,0.000
1737554058.119,-971.680,247.559,41.016,-411.133,0.000
1737554058.123,-1000.000,292.969,2.930,-280.273,0.000
1737554058.127,-1000.000,326.660,-7.324,-143.555,0.000
1737554058.131,-1000.000,306.152,-23.438,-60.547,0.000
1737554058.135,-1000.000,306.152,-15.625,119.629,0.000
1737554058.139,-1000.000,344.238,74.219,-74.219,0.000
1737554058.142,-1000.000,366.211,101.562,-73.730,0.000
1737554058.146,-1000.000,370.117,75.195,46.875,0.000
1737554058.150,-1000.000,317.871,14.160,208.008,0.000
1737554058.154,-1000.000,311.035,30.762,100.098,0.000
1737554058.158,-1000.000,306.641,41.016,-228.516,0.000
1737554058.162,-1000.000,286.133,2.930,-139.160,0.000
1737554058.166,-1000.000,320.312,2.930,111.816,0.000
1737554058.170,-931.641,324.707,21.973,98.633,0.000
1737554058.174,-1000.000,298.340,40.039,-244.629,0.000
1737554058.178,-522.949,284.180,55.176,-169.434,0.000
1737554058.181,857.422,270.020,22.461,-86.914,0.000
1737554058.185,999.512,242.676,7.324,-231.934,0.000
1737554058.189,828.125,260.742,17.090,-132.324,0.000
1737554058.193,813.477,260.742,14.648,-103.516,0.000
1737554058.197,973.145,254.395,-30.273,-186.035,0.000
1737554058.201,976.074,271.973,-4.883,-101.074,0.000
1737554058.205,963.379,258.301,31.738,227.051,0.000
1737554058.209,971.191,225.586,12.207,269.531,0.000
1737554058.213,970.215,216.309,43.457,157.227,0.000
1737554058.217,980.469,183.105,4.883,145.508,0.000
1737554058.221,908.203,151.367,13.672,147.461,0.000
1737554058.224,999.512,207.520,49.805,150.879,0.000
1737554058.228,589.355,225.586,24.902,255.859,0.000
1737554058.232,-737.793,179.199,42.969,108.887,0.000
1737554058.236,-1000.000,178.223,72.754,-213.379,0.000
1737554058.240,-67.871,153.320,37.598,-192.383,0.000
1737554058.244,999.512,135.742,15.137,-97.168,0.000
1737554058.248,942.383,168.945,37.598,-184.570,0.000
1737554058.252,949.219,146.973,23.438,-270.020,0.000
1737554058.256,975.098,106.445,-45.410,-122.070,0.000
1737554058.260,970.215,97.656,-43.945,89.355,0.000
1737554058.263,969.727,106.934,-1.953,39.062,0.000
1737554058.267,970.215,132.324,22.461,33.691,0.000
1737554058.271,970.215,144.531,48.828,141.602,0.000
1737554058.275,969.727,107.910,47.852,211.914,0.000
1737554058.279,970.215,92.285,29.785,238.281,0.000
1737554058.283,969.727,84.473,-42.969,200.684,0.000
1737554058.287,970.215,70.312,-19.043,102.051,0.000
1737554058.291,970.215,86.426,30.762,82.520,0.000
1737554058.295,970.215,116.211,62.988,171.875,0.000
1737554058.299,969.727,104.492,65.918,194.824,0.000
1737554058.303,969.727,66.406,-29.785,166.016,0.000
1737554058.306,970.215,39.551,-4.883,220.703,0.000
1737554058.310,970.215,34.668,17.090,221.680,0.000
1737554058.314,970.215,86.426,22.461,113.281,0.000
1737554058.318,970.215,68.848,42.969,183.105,0.000
1737554058.322,969.727,14.648,20.020,189.941,0.000
1737554058.326,970.215,30.762,-37.598,87.402,0.000
1737554058.330,970.215,44.434,-30.762,-26.367,0.000
1737554058.334,971.191,38.086,19.043,23.438,0.000
1737554058.338,967.773,64.941,28.809,178.223,0.000
1737554058.342,913.574,77.637,41.504,61.035,0.000
1737554058.346,999.512,48.340,5.859,-21.484,0.000
1737554058.349,224.121,20.996,8.301,38.574,0.000
1737554058.353,-1000.000,21.484,8.789,71.777,0.000
1737554058.357,-374.023,34.668,-30.273,48.828,0.000
1737554058.361,990.723,33.691,-26.855,-37.109,0.000
1737554058.365,978.027,22.949,-73.242,-45.410,0.000
1737554058.369,928.711,15.137,-57.617,62.500,0.000
1737554058.373,981.445,16.113,46.875,20.996,0.000
1737554058.377,971.680,37.598,86.426,-101.074,0.000
1737554058.381,966.797,40.527,65.430,-78.125,0.000
1737554058.385,915.527,20.020,28.809,0.977,0.000
1737554058.389,999.512,41.992,-3.418,109.375,0.000
1737554058.392,140.625,50.781,-29.297,63.965,0.000
1737554058.396,-1000.000,22.949,-38.574,29.297,0.000
1737554058.400,-1000.000,-22.461,-26.367,25.391,0.000
1737554058.404,-229.004,-5.371,36.621,105.957,0.000
1737554058.408,999.512,55.664,52.734,178.223,0.000
1737554058.412,317.383,50.293,15.137,182.617,0.000
1737554058.416,-929.199,27.344,-2.930,73.730,0.000
