timestamps,TP9,AF7,AF8,TP10,Right AUX
1737553220.659,-22.461,-8.789,-17.578,-173.828,0.000
1737553220.663,-40.039,-11.230,-16.113,-1000.000,0.000
1737553220.667,-11.230,-11.230,-13.184,-116.699,0.000
1737553220.671,4.883,-14.648,-15.625,918.457,0.000
1737553220.675,-3.418,-16.602,-16.113,999.512,0.000
1737553220.679,-7.324,-20.996,-17.090,51.758,0.000
1737553220.683,-21.484,-24.902,-27.344,-1000.000,0.000
1737553220.687,-24.902,-20.996,-22.461,-395.508,0.000
1737553220.690,2.930,-13.672,-13.672,820.312,0.000
1737553220.694,10.742,-2.930,-17.090,999.512,0.000
1737553220.698,-4.395,1.953,-15.137,134.277,0.000
1737553220.702,-22.949,-9.277,-12.207,-1000.000,0.000
1737553220.706,-10.742,-15.137,-9.277,-408.691,0.000
1737553220.710,17.090,-10.254,-13.184,800.293,0.000
1737553220.714,9.277,-2.930,-14.648,999.512,0.000
1737553220.718,-11.719,-8.789,-12.695,502.441,0.000
1737553220.722,-37.109,-14.160,-21.973,-884.766,0.000
1737553220.726,-32.227,-7.812,-17.578,-528.320,0.000
1737553220.730,-3.418,-6.836,-5.859,812.500,0.000
1737553220.733,4.395,-1.465,5.371,999.512,0.000
1737553220.737,-11.230,1.465,0.977,554.199,0.000
1737553220.741,-34.180,-14.160,-4.395,-853.516,0.000
1737553220.745,-18.066,-16.113,-1.465,-665.039,0.000
1737553220.749,11.719,-12.207,-4.395,731.934,0.000
1737553220.753,7.812,-23.926,-9.277,999.512,0.000
1737553220.757,3.418,-19.531,-14.648,635.254,0.000
1737553220.761,-23.438,-12.695,-23.438,-807.129,0.000
1737553220.765,-40.527,-11.719,-22.949,-788.574,0.000
1737553220.769,-5.371,2.930,-8.301,673.340,0.000
1737553220.772,0.977,7.812,2.441,999.512,0.000
1737553220.776,-15.137,2.441,-0.977,701.172,0.000
1737553220.780,-21.973,-4.883,-8.789,-657.715,0.000
1737553220.784,-15.137,-12.695,-13.672,-1000.000,0.000
1737553220.788,3.906,-13.184,-9.277,57.617,0.000
1737553220.792,14.160,-12.695,-8.301,999.512,0.000
1737553220.796,-2.930,-17.578,-7.812,858.398,0.000
1737553220.800,-28.320,-21.973,-14.160,-600.098,0.000
1737553220.804,-34.180,-18.066,-24.414,-1000.000,0.000
1737553220.808,-15.625,-9.277,-13.184,234.863,0.000
1737553220.812,2.930,-1.465,-3.906,999.512,0.000
1737553220.815,2.441,0.977,-6.836,898.926,0.000
1737553220.819,-19.043,-6.348,-6.836,-390.137,0.000
1737553220.823,-12.207,-9.277,-2.930,-1000.000,0.000
1737553220.827,19.043,0.000,2.930,86.914,0.000
1737553220.831,19.043,4.395,2.930,993.164,0.000
1737553220.835,8.789,-12.207,-6.836,971.191,0.000
1737553220.839,-7.812,-18.066,-14.160,-189.453,0.000
1737553220.843,-35.156,-10.742,-10.742,-1000.000,0.000
1737553220.847,-17.090,-8.789,-10.742,-0.488,0.000
1737553220.851,11.719,-7.812,-16.602,971.680,0.000
1737553220.855,-8.789,-15.625,-13.184,999.512,0.000
1737553220.858,-31.738,-16.602,-12.207,26.855,0.000
1737553220.862,-34.180,-10.254,-17.090,-1000.000,0.000
1737553220.866,-0.977,-6.348,-16.602,-193.848,0.000
1737553220.870,10.254,-3.418,-16.113,912.598,0.000
1737553220.874,-2.441,-14.648,-15.137,999.512,0.000
1737553220.878,-12.207,-25.391,-10.742,154.785,0.000
1737553220.882,-34.180,-13.672,-2.930,-1000.000,0.000
1737553220.886,-21.973,-3.418,-2.930,-533.691,0.000
1737553220.890,3.906,-11.230,-12.207,749.512,0.000
1737553220.894,8.301,-15.137,-8.789,999.512,0.000
1737553220.897,0.488,-16.602,-1.953,526.855,0.000
1737553220.901,-30.762,-20.996,-8.301,-865.234,0.000
1737553220.905,-25.391,-5.859,-15.137,-718.262,0.000
1737553220.909,11.719,-1.953,-13.672,683.105,0.000
1737553220.913,-0.488,-13.672,-6.836,999.512,0.000
1737553220.917,-21.973,-13.672,-11.230,644.043,0.000
1737553220.921,-36.133,-16.602,-12.695,-757.324,0.000
1737553220.925,-33.203,-26.367,-13.672,-983.887,0.000
1737553220.929,-15.137,-26.367,-17.090,381.348,0.000
1737553220.933,-6.836,-10.254,-9.277,999.512,0.000
1737553220.937,1.465,-4.883,1.465,749.512,0.000
1737553220.940,-14.648,-16.602,-3.906,-703.125,0.000
1737553220.944,-36.133,-9.766,-6.836,-959.473,0.000
1737553220.948,-8.789,0.488,0.000,547.363,0.000
1737553220.952,9.277,-7.812,-5.859,999.512,0.000
1737553220.956,9.766,-12.695,-4.883,853.027,0.000
1737553220.960,-21.973,-11.719,-1.953,-440.430,0.000
1737553220.964,-38.086,-20.020,-4.395,-1000.000,0.000
1737553220.968,-5.371,-20.508,-4.883,290.039,0.000
1737553220.972,6.348,-16.602,-7.812,999.512,0.000
1737553220.976,0.000,-11.719,-11.230,906.250,0.000
1737553220.979,-18.555,-19.043,-9.277,-427.734,0.000
1737553220.983,-27.832,-25.391,-2.930,-1000.000,0.000
1737553220.987,-7.812,-7.812,4.883,347.656,0.000
1737553220.991,8.789,7.324,8.789,999.512,0.000
1737553220.995,-5.859,-5.371,3.906,964.355,0.000
1737553220.999,-31.250,-16.113,-11.719,-79.590,0.000
1737553221.003,-38.086,-13.184,-20.508,-1000.000,0.000
1737553221.007,-14.648,-7.324,-8.301,151.855,0.000
1737553221.011,1.953,-4.395,-5.859,999.512,0.000
1737553221.015,-2.441,-16.602,-19.043,940.918,0.000
1737553221.019,-31.250,-24.414,-27.344,-178.711,0.000
1737553221.022,-50.781,-13.672,-23.438,-1000.000,0.000
1737553221.026,-28.809,-2.441,-17.578,-177.734,0.000
1737553221.030,-5.371,-1.953,-14.160,890.137,0.000
1737553221.034,-4.395,-6.836,-9.766,999.512,0.000
1737553221.038,-18.555,-12.695,-7.324,145.996,0.000
1737553221.042,-43.457,-16.113,-10.254,-1000.000,0.000
1737553221.046,-22.461,-12.207,-11.230,-166.504,0.000
1737553221.050,6.348,-5.371,-7.324,905.762,0.000
1737553221.054,3.418,-7.324,-2.930,999.512,0.000
1737553221.058,-6.348,-15.625,0.000,698.730,0.000
1737553221.062,-28.809,-19.043,-2.930,-761.230,0.000
1737553221.065,-33.203,-23.438,-8.789,-718.750,0.000
1737553221.069,-16.113,-20.996,-15.137,734.863,0.000
1737553221.073,-9.766,-4.883,-9.766,999.512,0.000
1737553221.077,-13.672,5.371,0.977,869.629,0.000
1737553221.081,-28.809,0.000,-4.395,-512.695,0.000
1737553221.085,-26.855,-4.395,-9.277,-824.707,0.000
1737553221.089,6.836,2.930,-5.371,663.086,0.000
1737553221.093,20.996,-3.906,-11.230,999.512,0.000
1737553221.097,-2.441,-11.719,-15.625,746.094,0.000
1737553221.101,-32.227,-14.648,-13.672,-670.898,0.000
1737553221.104,-26.855,-14.160,-11.230,-936.523,0.000
1737553221.108,-3.906,-4.883,-19.043,530.273,0.000
1737553221.112,6.348,-10.254,-17.578,999.512,0.000
1737553221.116,3.418,-5.859,-7.812,912.109,0.000
1737553221.120,-13.672,4.883,-10.742,-274.902,0.000
1737553221.124,-20.020,-0.488,-5.371,-1000.000,0.000
1737553221.128,-4.883,-1.465,-2.930,87.891,0.000
1737553221.132,3.906,-0.488,-9.766,999.512,0.000
1737553221.136,13.184,-3.906,-12.695,942.871,0.000
1737553221.140,-13.184,-3.418,-13.672,-312.988,0.000
1737553221.144,-32.715,-4.883,-22.949,-1000.000,0.000
1737553221.147,-10.742,2.930,-19.043,57.617,0.000
1737553221.151,3.906,8.789,-12.207,999.512,0.000
1737553221.155,-0.488,-5.371,-18.555,930.176,0.000
1737553221.159,-22.461,-6.836,-15.625,-321.777,0.000
1737553221.163,-28.809,-0.977,-10.742,-1000.000,0.000
1737553221.167,-10.742,-2.930,-7.812,-189.453,0.000
1737553221.171,0.000,-4.883,-4.395,876.953,0.000
1737553221.175,4.883,-4.883,-7.812,999.512,0.000
1737553221.179,-7.324,-7.324,-15.137,-56.641,0.000
1737553221.183,-19.043,-0.488,-13.672,-1000.000,0.000
1737553221.187,1.465,8.301,-13.672,-221.191,0.000
1737553221.190,28.809,-8.789,-16.602,885.742,0.000
1737553221.194,7.812,-22.949,-21.484,999.512,0.000
1737553221.198,-31.738,-11.719,-25.879,113.281,0.000
1737553221.202,-38.574,-5.371,-18.555,-1000.000,0.000
1737553221.206,-25.391,-9.766,-10.254,-656.250,0.000
1737553221.210,-2.441,-12.695,-18.066,661.133,0.000
1737553221.214,4.395,-12.695,-21.973,999.512,0.000
1737553221.218,-14.648,-13.184,-11.230,136.719,0.000
1737553221.222,-35.156,-21.484,-6.836,-991.211,0.000
1737553221.226,-17.090,-22.949,-3.418,-842.773,0.000
1737553221.229,7.324,-8.301,-6.348,356.445,0.000
1737553221.233,8.789,-4.395,-11.230,999.512,0.000
1737553221.237,-2.930,-15.625,-20.020,509.277,0.000
1737553221.241,-27.832,-10.742,-30.273,-887.207,0.000
1737553221.245,-20.508,-4.883,-18.066,-784.668,0.000
1737553221.249,13.184,-9.277,-7.324,633.301,0.000
1737553221.253,17.578,-12.207,-12.695,999.512,0.000
1737553221.257,10.742,-11.230,-13.184,776.855,0.000
1737553221.261,-3.418,-14.160,-14.160,-676.758,0.000
1737553221.265,-11.230,-14.160,-14.648,-881.348,0.000
1737553221.269,10.254,-9.277,-15.625,640.137,0.000
1737553221.272,13.672,-10.742,-9.766,999.512,0.000
1737553221.276,3.906,-11.230,-4.395,865.723,0.000
1737553221.280,-13.184,-18.555,-3.418,-495.117,0.000
1737553221.284,-20.020,-20.020,-7.812,-739.746,0.000
1737553221.288,1.953,-3.418,-4.883,706.543,0.000
1737553221.292,-4.883,-0.977,-6.836,999.512,0.000
1737553221.296,-15.137,-11.719,-16.602,986.816,0.000
1737553221.300,-26.367,-15.625,-6.348,195.312,0.000
1737553221.304,-35.645,-19.043,-9.277,-804.199,0.000
1737553221.308,-9.277,-18.066,-6.348,245.117,0.000
1737553221.312,-4.883,-25.391,-3.418,999.512,0.000
1737553221.315,-7.324,-22.949,-15.137,945.801,0.000
1737553221.319,-18.066,-13.184,-14.648,-124.023,0.000
1737553221.323,-31.738,-11.719,-0.977,-1000.000,0.000
1737553221.327,-23.438,-12.207,2.930,-230.957,0.000
1737553221.331,1.465,-12.695,-1.465,882.324,0.000
1737553221.335,7.324,-8.789,-4.883,999.512,0.000
1737553221.339,-18.555,-6.348,-5.859,-131.348,0.000
1737553221.343,-25.391,-18.066,-12.207,-1000.000,0.000
1737553221.347,1.953,-20.996,-14.648,-370.117,0.000
1737553221.351,21.973,-5.371,-9.277,832.520,0.000
1737553221.354,14.648,-3.418,-15.137,999.512,0.000
1737553221.358,-7.812,-9.766,-9.277,-143.555,0.000
1737553221.362,-22.461,-13.672,-10.254,-1000.000,0.000
1737553221.366,-3.906,-15.137,-16.602,-666.992,0.000
1737553221.370,23.438,-8.789,-6.348,620.117,0.000
1737553221.374,16.602,-8.789,-2.930,999.512,0.000
1737553221.378,-17.578,-17.578,-4.883,-12.695,0.000
1737553221.382,-32.715,-14.160,-8.789,-1000.000,0.000
1737553221.386,-20.020,-17.578,-11.719,-650.391,0.000
1737553221.390,1.953,-38.574,-8.301,656.738,0.000
1737553221.394,-0.488,-21.484,-10.254,999.512,0.000
1737553221.397,-24.414,4.395,-11.719,267.090,0.000
1737553221.401,-33.691,3.418,-13.672,-956.543,0.000
1737553221.405,-20.508,-3.906,-20.508,-744.629,0.000
1737553221.409,13.184,-3.906,-16.602,582.031,0.000
1737553221.413,19.531,-4.395,-8.789,999.512,0.000
1737553221.417,5.371,-10.742,-0.977,645.996,0.000
1737553221.421,-19.531,-13.672,0.000,-694.824,0.000
1737553221.425,-22.461,-16.602,-9.766,-1000.000,0.000
1737553221.429,-4.395,-20.020,-13.672,-101.074,0.000
1737553221.433,3.418,-21.484,-14.160,933.594,0.000
1737553221.436,-14.648,-23.926,-18.555,324.219,0.000
1737553221.440,-47.363,-18.555,-18.555,-898.438,0.000
1737553221.444,-53.223,-11.719,-19.531,-1000.000,0.000
1737553221.448,-27.344,-13.672,-24.902,-261.719,0.000
1737553221.452,-0.977,-18.066,-24.902,913.086,0.000
1737553221.456,-14.648,-18.066,-18.555,723.633,0.000
1737553221.460,-42.969,-18.066,-17.578,-725.586,0.000
1737553221.464,-49.805,-20.508,-18.066,-1000.000,0.000
1737553221.468,-39.551,-24.414,-16.113,-646.484,0.000
1737553221.472,-21.484,-25.879,-18.555,199.219,0.000
1737553221.476,-2.930,-9.766,-20.996,461.914,0.000
1737553221.479,-20.996,-13.672,-23.438,-635.742,0.000
1737553221.483,-36.621,-27.344,-11.230,-1000.000,0.000
1737553221.487,-13.672,-7.324,0.000,-614.746,0.000
1737553221.491,5.859,0.488,-0.488,392.090,0.000
1737553221.495,24.902,5.371,2.930,959.473,0.000
1737553221.499,0.488,6.836,0.000,-203.613,0.000
1737553221.503,-31.738,-8.789,-7.812,-1000.000,0.000
1737553221.507,-30.273,-12.695,-11.719,-767.090,0.000
1737553221.511,-11.230,-13.184,-17.090,154.297,0.000
1737553221.515,3.906,-9.766,-6.836,951.172,0.000
1737553221.519,-3.418,-1.465,-4.883,158.691,0.000
1737553221.522,-21.484,-4.395,-10.254,-979.004,0.000
1737553221.526,-23.438,-15.137,-8.301,-934.082,0.000
1737553221.530,-6.836,-15.625,-10.254,-127.441,0.000
1737553221.534,7.812,-4.883,-10.742,425.781,0.000
1737553221.538,-5.371,-6.348,-20.996,-425.781,0.000
1737553221.542,-35.156,-26.367,-24.414,-1000.000,0.000
1737553221.546,-27.832,-24.902,-11.719,-796.387,0.000
1737553221.550,-16.602,-3.906,-6.348,334.473,0.000
1737553221.554,-3.906,0.000,-13.672,999.512,0.000
1737553221.558,-5.859,-7.324,-11.230,220.703,0.000
1737553221.561,-30.762,-15.137,-8.301,-989.258,0.000
1737553221.565,-27.832,-12.695,-11.230,-848.633,0.000
1737553221.569,0.977,-7.324,-6.836,492.676,0.000
1737553221.573,16.113,-16.602,-9.766,999.512,0.000
1737553221.577,4.395,-9.766,-11.230,561.523,0.000
1737553221.581,-24.414,-0.488,-12.695,-802.246,0.000
1737553221.585,-16.602,-8.301,-15.625,-975.586,0.000
1737553221.589,8.789,-8.301,-20.996,369.141,0.000
1737553221.593,5.859,-2.930,-24.414,999.512,0.000
1737553221.597,-12.695,-3.418,-21.973,755.371,0.000
1737553221.601,-40.527,-9.766,-18.066,-668.457,0.000
1737553221.604,-31.250,-12.207,-11.719,-1000.000,0.000
1737553221.608,-4.395,-8.789,-9.766,413.086,0.000
1737553221.612,3.418,-9.766,-12.695,999.512,0.000
1737553221.616,-0.488,-9.277,-13.184,918.945,0.000
1737553221.620,-20.996,-25.391,-8.789,-229.492,0.000
1737553221.624,-30.273,-37.598,-13.184,-1000.000,0.000
1737553221.628,-9.277,-13.672,-11.230,-47.852,0.000
1737553221.632,-4.395,2.930,-0.977,958.984,0.000
1737553221.636,-8.789,-1.953,-7.324,958.984,0.000
1737553221.640,-25.391,-5.859,-8.301,-279.785,0.000
1737553221.644,-49.316,-7.324,1.953,-1000.000,0.000
1737553221.647,-32.715,-12.695,-4.883,-300.293,0.000
1737553221.651,-3.418,-12.207,-10.254,883.301,0.000
1737553221.655,-10.254,-21.973,-14.160,936.035,0.000
1737553221.659,-34.668,-31.738,-23.438,-449.219,0.000
1737553221.663,-33.691,-24.414,-17.578,-1000.000,0.000
1737553221.667,-16.602,-16.113,-10.742,-294.922,0.000
1737553221.671,2.930,-9.277,-18.555,821.289,0.000
1737553221.675,11.719,-6.348,-16.602,999.512,0.000
1737553221.679,-23.926,-4.395,-16.602,-174.316,0.000
1737553221.683,-41.504,-5.859,-16.113,-1000.000,0.000
1737553221.686,-22.949,-13.184,-18.555,-683.594,0.000
1737553221.690,-2.441,-13.184,-29.297,589.355,0.000
1737553221.694,14.648,-11.719,-22.461,999.512,0.000
1737553221.698,0.488,-15.625,-16.602,-107.422,0.000
1737553221.702,-41.504,-20.508,-19.531,-1000.000,0.000
1737553221.706,-27.832,-23.926,-18.066,-478.516,0.000
1737553221.710,19.531,-11.230,-12.695,770.508,0.000
1737553221.714,14.648,-10.254,-8.789,999.512,0.000
1737553221.718,-15.625,-23.438,-13.184,192.871,0.000
1737553221.722,-40.039,-27.832,-21.973,-935.059,0.000
1737553221.726,-27.344,-19.531,-18.555,-974.121,0.000
1737553221.729,-10.254,-11.719,-11.230,-11.719,0.000
1737553221.733,0.000,-1.953,-4.395,996.582,0.000
1737553221.737,-20.020,-1.465,-6.348,551.758,0.000
1737553221.741,-46.875,-14.160,-16.113,-864.258,0.000
1737553221.745,-35.645,-19.043,-14.648,-939.941,0.000
1737553221.749,-5.371,-2.930,-12.207,379.395,0.000
1737553221.753,0.000,-10.742,-25.391,999.512,0.000
1737553221.757,-17.090,-31.250,-20.996,566.406,0.000
1737553221.761,-31.738,-20.508,-10.254,-734.863,0.000
1737553221.765,-31.250,-10.742,-14.160,-1000.000,0.000
1737553221.769,-23.438,-10.742,-17.090,-180.176,0.000
1737553221.772,-1.465,-8.789,-11.719,937.988,0.000
1737553221.776,-0.977,-15.625,-10.742,784.668,0.000
1737553221.780,-27.344,-16.113,-7.812,-688.965,0.000
1737553221.784,-33.203,-4.395,-2.441,-1000.000,0.000
1737553221.788,-24.902,2.930,-3.906,-73.730,0.000
1737553221.792,-23.926,-3.418,-7.324,977.539,0.000
1737553221.796,-49.805,-9.277,-16.602,619.629,0.000
1737553221.800,-97.168,-8.301,-11.719,-784.668,0.000
1737553221.804,-133.789,0.000,-2.930,-1000.000,0.000
1737553221.808,-141.113,10.742,-10.742,-940.918,0.000
1737553221.811,-161.621,-2.441,-10.254,-1000.000,0.000
1737553221.815,-217.773,0.000,-8.789,-1000.000,0.000
1737553221.819,-245.605,18.555,-11.230,-1000.000,0.000
1737553221.823,-283.691,-0.488,-9.277,-1000.000,0.000
1737553221.827,-341.309,6.348,-15.625,-1000.000,0.000
1737553221.831,-371.094,34.668,-20.508,-1000.000,0.000
1737553221.835,-381.836,20.508,-20.508,-1000.000,0.000
1737553221.839,-400.391,27.344,-29.785,-1000.000,0.000
1737553221.843,-397.461,32.227,-25.879,-1000.000,0.000
1737553221.847,-381.348,0.000,-17.090,-1000.000,0.000
1737553221.851,-378.418,16.113,-17.578,-1000.000,0.000
1737553221.854,-372.070,35.645,-16.602,-1000.000,0.000
1737553221.858,-373.535,25.391,-24.414,-1000.000,0.000
1737553221.862,-353.027,37.109,-19.531,-1000.000,0.000
1737553221.866,-327.148,72.754,-1.465,-1000.000,0.000
1737553221.870,-321.289,81.543,-1.953,-1000.000,0.000
1737553221.874,-319.336,85.938,-9.277,-1000.000,0.000
1737553221.878,-335.449,106.445,-10.254,-977.051,0.000
1737553221.882,-314.941,108.887,-6.348,-1000.000,0.000
1737553221.886,-291.016,105.957,-10.742,-930.176,0.000
1737553221.890,-273.926,106.445,-12.695,-94.238,0.000
1737553221.893,-221.680,93.750,-22.949,932.617,0.000
1737553221.897,-221.191,103.027,-36.133,749.023,0.000
1737553221.901,-265.137,109.375,-19.531,-785.156,0.000
1737553221.905,-236.816,103.516,5.859,-794.434,0.000
1737553221.909,-172.363,101.074,7.324,711.914,0.000
1737553221.913,-160.645,68.359,-9.766,999.512,0.000
1737553221.917,-163.574,62.500,-20.508,904.297,0.000
1737553221.921,-157.227,72.754,-20.996,-104.004,0.000
1737553221.925,-144.531,70.312,-14.160,-308.105,0.000
1737553221.929,-109.863,77.148,-14.648,828.613,0.000
1737553221.933,-67.383,63.477,-12.695,999.512,0.000
1737553221.936,-46.387,55.176,-13.184,952.637,0.000
1737553221.940,-44.922,52.246,-12.207,277.344,0.000
1737553221.944,-31.738,44.922,-3.418,210.938,0.000
1737553221.948,1.953,41.016,2.441,945.801,0.000
1737553221.952,25.391,29.297,-1.465,954.590,0.000
1737553221.956,31.738,15.137,-3.418,999.512,0.000
1737553221.960,37.598,0.977,-10.254,16.113,0.000
1737553221.964,57.617,-6.348,-16.113,-792.480,0.000
1737553221.968,106.934,-1.465,-12.695,587.402,0.000
1737553221.972,135.254,-0.977,-11.230,999.512,0.000
1737553221.976,147.461,0.000,-8.301,956.055,0.000
1737553221.979,151.367,-2.441,-2.441,617.676,0.000
1737553221.983,170.898,-8.301,1.953,196.289,0.000
1737553221.987,190.430,-3.418,-1.465,832.031,0.000
1737553221.991,181.641,-5.859,-6.836,985.352,0.000
1737553221.995,199.219,-19.531,-5.859,999.512,0.000
1737553221.999,205.566,-14.648,-7.324,602.051,0.000
1737553222.003,174.316,1.953,-7.324,-230.957,0.000
1737553222.007,177.734,6.348,0.488,609.863,0.000
1737553222.011,181.641,-1.465,0.977,999.512,0.000
1737553222.015,184.570,-3.906,-2.441,982.910,0.000
1737553222.018,180.176,-3.906,0.000,597.168,0.000
1737553222.022,157.227,-10.254,-0.488,-726.562,0.000
1737553222.026,170.410,-14.648,-2.930,-127.930,0.000
1737553222.030,172.852,-17.090,-4.883,972.656,0.000
1737553222.034,162.598,-11.719,-3.418,999.512,0.000
1737553222.038,155.762,-13.672,-2.930,274.414,0.000
1737553222.042,135.742,-20.996,-12.207,-971.680,0.000
1737553222.046,137.207,-13.672,-11.230,-541.504,0.000
1737553222.050,125.488,-21.484,-6.836,756.836,0.000
1737553222.054,119.629,-20.020,-5.859,999.512,0.000
1737553222.058,89.355,-10.742,-9.766,251.465,0.000
1737553222.061,48.828,-15.625,-14.648,-902.832,0.000
1737553222.065,23.438,-8.301,-13.672,-1000.000,0.000
1737553222.069,-11.230,22.461,-24.902,-446.777,0.000
1737553222.073,-79.102,41.016,-42.480,-459.473,0.000
1737553222.077,-126.465,28.809,-38.086,-983.887,0.000
1737553222.081,-162.598,16.602,-25.391,-1000.000,0.000
1737553222.085,-205.078,9.277,-18.555,-983.398,0.000
1737553222.089,-240.723,10.742,-18.555,-1000.000,0.000
1737553222.093,-256.348,15.625,-20.020,-1000.000,0.000
1737553222.097,-268.066,18.066,-17.090,-997.559,0.000
1737553222.101,-279.785,23.926,-20.508,-982.910,0.000
1737553222.104,-264.160,27.344,-19.043,-1000.000,0.000
1737553222.108,-263.184,27.832,-16.113,-726.074,0.000
1737553222.112,-241.699,25.879,-15.137,-72.754,0.000
1737553222.116,-229.004,25.879,-13.184,-208.984,0.000
1737553222.120,-236.816,23.438,-15.625,-923.828,0.000
1737553222.124,-224.609,29.785,-19.043,-1000.000,0.000
1737553222.128,-193.848,33.691,-20.996,-73.730,0.000
1737553222.132,-148.926,24.902,-20.020,999.512,0.000
1737553222.136,-149.414,16.602,-31.738,765.625,0.000
1737553222.140,-183.594,27.344,-36.133,-638.184,0.000
1737553222.143,-184.082,36.133,-14.160,-1000.000,0.000
1737553222.147,-145.020,28.809,-9.277,-407.715,0.000
1737553222.151,-95.703,17.578,-11.230,770.020,0.000
1737553222.155,-86.426,8.789,-12.695,999.512,0.000
1737553222.159,-99.609,16.602,-12.695,-225.098,0.000
1737553222.163,-84.961,17.578,-16.602,-1000.000,0.000
1737553222.167,-55.664,7.324,-17.578,41.992,0.000
1737553222.171,-38.574,13.184,-3.906,961.426,0.000
1737553222.175,-18.555,14.648,-3.418,999.512,0.000
1737553222.179,3.906,3.418,-9.766,493.164,0.000
1737553222.183,2.930,-4.883,-9.277,-856.445,0.000
1737553222.186,32.715,-3.418,-3.418,-447.754,0.000
1737553222.190,75.684,0.977,-0.488,834.961,0.000
1737553222.194,98.145,-5.859,-3.418,999.512,0.000
1737553222.198,103.516,-13.672,-5.859,565.918,0.000
1737553222.202,100.098,-19.531,-7.812,-813.477,0.000
1737553222.206,130.859,-20.996,-11.230,-289.062,0.000
1737553222.210,152.832,-17.090,-3.906,928.711,0.000
1737553222.214,156.738,-24.414,-4.395,999.512,0.000
1737553222.218,164.551,-32.715,-15.137,733.887,0.000
1737553222.222,147.949,-35.156,-20.508,-720.703,0.000
1737553222.226,151.367,-28.320,-14.648,-547.363,0.000
1737553222.229,176.758,-25.391,-9.277,836.914,0.000
1737553222.233,167.969,-34.180,-11.230,999.512,0.000
1737553222.237,158.203,-41.016,-16.602,707.520,0.000
1737553222.241,143.066,-53.223,-15.625,-755.371,0.000
1737553222.245,146.484,-51.758,-19.043,-784.180,0.000
1737553222.249,170.898,-33.691,-16.113,706.543,0.000
1737553222.253,176.758,-31.738,-12.695,999.512,0.000
1737553222.257,172.852,-44.434,-18.555,918.457,0.000
1737553222.261,154.785,-52.734,-18.555,-365.723,0.000
1737553222.265,148.438,-44.922,-10.742,-866.699,0.000
1737553222.268,164.062,-37.109,-10.742,615.723,0.000
1737553222.272,164.062,-39.062,-9.277,999.512,0.000
1737553222.276,150.391,-33.203,-4.883,892.090,0.000
1737553222.280,109.375,-37.109,-10.742,-375.488,0.000
1737553222.284,90.820,-36.133,-13.672,-1000.000,0.000
1737553222.288,117.188,-30.762,-16.602,183.594,0.000
1737553222.292,124.512,-39.551,-16.602,995.605,0.000
1737553222.296,124.512,-30.762,-14.160,983.887,0.000
1737553222.300,102.051,-26.855,-16.113,-73.242,0.000
1737553222.304,79.102,-42.480,-14.160,-1000.000,0.000
1737553222.308,99.121,-46.875,-2.930,111.328,0.000
1737553222.311,118.652,-34.668,0.488,999.512,0.000
1737553222.315,107.910,-31.250,-0.977,975.586,0.000
1737553222.319,87.402,-35.156,-1.953,46.875,0.000
1737553222.323,76.660,-33.691,-12.207,-1000.000,0.000
1737553222.327,89.844,-33.203,-11.230,-94.238,0.000
1737553222.331,93.262,-32.227,-6.348,971.191,0.000
1737553222.335,76.660,-30.273,-5.859,972.656,0.000
1737553222.339,55.176,-35.645,-3.418,-111.328,0.000
1737553222.343,48.340,-33.691,-1.953,-1000.000,0.000
1737553222.347,75.684,-25.879,0.488,-429.199,0.000
1737553222.351,96.680,-24.902,7.812,791.992,0.000
1737553222.354,84.961,-38.086,9.277,999.512,0.000
1737553222.358,54.199,-46.875,4.395,15.137,0.000
1737553222.362,25.391,-38.574,0.000,-1000.000,0.000
1737553222.366,29.785,-27.344,-6.348,-354.004,0.000
1737553222.370,45.898,-31.738,-6.836,856.445,0.000
1737553222.374,43.945,-38.086,-5.859,999.512,0.000
1737553222.378,26.855,-39.551,-2.441,20.996,0.000
1737553222.382,10.254,-41.992,4.395,-1000.000,0.000
1737553222.386,18.066,-42.969,2.930,-847.168,0.000
1737553222.390,36.133,-42.969,-8.301,363.770,0.000
1737553222.393,38.086,-38.086,-14.160,999.512,0.000
1737553222.397,28.320,-25.391,-5.371,232.422,0.000
1737553222.401,9.766,-21.973,-0.977,-964.844,0.000
1737553222.405,9.277,-28.320,-3.906,-889.648,0.000
1737553222.409,32.715,-27.832,0.977,408.203,0.000
1737553222.413,33.691,-23.926,0.000,999.512,0.000
1737553222.417,23.926,-25.879,-4.883,553.223,0.000
1737553222.421,11.719,-29.297,-6.348,-756.348,0.000
1737553222.425,0.000,-32.227,-7.812,-1000.000,0.000
1737553222.429,14.648,-25.391,-9.766,-109.863,0.000
1737553222.433,29.785,-16.602,-10.742,968.750,0.000
1737553222.436,20.508,-19.531,-11.230,813.965,0.000
1737553222.440,-0.977,-28.809,-13.672,-622.070,0.000
1737553222.444,-18.555,-31.738,-13.184,-1000.000,0.000
1737553222.448,-11.230,-26.367,-8.789,-616.211,0.000
1737553222.452,8.789,-12.207,-13.672,268.066,0.000
1737553222.456,3.906,-9.766,-13.184,196.289,0.000
1737553222.460,-12.695,-15.137,-10.254,-836.914,0.000
1737553222.464,-13.184,-13.672,-12.207,-1000.000,0.000
1737553222.468,-5.371,-5.371,-14.160,-439.453,0.000
1737553222.472,18.555,-1.953,-21.484,770.020,0.000
1737553222.475,20.996,-4.883,-12.207,897.461,0.000
1737553222.479,-2.930,-9.766,-5.859,-588.379,0.000
1737553222.483,-9.277,-1.953,-9.766,-1000.000,0.000
1737553222.487,6.348,11.719,-5.371,-88.379,0.000
1737553222.491,13.184,9.766,-4.395,926.270,0.000
1737553222.495,-4.883,-0.488,-3.906,979.004,0.000
1737553222.499,-31.250,-16.602,-10.254,-220.215,0.000
1737553222.503,-39.551,-21.484,-11.719,-1000.000,0.000
1737553222.507,-18.066,-9.766,-8.789,-449.707,0.000
1737553222.511,5.371,0.488,-12.695,789.062,0.000
1737553222.515,-1.953,-1.465,-18.555,993.164,0.000
1737553222.518,-20.508,-6.836,-20.508,-246.094,0.000
1737553222.522,-24.414,-7.812,-15.625,-1000.000,0.000
1737553222.526,-11.719,-10.254,-12.695,-463.379,0.000
1737553222.530,4.395,-5.371,-12.207,751.465,0.000
1737553222.534,2.441,-5.371,-16.113,999.512,0.000
1737553222.538,-9.766,-14.160,-16.602,295.898,0.000
1737553222.542,-41.016,-22.461,-16.602,-962.891,0.000
1737553222.546,-34.668,-17.090,-17.090,-712.402,0.000
1737553222.550,2.441,-1.953,-4.883,652.344,0.000
1737553222.554,4.395,-11.719,-1.465,999.512,0.000
1737553222.558,-6.348,-12.207,-8.789,607.422,0.000
1737553222.561,-20.020,-13.184,-14.648,-780.762,0.000
1737553222.565,-18.555,-12.207,-17.090,-963.379,0.000
1737553222.569,-6.836,-5.859,-13.672,403.809,0.000
1737553222.573,-1.465,-12.695,-16.602,999.512,0.000
1737553222.577,0.488,-10.254,-14.648,791.504,0.000
1737553222.581,-19.531,-8.301,-7.324,-662.598,0.000
1737553222.585,-28.320,-12.695,-4.395,-905.273,0.000
1737553222.589,-15.625,-9.277,-4.395,550.293,0.000
1737553222.593,-0.977,-13.184,-8.301,999.512,0.000
1737553222.597,0.977,-21.484,-4.883,888.672,0.000
1737553222.600,-24.414,-20.020,-2.930,-420.898,0.000
1737553222.604,-34.668,-20.020,-8.301,-1000.000,0.000
1737553222.608,-5.371,-19.531,-9.766,330.566,0.000
1737553222.612,3.418,-13.672,-8.301,999.512,0.000
1737553222.616,-7.812,-12.207,-6.836,888.184,0.000
1737553222.620,-23.438,-14.648,-7.324,-470.703,0.000
1737553222.624,-31.738,-13.184,-4.883,-1000.000,0.000
1737553222.628,-15.625,-11.230,-3.418,376.953,0.000
1737553222.632,-4.395,-7.324,-2.930,999.512,0.000
1737553222.636,-7.324,-6.836,-5.371,905.762,0.000
1737553222.640,-30.273,-19.531,-10.742,-297.363,0.000
1737553222.643,-53.223,-25.879,-8.789,-1000.000,0.000
1737553222.647,-41.504,-18.555,-12.695,-97.168,0.000
1737553222.651,-32.227,-12.695,-13.184,988.281,0.000
1737553222.655,-12.695,-2.930,6.836,847.656,0.000
1737553222.659,-40.527,-7.324,-0.488,-546.387,0.000
1737553222.663,-83.008,-33.203,-21.484,-1000.000,0.000
1737553222.667,-99.121,-26.855,-24.414,-933.594,0.000
1737553222.671,-149.902,-1.465,-14.160,-1000.000,0.000
1737553222.675,-193.848,27.344,2.441,-1000.000,0.000
1737553222.679,-170.898,43.457,-12.207,-1000.000,0.000
1737553222.683,-177.734,7.324,-28.320,-1000.000,0.000
1737553222.686,-279.785,0.488,-24.902,-1000.000,0.000
1737553222.690,-355.469,13.184,-2.441,-1000.000,0.000
1737553222.694,-379.883,18.555,32.227,-1000.000,0.000
1737553222.698,-400.391,32.227,50.293,-1000.000,0.000
1737553222.702,-413.086,55.664,62.500,-1000.000,0.000
1737553222.706,-413.086,62.012,86.426,-1000.000,0.000
1737553222.710,-422.852,65.430,97.168,-1000.000,0.000
1737553222.714,-414.062,88.379,110.352,-1000.000,0.000
1737553222.718,-391.113,105.469,130.371,-1000.000,0.000
1737553222.722,-375.488,109.863,135.254,-1000.000,0.000
1737553222.725,-365.723,112.793,126.953,-1000.000,0.000
1737553222.729,-352.051,109.375,113.281,-1000.000,0.000
1737553222.733,-350.586,104.492,100.586,-1000.000,0.000
1737553222.737,-341.309,97.656,82.520,-960.449,0.000
1737553222.741,-312.012,91.309,55.664,-1000.000,0.000
1737553222.745,-303.223,77.637,40.527,-892.090,0.000
1737553222.749,-271.484,73.242,27.344,284.668,0.000
1737553222.753,-248.535,69.336,20.508,999.512,0.000
1737553222.757,-245.117,59.570,20.996,618.652,0.000
1737553222.761,-272.949,49.805,18.066,-819.336,0.000
1737553222.765,-251.465,31.738,16.113,-853.516,0.000
1737553222.768,-191.406,48.828,7.324,642.578,0.000
1737553222.772,-200.195,68.359,0.488,999.512,0.000
1737553222.776,-194.824,52.246,-7.324,943.359,0.000
1737553222.780,-197.266,37.109,-12.207,-289.062,0.000
1737553222.784,-191.406,29.297,-3.418,-988.770,0.000
1737553222.788,-142.090,37.598,3.906,522.949,0.000
1737553222.792,-124.023,36.133,2.441,999.512,0.000
1737553222.796,-116.211,8.789,-6.348,988.770,0.000
1737553222.800,-102.539,-14.160,-16.113,117.188,0.000
1737553222.804,-96.191,0.488,-6.348,-765.625,0.000
1737553222.808,-45.898,9.277,3.906,575.684,0.000
1737553222.811,-18.066,0.000,-8.789,999.512,0.000
1737553222.815,-0.488,-2.930,-17.578,894.531,0.000
1737553222.819,29.297,-0.488,-19.531,982.422,0.000
1737553222.823,51.758,-15.137,-18.066,966.797,0.000
1737553222.827,78.125,-23.926,-17.090,973.633,0.000
1737553222.831,92.773,-28.809,-28.320,958.984,0.000
1737553222.835,93.750,-27.832,-35.645,992.188,0.000
1737553222.839,106.934,-13.184,-34.180,926.758,0.000
1737553222.843,121.582,-28.809,-26.367,784.180,0.000
1737553222.847,144.531,-42.969,-18.555,937.988,0.000
1737553222.850,174.316,-45.898,-14.648,983.398,0.000
1737553222.854,172.363,-49.805,-17.578,969.238,0.000
1737553222.858,178.711,-45.898,-15.625,958.984,0.000
1737553222.862,186.035,-41.992,-16.113,861.816,0.000
1737553222.866,194.336,-42.969,-19.043,944.824,0.000
1737553222.870,198.242,-46.387,-16.113,962.402,0.000
1737553222.874,193.848,-49.316,-14.160,994.629,0.000
1737553222.878,192.383,-48.340,-14.648,934.082,0.000
1737553222.882,185.059,-43.945,-12.695,496.582,0.000
1737553222.886,197.754,-41.504,-11.230,779.785,0.000
1737553222.890,204.102,-47.852,-15.137,999.512,0.000
1737553222.893,197.754,-49.316,-15.137,957.031,0.000
1737553222.897,194.824,-44.922,-10.742,965.332,0.000
1737553222.901,173.828,-47.363,-8.789,621.582,0.000
1737553222.905,176.758,-43.457,-5.371,806.641,0.000
1737553222.909,161.621,-43.945,-9.277,972.168,0.000
1737553222.913,142.578,-39.551,-18.555,984.375,0.000
1737553222.917,129.395,-37.598,-9.766,888.672,0.000
1737553222.921,98.633,-43.945,-2.930,-543.945,0.000
1737553222.925,75.195,-40.039,-7.812,-1000.000,0.000
1737553222.929,38.086,-18.555,-27.344,350.586,0.000
1737553222.932,5.371,-5.371,-37.598,999.512,0.000
1737553222.936,-41.504,-8.789,-31.250,-325.684,0.000
1737553222.940,-114.746,-12.695,-28.320,-1000.000,0.000
1737553222.944,-157.227,-18.066,-18.555,-947.266,0.000
1737553222.948,-202.637,-21.973,-16.602,-998.535,0.000
1737553222.952,-222.656,-20.508,-11.719,-1000.000,0.000
1737553222.956,-234.375,-22.949,-10.254,-1000.000,0.000
1737553222.960,-257.812,-7.324,-21.484,-997.559,0.000
1737553222.964,-261.719,-5.371,-18.555,-996.094,0.000
1737553222.968,-269.043,-12.207,-12.695,-1000.000,0.000
1737553222.972,-266.602,-1.953,-13.672,-887.695,0.000
1737553222.975,-243.652,-0.977,-3.906,-716.309,0.000
1737553222.979,-241.211,-13.184,-12.695,-910.156,0.000
1737553222.983,-247.070,-23.926,-17.578,-1000.000,0.000
1737553222.987,-220.215,-7.324,-10.742,-14.160,0.000
1737553222.991,-172.363,-19.043,-13.672,969.238,0.000
1737553222.995,-175.293,-36.133,-12.695,997.559,0.000
1737553222.999,-194.824,-37.109,-7.812,40.039,0.000
1737553223.003,-181.152,-60.547,-6.348,-1000.000,0.000
1737553223.007,-158.203,-31.738,-10.254,-270.508,0.000
1737553223.011,-122.070,-14.648,-3.906,858.887,0.000
1737553223.015,-116.211,-41.992,-0.977,999.512,0.000
1737553223.018,-115.234,-58.594,-2.441,623.047,0.000
1737553223.022,-98.145,-47.852,-8.301,-420.410,0.000
1737553223.026,-64.453,-35.156,-10.742,345.215,0.000
1737553223.030,-37.109,-25.879,2.930,999.512,0.000
1737553223.034,-20.996,-22.949,10.254,987.305,0.000
1737553223.038,-7.812,-39.062,6.836,610.352,0.000
1737553223.042,-15.137,-35.156,3.418,-854.004,0.000
1737553223.046,27.832,-32.715,3.418,-547.363,0.000
1737553223.050,79.102,-25.391,4.395,811.035,0.000
1737553223.054,88.379,-9.766,6.836,999.512,0.000
1737553223.057,102.539,-14.160,0.488,835.938,0.000
1737553223.061,109.863,-22.949,-7.812,-567.383,0.000
1737553223.065,129.395,-10.742,-5.859,-658.203,0.000
1737553223.069,156.738,-9.277,-2.930,791.016,0.000
1737553223.073,159.180,-22.461,-5.371,999.512,0.000
1737553223.077,158.203,-21.484,-5.859,891.602,0.000
1737553223.081,154.297,-25.879,-7.324,-458.008,0.000
1737553223.085,173.828,-24.414,-4.395,-790.039,0.000
1737553223.089,208.008,-13.672,-7.812,736.816,0.000
1737553223.093,209.961,-19.043,-8.301,999.512,0.000
1737553223.097,207.031,-27.344,-0.977,988.770,0.000
1737553223.100,194.336,-28.320,0.000,143.555,0.000
1737553223.104,177.734,-30.762,2.441,-614.258,0.000
1737553223.108,199.219,-27.344,6.348,627.930,0.000
1737553223.112,202.148,-20.020,4.395,999.512,0.000
1737553223.116,200.195,-17.578,-0.488,993.164,0.000
1737553223.120,187.500,-21.973,-1.465,318.848,0.000
1737553223.124,159.668,-21.484,-3.906,-579.590,0.000
1737553223.128,181.152,-20.020,-6.348,548.340,0.000
1737553223.132,183.594,-20.508,-5.859,999.512,0.000
1737553223.136,164.062,-20.508,-6.348,968.750,0.000
1737553223.140,141.113,-26.367,-11.230,201.660,0.000
1737553223.143,111.816,-28.809,-12.207,-943.359,0.000
1737553223.147,126.953,-24.414,-7.324,115.234,0.000
1737553223.151,137.695,-24.414,-7.324,999.512,0.000
1737553223.155,135.254,-23.926,-8.789,999.512,0.000
1737553223.159,120.117,-24.414,-7.324,392.090,0.000
1737553223.163,90.820,-26.367,-3.906,-800.293,0.000
1737553223.167,96.191,-20.020,1.465,282.715,0.000
1737553223.171,109.375,-22.949,2.441,999.512,0.000
1737553223.175,104.980,-22.461,-1.465,966.309,0.000
1737553223.179,85.449,-16.602,1.465,547.852,0.000
1737553223.182,41.016,-18.555,1.465,-715.820,0.000
1737553223.186,41.016,-12.207,-5.859,-36.621,0.000
1737553223.190,50.293,-1.465,-7.324,983.887,0.000
1737553223.194,42.480,1.953,2.441,999.512,0.000
1737553223.198,27.832,-0.977,-3.906,750.488,0.000
1737553223.202,-20.508,-10.254,-13.672,-655.273,0.000
1737553223.206,-62.988,-6.348,-19.531,-1000.000,0.000
1737553223.210,-87.402,4.395,-19.043,-262.695,0.000
1737553223.214,-145.996,18.555,-27.344,-323.242,0.000
1737553223.218,-216.797,28.320,-37.109,-971.191,0.000
1737553223.222,-266.113,14.160,-25.391,-1000.000,0.000
1737553223.225,-292.480,-2.930,-18.555,-978.027,0.000
1737553223.229,-313.965,1.953,-23.926,-1000.000,0.000
1737553223.233,-332.520,14.648,-20.996,-1000.000,0.000
1737553223.237,-350.586,10.742,-18.066,-992.676,0.000
1737553223.241,-346.680,9.766,-21.484,-990.723,0.000
1737553223.245,-331.055,26.855,-14.160,-1000.000,0.000
1737553223.249,-321.289,35.156,-9.766,-617.676,0.000
1737553223.253,-316.895,29.785,-20.996,-170.410,0.000
1737553223.257,-307.617,33.203,-17.578,-547.363,0.000
1737553223.261,-296.387,43.945,-15.137,-1000.000,0.000
1737553223.265,-273.926,46.875,-20.020,-984.863,0.000
1737553223.268,-231.934,46.875,-10.742,19.043,0.000
1737553223.272,-205.078,43.945,-7.812,999.512,0.000
1737553223.276,-230.957,43.945,-19.043,502.930,0.000
1737553223.280,-236.816,46.387,-20.996,-790.527,0.000
1737553223.284,-210.938,42.480,-18.066,-1000.000,0.000
1737553223.288,-207.031,33.691,-13.184,-604.980,0.000
1737553223.292,-187.500,45.410,-15.137,325.684,0.000
1737553223.296,-156.738,51.270,-26.855,475.586,0.000
1737553223.300,-170.410,47.363,-27.832,-721.191,0.000
1737553223.304,-164.551,57.617,-20.020,-1000.000,0.000
1737553223.307,-136.230,37.598,-10.742,-440.918,0.000
1737553223.311,-107.422,36.621,-14.648,736.816,0.000
1737553223.315,-86.426,46.875,-20.996,809.082,0.000
1737553223.319,-86.426,29.297,-20.996,-617.676,0.000
1737553223.323,-72.754,17.090,-11.719,-1000.000,0.000
1737553223.327,-52.246,12.695,-10.742,-197.266,0.000
1737553223.331,-21.973,20.508,-15.137,830.566,0.000
1737553223.335,4.395,33.203,-14.648,999.512,0.000
1737553223.339,-2.930,27.344,-16.602,300.293,0.000
1737553223.343,-18.555,8.301,-17.090,-944.824,0.000
1737553223.347,25.879,12.207,-18.066,-132.812,0.000
1737553223.350,68.359,24.902,-16.113,950.195,0.000
1737553223.354,70.801,14.160,-14.160,999.512,0.000
1737553223.358,79.590,-2.930,-15.625,637.207,0.000
1737553223.362,80.566,-13.184,-11.719,-821.289,0.000
1737553223.366,111.328,-12.695,-10.254,-614.258,0.000
1737553223.370,153.809,-12.207,-11.719,779.297,0.000
1737553223.374,158.691,-20.508,-6.348,999.512,0.000
1737553223.378,158.691,-25.391,-0.977,691.895,0.000
1737553223.382,152.344,-27.344,-5.371,-742.676,0.000
1737553223.386,167.480,-28.320,-10.254,-519.043,0.000
1737553223.390,192.871,-23.926,-11.719,842.285,0.000
1737553223.393,181.152,-26.367,-12.207,999.512,0.000
1737553223.397,172.363,-33.203,-12.207,875.000,0.000
1737553223.401,153.809,-42.969,-15.625,-524.414,0.000
1737553223.405,157.715,-51.270,-11.719,-965.332,0.000
1737553223.409,184.570,-37.598,-1.465,544.922,0.000
1737553223.413,191.406,-41.016,-8.789,999.512,0.000
1737553223.417,179.688,-44.922,-10.254,919.434,0.000
1737553223.421,147.461,-38.086,-3.906,-382.324,0.000
1737553223.425,139.160,-41.504,-7.324,-931.152,0.000
1737553223.429,176.758,-31.738,0.000,612.305,0.000
1737553223.432,182.617,-28.809,-3.906,999.512,0.000
1737553223.436,159.668,-35.645,-16.113,956.543,0.000
1737553223.440,128.418,-44.434,-12.207,-178.223,0.000
1737553223.444,107.910,-43.457,4.395,-879.883,0.000
1737553223.448,130.371,-35.645,8.301,608.398,0.000
1737553223.452,137.207,-39.062,-3.418,999.512,0.000
1737553223.456,131.836,-39.551,-3.906,987.305,0.000
1737553223.460,118.164,-41.016,-4.395,321.289,0.000
1737553223.464,98.633,-43.457,-9.277,-534.180,0.000
1737553223.468,115.723,-42.480,-5.371,596.680,0.000
1737553223.472,112.305,-32.227,-2.441,999.512,0.000
1737553223.475,98.633,-29.297,-3.418,983.398,0.000
1737553223.479,87.891,-32.715,-2.441,505.371,0.000
1737553223.483,67.383,-35.156,0.488,-754.883,0.000
1737553223.487,84.961,-32.227,4.883,64.453,0.000
1737553223.491,91.309,-30.762,-5.371,999.512,0.000
1737553223.495,70.801,-33.691,-14.160,952.148,0.000
1737553223.499,61.035,-33.203,0.000,5.859,0.000
1737553223.503,61.035,-39.551,4.395,-1000.000,0.000
1737553223.507,71.777,-46.387,-3.418,-392.578,0.000
1737553223.511,69.336,-46.875,-2.441,805.176,0.000
1737553223.514,55.664,-27.832,0.000,999.512,0.000
1737553223.518,44.434,-14.648,10.254,429.199,0.000
1737553223.522,26.367,-19.043,8.789,-908.203,0.000
1737553223.526,35.645,-25.391,6.348,-691.895,0.000
1737553223.530,60.059,-20.020,11.719,701.660,0.000
1737553223.534,57.129,-16.113,3.906,999.512,0.000
1737553223.538,36.133,-18.555,0.000,668.945,0.000
1737553223.542,16.602,-17.578,7.812,-717.285,0.000
1737553223.546,18.066,-22.461,7.324,-836.914,0.000
1737553223.550,40.039,-26.367,-1.465,609.863,0.000
1737553223.554,44.434,-23.926,-4.395,999.512,0.000
1737553223.557,29.297,-22.949,-4.883,561.035,0.000
1737553223.561,6.348,-24.414,-14.648,-796.875,0.000
1737553223.565,8.301,-27.832,-14.648,-967.285,0.000
1737553223.569,37.598,-21.973,-3.418,360.352,0.000
1737553223.573,44.434,-22.461,-6.348,999.512,0.000
1737553223.577,22.461,-29.297,-5.859,618.652,0.000
1737553223.581,-9.766,-26.367,-3.418,-737.793,0.000
1737553223.585,-12.207,-14.648,-3.418,-1000.000,0.000
1737553223.589,4.883,-7.324,-6.836,57.617,0.000
1737553223.593,14.648,-9.766,-2.441,999.512,0.000
1737553223.597,10.742,-17.578,-1.953,615.723,0.000
1737553223.600,-6.836,-21.973,-6.348,-748.047,0.000
1737553223.604,-11.719,-20.508,-6.348,-1000.000,0.000
1737553223.608,0.488,-20.996,-7.324,-152.832,0.000
1737553223.612,20.996,-15.625,-6.348,955.078,0.000
1737553223.616,16.602,-14.160,-8.301,739.746,0.000
1737553223.620,-7.324,-18.555,-13.184,-672.852,0.000
1737553223.624,-8.789,-18.555,-11.719,-1000.000,0.000
1737553223.628,3.418,-15.625,-6.836,-243.164,0.000
1737553223.632,10.742,-13.672,-4.395,862.305,0.000
1737553223.636,7.324,-20.020,-2.441,984.375,0.000
1737553223.639,-11.719,-23.438,-4.395,-290.039,0.000
1737553223.643,-19.043,-20.508,-4.883,-1000.000,0.000
1737553223.647,-13.672,-16.113,-8.301,-366.211,0.000
1737553223.651,-7.812,-15.625,-8.301,809.082,0.000
1737553223.655,-0.977,-22.461,-6.348,999.512,0.000
1737553223.659,-15.137,-24.902,-7.812,-87.402,0.000
1737553223.663,-24.414,-27.832,-10.254,-1000.000,0.000
1737553223.667,-8.301,-38.574,-10.742,-437.500,0.000
1737553223.671,2.930,-27.344,-14.648,786.133,0.000
1737553223.675,6.348,-13.672,-21.973,999.512,0.000
1737553223.679,-4.883,-12.207,-18.555,255.859,0.000
1737553223.682,-27.832,-16.602,-12.695,-956.055,0.000
1737553223.686,-23.926,-21.973,-14.160,-745.605,0.000
1737553223.690,0.000,-17.578,-7.812,585.938,0.000
1737553223.694,1.465,-17.578,-3.906,999.512,0.000
1737553223.698,-15.137,-21.484,-5.371,408.203,0.000
1737553223.702,-43.457,-15.625,-3.418,-923.340,0.000
1737553223.706,-31.738,-5.371,-2.441,-703.613,0.000
1737553223.710,-0.977,0.000,0.977,730.957,0.000
1737553223.714,-15.625,-8.301,-0.977,999.512,0.000
1737553223.718,-49.316,-12.207,-5.371,123.535,0.000
1737553223.722,-91.309,-10.742,-12.207,-969.238,0.000
1737553223.725,-115.234,-1.953,-4.395,-979.492,0.000
1737553223.729,-132.324,2.930,-1.953,-759.277,0.000
1737553223.733,-188.965,6.348,-23.438,-939.941,0.000
1737553223.737,-253.906,7.812,-26.367,-1000.000,0.000
1737553223.741,-309.082,9.766,-29.297,-987.305,0.000
1737553223.745,-362.305,5.371,-31.738,-1000.000,0.000
1737553223.749,-369.629,0.977,-20.020,-1000.000,0.000
1737553223.753,-373.535,4.395,-21.973,-1000.000,0.000
1737553223.757,-393.555,3.906,-26.855,-995.117,0.000
1737553223.761,-397.949,-1.465,-23.926,-973.633,0.000
1737553223.764,-385.254,-5.859,-16.602,-1000.000,0.000
1737553223.768,-358.398,12.207,-11.719,-536.133,0.000
1737553223.772,-329.590,16.113,-9.277,701.660,0.000
1737553223.776,-319.336,8.301,-12.207,875.488,0.000
1737553223.780,-329.102,13.672,-27.832,-602.539,0.000
1737553223.784,-310.059,12.207,-24.902,-1000.000,0.000
1737553223.788,-291.016,12.695,-16.113,-474.609,0.000
1737553223.792,-262.207,19.531,-16.602,645.020,0.000
1737553223.796,-243.652,15.625,-13.672,892.090,0.000
1737553223.800,-253.418,15.625,-9.277,-540.039,0.000
1737553223.804,-260.742,17.090,-10.742,-1000.000,0.000
1737553223.807,-224.609,24.902,-10.742,-175.781,0.000
1737553223.811,-189.941,15.625,-12.207,864.258,0.000
1737553223.815,-181.152,8.789,-16.602,999.512,0.000
1737553223.819,-180.664,27.344,-14.160,66.895,0.000
1737553223.823,-171.875,22.949,-17.090,-1000.000,0.000
1737553223.827,-154.785,10.742,-27.832,-218.750,0.000
1737553223.831,-152.344,15.625,-16.602,883.301,0.000
1737553223.835,-135.254,24.414,-0.488,999.512,0.000
1737553223.839,-117.676,15.625,1.953,403.809,0.000
1737553223.843,-121.582,8.789,7.324,-893.555,0.000
1737553223.847,-90.820,12.695,2.441,-99.609,0.000
1737553223.850,-49.316,14.160,-1.953,999.512,0.000
1737553223.854,-46.875,9.766,-5.371,986.328,0.000
1737553223.858,-34.668,1.953,-5.371,884.277,0.000
1737553223.862,-14.648,-3.418,-0.977,348.145,0.000
1737553223.866,8.789,-3.418,-6.348,710.449,0.000
1737553223.870,37.598,-0.977,-11.230,997.559,0.000
1737553223.874,60.547,-13.184,-6.348,999.512,0.000
1737553223.878,67.383,-32.715,-2.441,693.359,0.000
1737553223.882,61.523,-36.133,-6.836,-812.988,0.000
1737553223.886,88.867,-28.809,-10.742,-577.637,0.000
1737553223.889,139.648,-26.367,-2.441,820.801,0.000
1737553223.893,142.578,-29.297,-1.953,999.512,0.000
1737553223.897,144.531,-32.227,-7.812,894.531,0.000
1737553223.901,147.461,-38.574,-4.395,-489.258,0.000
1737553223.905,153.809,-31.250,-2.441,-856.934,0.000
1737553223.909,187.988,-19.531,-0.977,686.523,0.000
1737553223.913,190.918,-16.113,-2.930,999.512,0.000
1737553223.917,187.500,-22.949,-4.883,962.891,0.000
1737553223.921,177.734,-33.203,-5.859,-123.047,0.000
1737553223.925,162.109,-33.691,-4.883,-842.285,0.000
1737553223.929,183.594,-27.344,-4.395,582.520,0.000
1737553223.932,190.918,-31.250,-4.883,999.512,0.000
1737553223.936,180.664,-40.039,-4.395,959.473,0.000
1737553223.940,170.898,-41.504,0.000,36.133,0.000
1737553223.944,145.996,-40.527,0.000,-945.312,0.000
1737553223.948,167.480,-25.879,-0.977,279.297,0.000
1737553223.952,183.594,-19.531,0.488,999.512,0.000
1737553223.956,150.879,-25.879,2.441,937.988,0.000
1737553223.960,144.531,-13.184,1.953,-46.875,0.000
1737553223.964,104.004,-21.973,-0.977,-1000.000,0.000
1737553223.968,69.824,-20.996,-7.324,-322.754,0.000
1737553223.972,80.078,-2.441,-8.789,946.777,0.000
1737553223.975,38.086,-6.348,-9.766,691.895,0.000
1737553223.979,-44.922,-1.953,-21.484,-746.582,0.000
1737553223.983,-102.051,10.742,-36.621,-1000.000,0.000
1737553223.987,-146.484,4.395,-39.551,-938.477,0.000
1737553223.991,-207.520,-4.883,-32.227,-1000.000,0.000
1737553223.995,-258.789,-10.742,-25.391,-1000.000,0.000
1737553223.999,-275.879,-18.555,-18.066,-977.051,0.000
1737553224.003,-262.695,-20.996,-21.484,-1000.000,0.000
1737553224.007,-270.996,-9.766,-24.902,-959.473,0.000
1737553224.011,-267.578,-3.418,-18.066,-211.426,0.000
1737553224.014,-244.629,-7.812,-17.578,94.727,0.000
1737553224.018,-251.953,-6.836,-20.020,-682.129,0.000
1737553224.022,-263.184,-3.906,-13.672,-1000.000,0.000
1737553224.026,-229.980,-1.465,-14.160,-612.305,0.000
1737553224.030,-193.848,5.371,-14.160,653.809,0.000
1737553224.034,-182.617,4.883,-17.090,999.512,0.000
1737553224.038,-187.012,-3.418,-11.719,417.480,0.000
1737553224.042,-190.430,-20.020,-8.789,-902.832,0.000
1737553224.046,-159.668,-13.184,-11.719,-697.266,0.000
1737553224.050,-129.395,11.230,-7.324,706.055,0.000
1737553224.054,-108.887,22.461,-0.488,999.512,0.000
1737553224.057,-93.262,10.742,0.000,851.074,0.000
1737553224.061,-94.238,-7.812,-7.812,-568.848,0.000
1737553224.065,-74.707,-2.930,-6.836,-843.750,0.000
1737553224.069,-28.320,16.602,4.395,697.754,0.000
1737553224.073,1.465,12.207,3.906,999.512,0.000
1737553224.077,7.324,-3.906,-6.836,941.406,0.000
1737553224.081,-2.930,-13.672,-6.348,-256.836,0.000
1737553224.085,20.508,-14.648,-1.953,-936.035,0.000
1737553224.089,71.289,-13.184,1.953,553.711,0.000
1737553224.093,92.773,-12.695,3.418,999.512,0.000
1737553224.096,104.004,-17.090,-0.488,968.750,0.000
1737553224.100,102.051,-22.461,-1.465,128.418,0.000
1737553224.104,102.051,-20.508,-6.836,-754.395,0.000
1737553224.108,135.254,-23.438,-11.230,446.289,0.000
1737553224.112,170.410,-24.902,-6.348,999.512,0.000
1737553224.116,170.898,-19.043,0.977,971.680,0.000
1737553224.120,152.344,-22.461,1.953,-18.066,0.000
1737553224.124,149.414,-26.855,1.953,-959.961,0.000
1737553224.128,178.711,-25.391,4.395,366.699,0.000
1737553224.132,195.801,-22.461,5.859,999.512,0.000
1737553224.136,189.941,-24.902,6.836,991.211,0.000
1737553224.139,178.711,-33.203,1.953,318.848,0.000
1737553224.143,165.039,-33.691,-2.441,-877.930,0.000
1737553224.147,172.363,-28.320,0.000,204.590,0.000
1737553224.151,173.340,-32.715,0.000,999.512,0.000
1737553224.155,173.340,-38.574,1.465,971.191,0.000
1737553224.159,165.527,-39.551,-0.977,703.125,0.000
1737553224.163,129.395,-36.621,-4.395,-661.621,0.000
1737553224.167,130.371,-34.668,-10.254,-314.453,0.000
1737553224.171,159.180,-23.438,-13.184,895.508,0.000
1737553224.175,157.715,-15.625,-7.812,999.512,0.000
1737553224.179,142.090,-20.020,-0.488,499.512,0.000
1737553224.182,108.398,-24.902,-4.883,-821.777,0.000
1737553224.186,80.078,-22.461,-11.230,-985.840,0.000
1737553224.190,54.199,-17.578,-15.137,159.180,0.000
1737553224.194,28.809,-8.789,-20.996,542.969,0.000
1737553224.198,-26.855,-10.254,-12.207,-609.863,0.000
1737553224.202,-102.539,-14.648,-8.789,-1000.000,0.000
1737553224.206,-166.992,-8.789,-19.531,-945.801,0.000
1737553224.210,-192.383,-3.906,-20.508,-1000.000,0.000
1737553224.214,-215.332,-7.324,-21.484,-1000.000,0.000
1737553224.218,-257.324,-16.113,-33.691,-988.281,0.000
1737553224.221,-298.340,-11.230,-28.809,-987.793,0.000
1737553224.225,-302.246,-8.301,-20.020,-998.047,0.000
1737553224.229,-303.223,-14.160,-19.531,-428.711,0.000
1737553224.233,-296.875,-11.230,-20.996,498.047,0.000
1737553224.237,-280.762,-8.301,-23.926,311.523,0.000
1737553224.241,-302.246,-10.254,-19.531,-882.812,0.000
1737553224.245,-289.062,-6.348,-13.672,-956.055,0.000
1737553224.249,-240.234,-1.465,-7.812,371.094,0.000
1737553224.253,-231.934,-3.906,-8.789,999.512,0.000
1737553224.257,-235.840,-10.742,-15.137,832.031,0.000
1737553224.261,-235.840,-15.625,-18.555,-598.145,0.000
1737553224.264,-205.566,-14.160,-15.137,-1000.000,0.000
1737553224.268,-165.039,-10.254,-13.672,432.129,0.000
1737553224.272,-156.250,-15.625,-13.184,999.512,0.000
1737553224.276,-149.902,-12.695,-10.254,937.988,0.000
1737553224.280,-147.949,-5.859,-20.020,-270.020,0.000
1737553224.284,-141.113,-3.906,-23.438,-1000.000,0.000
1737553224.288,-88.379,5.371,-18.066,384.766,0.000
1737553224.292,-47.852,3.418,-22.461,999.512,0.000
1737553224.296,-45.898,-7.812,-23.438,964.355,0.000
1737553224.300,-48.828,-13.184,-18.066,229.980,0.000
1737553224.304,-35.645,-15.625,-10.254,-962.402,0.000
1737553224.307,8.301,-15.625,-4.883,-245.605,0.000
1737553224.311,44.922,-12.207,-6.348,921.875,0.000
1737553224.315,64.453,-12.207,-6.836,999.512,0.000
1737553224.319,60.547,-16.113,-7.812,-173.340,0.000
1737553224.323,57.617,-20.996,-9.277,-1000.000,0.000
1737553224.327,99.121,-21.484,-3.418,101.074,0.000
1737553224.331,130.371,-23.438,-4.395,997.070,0.000
1737553224.335,131.348,-26.367,-11.230,991.699,0.000
1737553224.339,121.094,-34.180,-13.184,331.543,0.000
1737553224.343,95.215,-40.039,-13.184,-972.168,0.000
1737553224.346,105.469,-30.762,-10.742,-515.625,0.000
1737553224.350,136.719,-18.555,-5.859,781.250,0.000
1737553224.354,158.203,-15.625,-4.395,999.512,0.000
1737553224.358,163.086,-18.555,-9.277,696.777,0.000
1737553224.362,131.836,-29.297,-10.742,-736.816,0.000
1737553224.366,132.324,-29.785,-6.348,-541.992,0.000
1737553224.370,148.926,-29.785,-4.883,815.430,0.000
1737553224.374,143.066,-34.668,-4.883,999.512,0.000
1737553224.378,144.531,-27.344,-3.906,779.297,0.000
1737553224.382,133.789,-26.367,-3.906,-695.312,0.000
1737553224.386,133.301,-23.438,2.930,-633.301,0.000
1737553224.389,143.066,-22.461,2.441,793.945,0.000
1737553224.393,128.906,-29.297,0.488,999.512,0.000
1737553224.397,152.344,-31.250,4.395,832.520,0.000
1737553224.401,149.414,-32.227,7.324,-614.258,0.000
1737553224.405,125.488,-30.762,-1.953,-948.242,0.000
1737553224.409,145.020,-25.391,-0.977,561.035,0.000
1737553224.413,143.555,-29.297,2.930,999.512,0.000
1737553224.417,131.348,-31.738,0.000,854.492,0.000
1737553224.421,102.051,-35.645,-2.930,-566.895,0.000
1737553224.425,85.449,-41.016,-7.324,-1000.000,0.000
1737553224.429,114.746,-32.227,3.418,558.105,0.000
1737553224.432,117.188,-27.344,3.906,999.512,0.000
1737553224.436,105.469,-28.809,-4.883,970.215,0.000
1737553224.440,81.055,-27.832,-0.488,76.660,0.000
1737553224.444,54.199,-30.762,7.324,-937.500,0.000
1737553224.448,82.031,-24.414,10.254,305.176,0.000
1737553224.452,107.422,-19.531,9.766,999.512,0.000
1737553224.456,90.820,-24.902,4.883,980.469,0.000
1737553224.460,69.824,-33.691,-1.465,176.270,0.000
1737553224.464,64.453,-29.297,-5.859,-942.871,0.000
1737553224.468,82.031,-19.531,-7.324,156.250,0.000
1737553224.471,83.984,-16.602,-8.301,999.512,0.000
1737553224.475,76.172,-17.578,-7.812,985.840,0.000
1737553224.479,58.594,-19.531,0.977,455.078,0.000
1737553224.483,19.531,-26.855,4.395,-895.020,0.000
1737553224.487,39.551,-24.414,0.977,-473.145,0.000
1737553224.491,62.500,-16.602,-2.441,827.148,0.000
1737553224.495,45.898,-15.137,-4.883,999.512,0.000
1737553224.499,30.762,-14.160,-7.812,276.855,0.000
1737553224.503,8.789,-14.648,-6.348,-926.270,0.000
1737553224.507,10.254,-14.648,-7.324,-794.922,0.000
1737553224.511,11.230,-7.324,-6.348,465.332,0.000
1737553224.514,19.043,-8.301,-2.930,999.512,0.000
1737553224.518,44.922,-17.578,-7.812,99.121,0.000
1737553224.522,38.086,-13.184,-4.883,-1000.000,0.000
1737553224.526,27.344,-12.207,-7.812,-885.254,0.000
1737553224.530,26.367,-17.578,-12.207,43.945,0.000
1737553224.534,30.762,-16.602,-4.395,647.461,0.000
1737553224.538,14.160,-19.531,-8.301,-164.062,0.000
1737553224.542,-8.789,-23.926,-9.277,-1000.000,0.000
1737553224.546,1.465,-18.555,-0.488,-902.832,0.000
1737553224.550,4.395,-15.625,-4.883,223.633,0.000
1737553224.554,7.324,-14.648,-7.812,999.512,0.000
1737553224.557,20.508,-10.742,-7.812,541.016,0.000
1737553224.561,-25.879,-20.020,-10.742,-813.477,0.000
1737553224.565,-38.086,-21.484,-6.836,-1000.000,0.000
1737553224.569,-11.230,-9.277,-4.395,214.355,0.000
1737553224.573,-0.977,-11.230,-2.441,999.512,0.000
1737553224.577,-9.277,-17.578,-4.883,684.082,0.000
1737553224.581,-40.039,-18.555,-12.695,-727.539,0.000
1737553224.585,-39.062,-20.020,-13.184,-1000.000,0.000
1737553224.589,-9.766,-25.391,-9.766,202.637,0.000
1737553224.593,-0.977,-23.438,-12.207,999.512,0.000
1737553224.596,-7.324,-11.719,-15.625,694.824,0.000
1737553224.600,-22.949,-6.348,-14.648,-632.812,0.000
1737553224.604,-26.367,-12.207,-9.277,-1000.000,0.000
1737553224.608,-14.648,-10.254,-8.301,-382.324,0.000
1737553224.612,3.418,0.000,-5.371,776.855,0.000
1737553224.616,-2.441,-1.465,-2.441,922.852,0.000
1737553224.620,-34.668,-13.184,-5.371,-519.531,0.000
1737553224.624,-47.852,-17.090,-11.230,-1000.000,0.000
1737553224.628,-35.645,-18.555,-6.836,-606.445,0.000
1737553224.632,-1.465,-20.508,2.441,478.516,0.000
1737553224.636,1.953,-8.301,2.930,999.512,0.000
1737553224.639,-20.020,-2.930,1.465,-126.465,0.000
1737553224.643,-24.902,-8.789,-0.977,-1000.000,0.000
1737553224.647,-16.602,-6.836,-4.395,-308.105,0.000
1737553224.651,-2.930,-9.277,-7.812,869.629,0.000
1737553224.655,-7.324,-15.137,-4.395,999.512,0.000
1737553224.659,-31.250,-19.043,-3.906,-184.082,0.000
1737553224.663,-39.062,-17.578,-5.371,-1000.000,0.000
1737553224.667,-16.113,-14.648,-0.977,-342.285,0.000
1737553224.671,-0.488,-12.695,1.953,816.895,0.000
1737553224.675,-12.207,-16.113,-7.324,999.512,0.000
1737553224.678,-28.809,-14.648,-14.160,279.785,0.000
1737553224.682,-28.320,-10.742,-11.719,-969.727,0.000
1737553224.686,-7.324,-13.184,-5.371,-624.023,0.000
1737553224.690,6.836,-19.043,-0.488,741.211,0.000
1737553224.694,1.465,-20.508,-4.883,999.512,0.000
1737553224.698,-11.230,-19.043,-5.371,245.117,0.000
1737553224.702,-19.043,-19.531,-9.766,-956.055,0.000
1737553224.706,-11.719,-19.531,-16.602,-869.141,0.000
1737553224.710,7.324,-13.672,-12.207,467.773,0.000
1737553224.714,12.207,-4.883,-12.695,999.512,0.000
1737553224.718,-3.906,-8.789,-20.508,468.750,0.000
1737553224.721,-33.203,-18.555,-19.043,-823.730,0.000
1737553224.725,-29.297,-9.766,-12.207,-1000.000,0.000
1737553224.729,-9.766,-2.930,-7.324,298.828,0.000
1737553224.733,-3.418,-9.766,-5.859,999.512,0.000
1737553224.737,-18.066,-22.461,-10.742,629.883,0.000
1737553224.741,-44.922,-25.879,-20.508,-730.957,0.000
1737553224.745,-41.016,-20.020,-19.531,-1000.000,0.000
1737553224.749,-14.160,-14.160,-17.578,130.859,0.000
1737553224.753,-6.348,-20.508,-21.973,999.512,0.000
1737553224.757,-2.441,-20.996,-12.695,906.738,0.000
1737553224.761,-4.395,-18.066,-5.859,-405.762,0.000
1737553224.764,-29.297,-20.020,-13.184,-1000.000,0.000
1737553224.768,-35.156,-17.578,-10.254,-94.727,0.000
1737553224.772,11.230,-10.254,-6.348,931.641,0.000
1737553224.776,18.066,-9.277,-14.160,976.562,0.000
1737553224.780,-37.109,-22.461,-19.043,-311.035,0.000
1737553224.784,-48.828,-26.367,-13.184,-1000.000,0.000
1737553224.788,-21.973,-22.949,-11.719,-95.215,0.000
1737553224.792,0.977,-20.020,-13.184,949.219,0.000
1737553224.796,8.301,-16.113,-11.230,946.777,0.000
1737553224.800,-18.066,-18.066,-7.812,-375.977,0.000
1737553224.803,-31.738,-15.625,-7.812,-1000.000,0.000
1737553224.807,-16.602,-13.184,-14.160,-248.535,0.000
1737553224.811,-18.066,-14.160,-11.719,908.203,0.000
1737553224.815,-36.133,-18.066,-3.906,834.961,0.000
1737553224.819,-39.062,-20.508,-3.418,-516.113,0.000
1737553224.823,-25.391,-20.020,-8.301,-1000.000,0.000
1737553224.827,-5.859,-18.066,-7.324,-762.207,0.000
1737553224.831,4.395,-13.184,-15.137,361.816,0.000
1737553224.835,7.812,-10.742,-10.254,921.387,0.000
1737553224.839,-10.742,-9.277,-6.348,-395.508,0.000
1737553224.843,-28.320,-10.742,-19.531,-1000.000,0.000
1737553224.846,-44.434,-13.184,-12.695,-961.426,0.000
1737553224.850,-27.344,-12.207,-7.324,-355.957,0.000
1737553224.854,23.438,-7.812,-12.695,588.867,0.000
1737553224.858,5.371,-14.160,-16.113,2.441,0.000
1737553224.862,-57.129,-21.973,-13.672,-1000.000,0.000
1737553224.866,-41.992,-15.137,-7.812,-797.852,0.000
1737553224.870,31.738,-4.883,-3.418,566.895,0.000
1737553224.874,40.527,-5.859,-8.301,999.512,0.000
1737553224.878,2.441,-12.207,-10.254,158.203,0.000
1737553224.882,-31.250,-20.996,-10.742,-922.363,0.000
1737553224.886,-23.438,-20.996,-15.137,-1000.000,0.000
1737553224.889,-13.184,-17.578,-21.973,-605.957,0.000
1737553224.893,-6.348,-13.184,-21.973,-27.832,0.000
1737553224.897,-7.812,-12.695,-7.812,-373.047,0.000
1737553224.901,-25.391,-18.555,-10.742,-970.703,0.000
1737553224.905,-1.953,-12.207,-18.066,-1000.000,0.000
1737553224.909,-28.809,-14.160,-6.836,-407.227,0.000
1737553224.913,-21.973,-17.578,-11.230,699.707,0.000
1737553224.917,37.598,-13.672,-16.602,361.328,0.000
1737553224.921,20.020,-17.578,-13.184,-847.656,0.000
1737553224.925,-25.879,-11.230,-9.277,-1000.000,0.000
1737553224.928,-30.273,-14.160,-10.742,-523.926,0.000
1737553224.932,13.672,-23.438,-19.531,454.590,0.000
1737553224.936,13.184,-18.555,-19.531,531.250,0.000
1737553224.940,-28.809,-19.043,-8.301,-680.664,0.000
1737553224.944,-68.359,0.000,-0.488,-1000.000,0.000
1737553224.948,-108.398,22.949,-13.672,-562.500,0.000
1737553224.952,-269.043,45.410,-14.160,-279.785,0.000
1737553224.956,-329.590,-23.438,14.648,-862.305,0.000
1737553224.960,-160.645,-23.926,12.695,-1000.000,0.000
1737553224.964,-58.594,19.531,30.762,-967.285,0.000
1737553224.968,-199.707,34.668,48.828,-1000.000,0.000
1737553224.971,-113.281,7.812,-38.086,-1000.000,0.000
1737553224.975,-89.355,-51.270,6.836,-1000.000,0.000
1737553224.979,-500.000,86.426,118.164,-1000.000,0.000
1737553224.983,-75.684,-60.547,-27.832,-1000.000,0.000
1737553224.987,301.270,-198.242,-80.078,-1000.000,0.000
1737553224.991,124.512,-121.582,-55.664,-1000.000,0.000
1737553224.995,107.422,-85.938,-80.078,-979.004,0.000
1737553224.999,23.926,-78.125,-49.805,-985.840,0.000
1737553225.003,-108.887,-16.602,-3.418,-1000.000,0.000
1737553225.007,-144.043,25.879,24.414,11.230,0.000
1737553225.011,42.480,-68.848,-14.160,964.355,0.000
1737553225.014,211.426,-83.496,-98.633,999.512,0.000
1737553225.018,147.949,-61.523,-88.379,613.281,0.000
1737553225.022,105.957,-67.871,-54.199,-127.930,0.000
1737553225.026,122.559,-44.434,-46.875,602.539,0.000
1737553225.030,91.797,-36.621,-36.133,999.512,0.000
1737553225.034,61.035,-38.086,-29.785,915.527,0.000
1737553225.038,61.035,-34.668,-25.879,979.004,0.000
1737553225.042,63.477,-37.109,-23.438,970.703,0.000
1737553225.046,58.594,-35.645,-22.461,982.422,0.000
1737553225.050,62.988,-27.832,-20.508,920.898,0.000
1737553225.053,61.523,-29.297,-25.391,999.512,0.000
1737553225.057,58.105,-32.715,-23.438,840.332,0.000
1737553225.061,51.758,-27.832,-17.090,-527.344,0.000
1737553225.065,38.086,-20.996,-18.066,-1000.000,0.000
1737553225.069,51.270,-13.672,-14.648,-76.660,0.000
1737553225.073,93.262,-9.766,-16.602,938.477,0.000
1737553225.077,72.266,-13.672,-17.578,578.613,0.000
1737553225.081,26.855,-19.531,-17.090,-784.180,0.000
1737553225.085,31.738,-20.020,-11.719,-1000.000,0.000
1737553225.089,60.059,-19.531,-8.301,-198.730,0.000
1737553225.093,74.707,-17.090,-11.719,666.016,0.000
1737553225.096,53.223,-19.531,-9.766,118.652,0.000
1737553225.100,43.945,-20.508,-7.812,-901.367,0.000
1737553225.104,64.453,-12.207,-4.395,-1000.000,0.000
1737553225.108,84.961,-8.301,-3.906,-779.297,0.000
1737553225.112,110.352,-7.324,-2.441,-569.824,0.000
1737553225.116,107.910,-10.254,-2.930,-894.531,0.000
1737553225.120,104.492,-13.672,-1.953,-1000.000,0.000
1737553225.124,143.555,-11.230,-0.977,-1000.000,0.000
1737553225.128,152.832,-4.883,-2.441,-483.887,0.000
1737553225.132,136.230,-0.977,-3.418,693.359,0.000
1737553225.136,87.891,0.488,-3.418,746.094,0.000
1737553225.139,13.672,-1.465,-3.418,-523.926,0.000
1737553225.143,-58.594,2.930,-3.906,-784.668,0.000
1737553225.147,-37.109,-7.324,-0.977,686.523,0.000
1737553225.151,15.137,-9.277,0.977,999.512,0.000
1737553225.155,-43.457,-10.254,-5.859,900.879,0.000
1737553225.159,-50.781,-17.090,-14.648,985.352,0.000
1737553225.163,-43.945,-19.531,-11.230,970.703,0.000
1737553225.167,-67.871,-13.184,-11.230,970.703,0.000
1737553225.171,-91.797,-5.859,-15.137,970.703,0.000
1737553225.175,-117.188,-8.301,-13.184,970.703,0.000
1737553225.178,-101.562,-3.906,-5.371,970.703,0.000
1737553225.182,-130.859,5.371,-8.789,970.703,0.000
1737553225.186,-114.746,-17.578,-1.953,971.191,0.000
1737553225.190,-66.895,-19.531,-1.953,967.285,0.000
1737553225.194,-100.098,-10.254,-1.465,974.609,0.000
1737553225.198,-113.281,-21.484,0.977,968.262,0.000
1737553225.202,-127.930,4.883,-8.301,902.832,0.000
1737553225.206,-111.328,5.859,-2.441,950.195,0.000
1737553225.210,-65.918,-25.879,-1.465,924.805,0.000
1737553225.214,-75.684,-21.973,-5.371,999.512,0.000
1737553225.218,-132.324,-15.625,7.324,588.867,0.000
1737553225.221,-228.027,-18.555,0.977,-824.219,0.000
1737553225.225,-189.453,-23.438,-9.277,-1000.000,0.000
1737553225.229,-210.449,20.020,-12.695,-351.562,0.000
1737553225.233,-192.383,-10.742,-11.719,-576.172,0.000
1737553225.237,-35.156,-50.781,2.441,-1000.000,0.000
1737553225.241,-64.941,-20.020,-2.441,-980.957,0.000
1737553225.245,-160.156,3.418,-9.766,-1000.000,0.000
1737553225.249,-127.441,-23.926,22.461,-964.844,0.000
1737553225.253,-44.434,-68.848,-0.488,-795.898,0.000
1737553225.257,-33.203,-38.086,-32.715,-945.801,0.000
1737553225.260,-96.191,-24.902,-7.324,-1000.000,0.000
1737553225.264,-269.043,40.527,27.832,-988.281,0.000
1737553225.268,-409.180,58.105,27.344,-1000.000,0.000
1737553225.272,-386.230,20.996,41.016,-1000.000,0.000
1737553225.276,-81.543,-76.172,-27.832,-1000.000,0.000
1737553225.280,-4.883,-77.637,27.832,-1000.000,0.000
1737553225.284,-169.434,62.500,76.660,-1000.000,0.000
1737553225.288,82.520,-66.406,-49.805,-1000.000,0.000
1737553225.292,184.570,-82.031,-100.586,-1000.000,0.000
1737553225.296,41.504,12.207,-67.383,-1000.000,0.000
1737553225.300,81.055,-67.383,-39.551,-1000.000,0.000
1737553225.303,0.977,-50.293,-20.996,-992.676,0.000
1737553225.307,-123.535,-25.391,25.879,-1000.000,0.000
1737553225.311,77.148,-74.707,3.418,-1000.000,0.000
1737553225.315,140.625,-35.156,-46.875,-755.371,0.000
1737553225.319,44.922,-18.066,-30.273,-782.715,0.000
1737553225.323,45.898,-33.691,-24.902,-1000.000,0.000
1737553225.327,60.547,-31.250,-18.555,-568.359,0.000
1737553225.331,69.824,-19.043,-12.695,555.176,0.000
1737553225.335,58.105,-18.555,-13.184,298.340,0.000
1737553225.339,30.762,-18.066,-13.672,-828.125,0.000
1737553225.343,25.391,-18.555,-10.254,-1000.000,0.000
1737553225.346,41.016,-13.184,-7.324,-950.195,0.000
1737553225.350,55.664,-12.207,-10.254,-519.531,0.000
1737553225.354,61.523,-16.602,-9.277,-338.867,0.000
1737553225.358,60.059,-13.672,-10.254,-774.902,0.000
1737553225.362,45.898,-17.090,-11.230,-1000.000,0.000
1737553225.366,60.059,-16.113,-6.836,-581.055,0.000
1737553225.370,89.844,-8.301,-4.883,730.957,0.000
1737553225.374,87.891,-13.672,-5.371,999.512,0.000
1737553225.378,77.148,-13.672,-6.348,62.988,0.000
1737553225.382,63.965,-3.906,-4.395,-996.582,0.000
1737553225.385,69.824,0.488,0.977,-809.570,0.000
1737553225.389,99.121,2.930,4.395,563.477,0.000
1737553225.393,115.234,-3.418,3.418,999.512,0.000
1737553225.397,122.070,-11.230,3.906,910.645,0.000
1737553225.401,138.184,-4.395,2.930,960.449,0.000
1737553225.405,148.926,-2.441,-7.812,963.867,0.000
1737553225.409,139.648,-7.812,-8.301,973.633,0.000
1737553225.413,126.953,-5.859,-0.977,969.238,0.000
1737553225.417,114.258,-0.488,1.953,970.703,0.000
1737553225.421,84.473,-5.371,4.395,970.703,0.000
1737553225.425,63.965,-15.625,0.000,970.703,0.000
1737553225.428,59.082,-11.719,-2.441,970.703,0.000
1737553225.432,44.922,-7.812,2.930,970.703,0.000
1737553225.436,16.113,-11.230,-2.441,970.703,0.000
1737553225.440,-11.230,-13.184,-7.812,970.703,0.000
1737553225.444,-40.039,-18.555,-6.348,970.703,0.000
1737553225.448,-46.387,-16.602,-4.395,970.703,0.000
1737553225.452,-54.688,-8.789,-6.836,970.703,0.000
1737553225.456,-81.055,-4.395,-7.324,970.703,0.000
1737553225.460,-73.242,0.000,-3.906,970.703,0.000
1737553225.464,-79.590,-7.812,1.465,970.703,0.000
1737553225.468,-107.422,-7.324,0.977,970.215,0.000
1737553225.471,-120.117,2.930,-1.465,970.703,0.000
1737553225.475,-83.984,-12.207,-2.441,970.703,0.000
1737553225.479,-86.426,-8.789,-3.906,970.703,0.000
1737553225.483,-116.699,-14.160,-2.441,970.703,0.000
1737553225.487,-98.145,-20.020,2.930,977.051,0.000
1737553225.491,-53.711,-10.254,-0.977,942.383,0.000
1737553225.495,-54.688,-14.160,-10.254,999.512,0.000
1737553225.499,-96.680,-17.090,-2.441,928.223,0.000
1737553225.503,-103.516,-13.672,5.371,215.332,0.000
1737553225.507,-82.520,-6.348,5.371,428.223,0.000
1737553225.510,-121.582,-3.418,-1.465,999.512,0.000
1737553225.514,-105.469,-9.277,-4.395,960.449,0.000
1737553225.518,-114.258,-12.207,-0.488,-54.688,0.000
1737553225.522,-206.543,-8.301,11.230,-1000.000,0.000
1737553225.526,-100.098,-22.461,-4.883,-966.309,0.000
1737553225.530,21.484,-10.254,-28.809,-402.344,0.000
1737553225.534,-94.238,5.859,-19.531,-508.789,0.000
1737553225.538,-104.492,-22.949,-10.742,-1000.000,0.000
1737553225.542,-30.273,-21.973,-10.742,-997.559,0.000
1737553225.546,-137.695,-3.418,-6.836,-988.770,0.000
1737553225.550,-135.254,-24.414,-6.348,-1000.000,0.000
1737553225.553,-14.160,-11.230,-28.809,-1000.000,0.000
1737553225.557,-268.555,22.949,30.273,-1000.000,0.000
1737553225.561,-272.949,-38.574,63.965,-1000.000,0.000
1737553225.565,99.609,-34.668,-46.875,-1000.000,0.000
1737553225.569,84.473,4.883,-46.387,-1000.000,0.000
1737553225.573,-15.137,-13.184,-14.160,-1000.000,0.000
1737553225.577,-22.949,-10.254,-29.785,-1000.000,0.000
1737553225.581,-166.016,0.000,-4.883,-1000.000,0.000
1737553225.585,-327.148,6.836,48.340,-1000.000,0.000
1737553225.589,-149.902,-21.484,20.020,-1000.000,0.000
1737553225.593,52.734,-32.227,-54.688,-1000.000,0.000
1737553225.596,-281.738,82.031,3.906,-1000.000,0.000
1737553225.600,-387.695,47.852,22.461,-1000.000,0.000
1737553225.604,52.734,-106.934,-48.828,-1000.000,0.000
1737553225.608,56.152,-37.598,-57.129,-1000.000,0.000
1737553225.612,-119.629,66.895,-55.664,-1000.000,0.000
1737553225.616,41.504,-34.668,-20.996,-946.777,0.000
1737553225.620,75.195,-83.008,-2.441,-1000.000,0.000
1737553225.624,39.551,-40.039,-26.855,-701.660,0.000
1737553225.628,109.863,-50.293,-26.367,636.719,0.000
1737553225.632,76.172,-31.250,-36.621,999.512,0.000
1737553225.635,4.883,-7.324,-42.969,881.836,0.000
1737553225.639,11.719,-34.668,-28.809,-168.945,0.000
1737553225.643,20.996,-34.180,-20.996,-1000.000,0.000
1737553225.647,24.902,-18.066,-20.508,104.980,0.000
1737553225.651,41.016,-18.555,-26.855,999.512,0.000
1737553225.655,31.738,-22.461,-26.367,837.891,0.000
1737553225.659,14.648,-25.879,-19.043,-301.270,0.000
1737553225.663,7.812,-21.484,-16.113,-1000.000,0.000
1737553225.667,25.391,-17.578,-12.207,-584.473,0.000
1737553225.671,54.199,-23.438,-12.695,641.602,0.000
1737553225.675,58.105,-18.555,-13.184,999.512,0.000
1737553225.678,42.480,-11.230,-20.020,215.332,0.000
1737553225.682,23.438,-16.113,-17.578,-944.336,0.000
1737553225.686,35.645,-20.020,-10.254,-526.367,0.000
1737553225.690,71.777,-16.602,-8.301,719.727,0.000
1737553225.694,90.332,-6.348,-0.977,999.512,0.000
1737553225.698,82.031,-6.836,-8.789,727.051,0.000
1737553225.702,64.453,-13.184,-15.625,-627.441,0.000
1737553225.706,78.613,-17.578,-5.859,-785.156,0.000
1737553225.710,103.027,-13.672,-8.301,677.734,0.000
1737553225.714,117.188,-9.766,-20.508,951.660,0.000
1737553225.717,122.559,-10.254,-14.648,32.715,0.000
1737553225.721,100.586,-9.277,-9.766,-947.754,0.000
1737553225.725,113.770,-8.301,-4.395,-336.914,0.000
1737553225.729,119.141,-13.184,-0.488,913.086,0.000
1737553225.733,94.727,-20.508,-4.883,986.328,0.000
1737553225.737,80.566,-20.020,-5.859,932.617,0.000
1737553225.741,52.734,-22.949,-8.301,980.957,0.000
1737553225.745,39.551,-23.926,-7.812,970.703,0.000
1737553225.749,23.926,-13.184,-3.418,970.703,0.000
1737553225.753,0.488,-14.648,-4.883,970.703,0.000
1737553225.757,-23.926,-18.066,-5.859,970.703,0.000
1737553225.760,-36.133,-17.578,-7.324,970.215,0.000
1737553225.764,-41.016,-19.043,-8.301,970.703,0.000
1737553225.768,-42.969,-19.531,-6.348,970.703,0.000
1737553225.772,-39.551,-21.484,-9.766,970.703,0.000
1737553225.776,-60.547,-12.207,-6.836,970.703,0.000
1737553225.780,-67.383,-7.324,-1.465,970.703,0.000
1737553225.784,-67.383,-15.137,-3.906,970.703,0.000
1737553225.788,-82.031,-12.207,-1.953,970.703,0.000
1737553225.792,-84.473,-8.301,-1.465,970.703,0.000
1737553225.796,-80.078,-11.719,-8.789,970.703,0.000
1737553225.800,-79.102,-18.066,-11.230,970.703,0.000
1737553225.803,-78.125,-20.020,-7.324,970.703,0.000
1737553225.807,-72.266,-16.113,-4.883,970.703,0.000
1737553225.811,-71.289,-20.020,-7.812,970.703,0.000
1737553225.815,-65.918,-20.020,-9.277,970.703,0.000
1737553225.819,-62.988,-7.812,-9.766,970.703,0.000
1737553225.823,-55.664,-10.742,-11.719,970.703,0.000
1737553225.827,-66.406,-15.625,-7.324,973.633,0.000
1737553225.831,-83.984,-15.137,-4.883,955.566,0.000
1737553225.835,-81.055,-24.902,-8.301,993.164,0.000
1737553225.839,-74.219,-30.762,-11.230,936.523,0.000
1737553225.842,-76.660,-25.879,-6.348,696.289,0.000
1737553225.846,-59.082,-14.160,2.930,892.578,0.000
1737553225.850,-56.641,-7.812,4.395,970.215,0.000
1737553225.854,-58.594,-15.625,-4.883,963.379,0.000
1737553225.858,-57.617,-15.625,-13.184,972.656,0.000
1737553225.862,-95.215,-13.672,-4.395,-273.926,0.000
1737553225.866,-79.102,-18.066,4.395,-553.223,0.000
1737553225.870,-47.363,-13.184,-0.977,736.328,0.000
1737553225.874,-52.246,-9.766,-5.371,999.512,0.000
1737553225.878,-54.199,-19.043,0.488,758.789,0.000
1737553225.882,-74.219,-21.973,-0.488,-652.832,0.000
1737553225.885,-63.965,-10.742,-3.906,-857.422,0.000
1737553225.889,-44.434,-11.230,-9.766,593.750,0.000
1737553225.893,-36.621,-18.066,-10.742,999.512,0.000
1737553225.897,-44.434,-27.344,-8.301,486.328,0.000
1737553225.901,-72.266,-36.621,-11.230,-770.020,0.000
1737553225.905,-69.336,-24.414,-7.812,-1000.000,0.000
1737553225.909,-44.922,-6.836,-6.836,227.539,0.000
1737553225.913,-26.367,-7.812,-13.672,999.512,0.000
1737553225.917,-13.672,-20.020,-16.602,928.223,0.000
1737553225.921,-38.574,-15.625,-13.184,-362.305,0.000
1737553225.925,-48.340,-11.719,-9.766,-923.828,0.000
1737553225.928,-21.484,-9.277,-9.277,443.359,0.000
1737553225.932,-15.137,-8.789,-16.602,999.512,0.000
1737553225.936,-14.160,-15.625,-19.531,905.762,0.000
1737553225.940,-41.992,-20.508,-9.766,-264.648,0.000
1737553225.944,-59.570,-21.484,-6.836,-1000.000,0.000
1737553225.948,-38.574,-19.531,-8.789,-144.043,0.000
1737553225.952,-15.137,-20.508,-13.672,915.039,0.000
1737553225.956,-27.344,-22.461,-17.578,973.633,0.000
1737553225.960,-50.781,-20.996,-18.066,-180.176,0.000
1737553225.964,-59.082,-23.438,-14.648,-1000.000,0.000
1737553225.967,-36.133,-18.066,-7.324,-277.832,0.000
1737553225.971,-8.789,-8.301,-3.906,849.121,0.000
1737553225.975,-14.160,-9.766,-13.672,999.512,0.000
1737553225.979,-34.668,-17.090,-20.996,153.809,0.000
1737553225.983,-52.734,-20.996,-15.625,-1000.000,0.000
1737553225.987,-47.363,-15.137,-12.207,-589.355,0.000
1737553225.991,-19.531,-12.695,-11.719,735.840,0.000
1737553225.995,-14.160,-13.184,-8.301,999.512,0.000
1737553225.999,-48.828,-11.230,-8.789,85.938,0.000
1737553226.003,-65.918,-19.531,-11.719,-1000.000,0.000
1737553226.007,-26.367,-10.254,-7.812,-557.129,0.000
1737553226.010,14.160,-0.488,-14.648,739.746,0.000
1737553226.014,9.277,-7.812,-20.020,999.512,0.000
1737553226.018,-12.207,-11.719,-11.230,343.262,0.000
1737553226.022,-29.785,-8.789,-12.695,-926.270,0.000
1737553226.026,-18.066,-4.883,-20.020,-604.980,0.000
1737553226.030,15.137,-2.930,-8.789,748.047,0.000
1737553226.034,6.348,-9.277,-6.836,999.512,0.000
1737553226.038,-19.531,-20.996,-15.137,414.551,0.000
1737553226.042,-38.086,-23.926,-12.695,-852.051,0.000
1737553226.046,-39.551,-16.113,-7.812,-923.828,0.000
1737553226.050,-29.297,-16.602,-15.625,357.910,0.000
1737553226.053,-26.855,-23.438,-22.949,999.512,0.000
1737553226.057,-26.855,-23.926,-16.602,288.086,0.000
1737553226.061,-39.062,-12.207,-21.484,-858.398,0.000
1737553226.065,-46.387,-1.953,-26.855,-1000.000,0.000
1737553226.069,-16.113,-3.906,-17.578,-33.691,0.000
1737553226.073,5.371,-9.277,-16.113,926.270,0.000
1737553226.077,-23.926,-13.184,-19.043,-21.484,0.000
1737553226.081,-35.156,-18.555,-21.973,-1000.000,0.000
1737553226.085,-26.367,-14.160,-21.973,-1000.000,0.000
1737553226.089,-14.160,-11.230,-20.996,-845.703,0.000
1737553226.092,-32.715,-15.137,-8.789,-706.543,0.000
1737553226.096,-78.125,-23.926,1.953,-953.613,0.000
1737553226.100,-22.461,-16.113,-16.113,-1000.000,0.000
1737553226.104,3.418,-9.766,-14.160,-985.840,0.000
1737553226.108,-15.137,-22.949,-6.348,-1000.000,0.000
1737553226.112,-35.156,-20.020,-16.602,-1000.000,0.000
1737553226.116,-56.641,-4.395,-17.578,-1000.000,0.000
1737553226.120,-49.316,-6.348,-15.625,-1000.000,0.000
1737553226.124,-15.137,-18.066,-20.508,-1000.000,0.000
1737553226.128,-5.371,-23.926,-17.090,-1000.000,0.000
1737553226.132,-29.785,-18.555,-15.137,-1000.000,0.000
1737553226.135,-47.852,-9.766,-18.066,-1000.000,0.000
1737553226.139,-85.938,-11.719,-4.883,-1000.000,0.000
1737553226.143,-77.148,-32.227,0.000,-1000.000,0.000
1737553226.147,22.461,-22.461,-21.484,-1000.000,0.000
1737553226.151,13.184,-13.184,-18.066,-1000.000,0.000
1737553226.155,-30.273,-27.832,-19.043,-1000.000,0.000
1737553226.159,-65.430,-34.180,-1.465,-1000.000,0.000
1737553226.163,-177.246,-3.418,33.691,-1000.000,0.000
1737553226.167,-244.141,30.273,1.953,-1000.000,0.000
1737553226.171,-205.566,-25.391,4.395,-1000.000,0.000
1737553226.174,-104.004,-46.875,35.156,-1000.000,0.000
1737553226.178,-67.383,0.977,-20.508,-1000.000,0.000
1737553226.182,-57.617,-32.715,-22.461,-1000.000,0.000
1737553226.186,-160.156,30.762,-37.598,-1000.000,0.000
1737553226.190,-143.066,15.625,-40.527,-1000.000,0.000
1737553226.194,-120.605,-2.930,16.113,-1000.000,0.000
1737553226.198,-241.211,93.750,-36.621,-1000.000,0.000
1737553226.202,10.254,-106.934,-47.363,-972.168,0.000
1737553226.206,103.516,-121.094,-49.316,-1000.000,0.000
1737553226.210,71.777,-26.855,-66.406,-919.434,0.000
1737553226.214,69.824,-70.801,-24.902,-10.254,0.000
1737553226.217,40.039,-68.359,-21.484,319.824,0.000
1737553226.221,86.914,-53.711,-72.266,-760.254,0.000
1737553226.225,86.426,-38.574,-72.754,-1000.000,0.000
1737553226.229,59.082,-33.203,-43.945,-83.496,0.000
1737553226.233,68.359,-31.738,-42.969,545.898,0.000
1737553226.237,59.570,-31.250,-40.039,11.230,0.000
1737553226.241,29.297,-31.250,-31.738,-919.434,0.000
1737553226.245,39.551,-28.809,-25.391,-924.316,0.000
1737553226.249,60.547,-21.973,-22.949,285.645,0.000
1737553226.253,58.594,-24.414,-32.715,999.512,0.000
1737553226.257,47.852,-29.785,-29.785,225.586,0.000
1737553226.260,32.227,-26.855,-19.531,-866.211,0.000
1737553226.264,33.203,-25.391,-16.602,-1000.000,0.000
1737553226.268,43.945,-26.367,-16.602,-550.781,0.000
1737553226.272,50.781,-27.832,-17.090,242.676,0.000
1737553226.276,63.477,-23.926,-20.020,51.270,0.000
1737553226.280,55.664,-28.320,-23.926,-842.285,0.000
1737553226.284,55.664,-26.367,-11.230,-1000.000,0.000
1737553226.288,97.168,-8.301,2.441,-351.074,0.000
1737553226.292,129.395,1.953,0.488,792.969,0.000
1737553226.296,127.441,-2.930,-5.859,999.512,0.000
1737553226.299,99.121,-7.812,-7.812,-90.820,0.000
1737553226.303,87.402,-3.418,-6.836,-1000.000,0.000
1737553226.307,120.605,-5.371,-3.418,-13.672,0.000
1737553226.311,147.461,-8.789,-2.441,949.219,0.000
1737553226.315,155.762,-4.883,0.488,999.512,0.000
1737553226.319,149.902,-12.695,1.465,321.777,0.000
1737553226.323,121.582,-17.578,-3.418,-834.473,0.000
1737553226.327,125.977,-15.625,-1.465,247.559,0.000
1737553226.331,123.535,-9.766,-2.930,999.512,0.000
1737553226.335,82.520,-4.395,-9.277,906.250,0.000
1737553226.339,50.781,-7.812,-11.719,971.680,0.000
1737553226.342,34.180,-4.883,-4.395,973.145,0.000
1737553226.346,20.996,-15.137,1.465,970.703,0.000
1737553226.350,11.719,-26.855,3.418,970.703,0.000
1737553226.354,-3.418,-17.090,6.836,970.703,0.000
1737553226.358,-20.020,-13.184,2.441,970.703,0.000
1737553226.362,-25.391,-13.672,-3.906,970.703,0.000
1737553226.366,-47.363,-5.859,-7.812,970.703,0.000
1737553226.370,-62.988,-7.324,-11.230,970.703,0.000
1737553226.374,-55.176,-14.648,-10.742,970.703,0.000
1737553226.378,-125.000,-5.859,-7.812,970.703,0.000
1737553226.382,-131.836,8.301,-15.137,970.703,0.000
1737553226.385,-53.223,-24.902,4.883,970.703,0.000
1737553226.389,-23.438,-37.109,13.672,973.145,0.000
1737553226.393,-70.312,-18.066,-19.043,957.520,0.000
1737553226.397,-153.320,-1.953,-13.184,997.559,0.000
1737553226.401,-146.484,-28.809,-3.418,911.621,0.000
1737553226.405,-118.164,-35.645,-11.719,676.758,0.000
1737553226.409,-102.539,-14.648,10.742,980.469,0.000
1737553226.413,-92.773,-3.906,1.953,735.352,0.000
1737553226.417,-220.703,4.883,8.301,-671.875,0.000
1737553226.421,-289.062,29.297,25.391,-1000.000,0.000
1737553226.424,-186.035,33.691,-18.555,-938.965,0.000
1737553226.428,-215.820,60.547,-53.223,-1000.000,0.000
1737553226.432,-217.285,-60.547,77.637,-1000.000,0.000
1737553226.436,103.027,-176.758,45.410,-1000.000,0.000
1737553226.440,-13.672,-0.977,-52.734,-1000.000,0.000
1737553226.444,-569.336,198.730,0.000,-1000.000,0.000
1737553226.448,-587.891,114.258,31.250,-1000.000,0.000
1737553226.452,-419.434,-10.742,100.586,-1000.000,0.000
1737553226.456,-59.570,-86.426,44.922,-1000.000,0.000
1737553226.460,200.195,-104.980,-112.305,-1000.000,0.000
1737553226.464,-122.070,-8.301,-48.340,-1000.000,0.000
1737553226.467,-237.305,-48.828,59.082,-1000.000,0.000
1737553226.471,10.254,-208.008,2.441,-1000.000,0.000
1737553226.475,-6.348,-61.035,-68.359,-1000.000,0.000
1737553226.479,-320.312,91.797,-31.250,-965.820,0.000
1737553226.483,-139.648,-49.316,26.855,-1000.000,0.000
1737553226.487,104.004,-44.922,-29.297,-914.551,0.000
1737553226.491,205.566,-160.156,-7.324,232.910,0.000
1737553226.495,212.402,-145.996,-38.574,999.512,0.000
1737553226.499,263.184,-40.039,-161.133,928.711,0.000
1737553226.503,363.770,-111.328,-119.629,924.316,0.000
1737553226.507,266.113,-99.121,-67.871,969.727,0.000
1737553226.510,193.848,-63.477,-58.105,974.609,0.000
1737553226.514,152.344,-66.895,-53.223,968.262,0.000
1737553226.518,50.781,-53.711,-18.555,971.191,0.000
1737553226.522,11.719,-30.762,-25.879,970.703,0.000
1737553226.526,115.234,-49.316,-48.340,972.168,0.000
1737553226.530,103.516,-33.203,-35.645,966.797,0.000
1737553226.534,-42.969,-25.879,5.371,963.379,0.000
1737553226.538,68.359,-60.547,2.930,999.512,0.000
1737553226.542,64.453,-25.391,-29.297,710.938,0.000
1737553226.546,11.230,-46.875,-22.949,645.508,0.000
1737553226.549,155.762,-49.805,-50.293,939.941,0.000
1737553226.553,149.414,-20.996,-48.340,999.512,0.000
1737553226.557,66.895,-31.250,-38.574,560.547,0.000
1737553226.561,40.527,-32.715,-33.691,-701.660,0.000
1737553226.565,61.523,-22.461,-19.043,-977.051,0.000
1737553226.569,49.316,-11.230,-17.578,219.727,0.000
1737553226.573,48.828,-6.836,-19.043,999.512,0.000
1737553226.577,47.363,-6.348,-18.066,452.148,0.000
1737553226.581,18.555,-12.207,-20.020,-782.227,0.000
1737553226.585,20.020,-14.160,-22.461,-1000.000,0.000
1737553226.589,27.344,-11.719,-13.184,-210.449,0.000
1737553226.592,25.879,-9.766,-2.930,603.516,0.000
1737553226.596,15.625,-3.418,-0.977,-49.805,0.000
1737553226.600,8.789,-5.859,-2.930,-946.289,0.000
1737553226.604,0.488,-15.137,-4.395,-1000.000,0.000
1737553226.608,4.883,-7.812,-0.488,-935.547,0.000
1737553226.612,18.066,1.953,-1.465,-868.652,0.000
1737553226.616,27.832,6.836,-1.465,-974.609,0.000
1737553226.620,31.250,8.301,-4.883,-995.117,0.000
1737553226.624,27.832,-2.441,-1.465,-1000.000,0.000
1737553226.628,38.574,-8.789,1.953,-870.117,0.000
1737553226.632,41.504,0.000,-4.883,-379.395,0.000
1737553226.635,57.617,3.906,-2.930,-323.730,0.000
1737553226.639,62.988,0.488,-4.395,-825.684,0.000
1737553226.643,73.730,-2.441,-3.418,-1000.000,0.000
1737553226.647,102.051,5.371,6.836,-41.992,0.000
1737553226.651,136.230,11.230,5.371,988.281,0.000
1737553226.655,137.695,2.930,-4.883,956.055,0.000
1737553226.659,99.121,9.766,-5.371,949.707,0.000
1737553226.663,46.875,9.277,20.020,977.539,0.000
1737553226.667,33.691,-11.230,23.926,970.703,0.000
1737553226.671,51.758,-5.859,-6.348,970.703,0.000
1737553226.674,51.270,-3.418,0.977,970.703,0.000
1737553226.678,65.918,-7.324,-2.930,970.703,0.000
1737553226.682,-34.668,16.602,-18.555,970.703,0.000
1737553226.686,-99.609,4.883,-7.324,980.469,0.000
1737553226.690,18.066,-26.855,5.859,935.059,0.000
1737553226.694,16.602,-8.301,4.395,974.121,0.000
1737553226.698,-28.809,-14.648,3.906,984.863,0.000
1737553226.702,-41.504,-28.809,-10.254,-290.527,0.000
1737553226.706,-103.516,9.277,-15.625,-781.738,0.000
1737553226.710,-357.910,106.445,-16.602,652.832,0.000
1737553226.714,-444.336,73.730,7.324,999.512,0.000
1737553226.717,-36.133,-103.027,82.520,0.977,0.000
1737553226.721,67.383,-78.125,64.941,-957.520,0.000
1737553226.725,-225.586,131.348,-32.227,-1000.000,0.000
1737553226.729,-266.602,59.570,-12.695,-975.098,0.000
1737553226.733,-423.340,-5.859,99.121,-1000.000,0.000
1737553226.737,-541.016,77.148,61.523,-1000.000,0.000
1737553226.741,-81.055,-2.441,-106.445,-1000.000,0.000
1737553226.745,58.594,-89.355,-56.641,-1000.000,0.000
1737553226.749,-93.262,-67.871,-0.488,-1000.000,0.000
1737553226.753,-89.844,-94.727,31.250,-1000.000,0.000
1737553226.756,-505.371,61.523,42.969,-1000.000,0.000
1737553226.760,-523.926,73.242,5.371,-997.559,0.000
1737553226.764,26.367,-108.398,-95.215,-1000.000,0.000
1737553226.768,87.891,-91.309,-61.523,-967.285,0.000
1737553226.772,-193.359,-37.109,104.980,-1000.000,0.000
1737553226.776,-131.348,-48.828,14.160,-816.895,0.000
1737553226.780,180.664,-110.840,-172.852,-540.527,0.000
1737553226.784,-218.262,26.855,-42.969,-585.449,0.000
1737553226.788,-22.949,-65.918,64.453,527.832,0.000
1737553226.792,407.227,-151.367,-77.148,999.512,0.000
1737553226.796,137.207,-85.449,-57.129,907.715,0.000
1737553226.799,65.918,-86.914,-24.902,980.957,0.000
1737553226.803,188.965,-45.898,-104.004,970.703,0.000
1737553226.807,125.488,30.762,-120.117,970.703,0.000
1737553226.811,55.664,-32.227,-68.359,970.703,0.000
1737553226.815,128.418,-128.418,-20.996,970.703,0.000
1737553226.819,-83.984,-65.430,34.668,970.703,0.000
1737553226.823,-252.441,58.594,24.414,970.703,0.000
1737553226.827,163.086,-17.090,-77.148,970.703,0.000
1737553226.831,292.480,-123.047,-87.891,970.703,0.000
1737553226.835,-46.875,-45.898,20.508,970.703,0.000
1737553226.839,-58.594,-77.148,45.410,970.703,0.000
1737553226.842,131.348,-62.012,-93.262,970.703,0.000
1737553226.846,122.070,36.621,-97.168,974.121,0.000
1737553226.850,143.555,-49.316,-41.016,954.102,0.000
1737553226.854,142.578,-82.520,-36.133,988.770,0.000
1737553226.858,50.781,-38.574,-22.461,958.008,0.000
1737553226.862,73.730,-35.156,-31.738,552.246,0.000
1737553226.866,92.285,-26.855,-22.949,739.746,0.000
1737553226.870,61.523,-23.926,-17.578,989.746,0.000
1737553226.874,40.039,-27.832,-24.902,974.121,0.000
1737553226.878,31.738,-24.414,-20.020,685.547,0.000
1737553226.881,1.953,-21.484,-12.695,-661.621,0.000
1737553226.885,-0.977,-23.926,-10.254,-746.094,0.000
1737553226.889,30.762,-17.578,-6.348,669.922,0.000
1737553226.893,36.133,-9.766,-9.766,999.512,0.000
1737553226.897,23.438,-8.789,-11.719,688.965,0.000
1737553226.901,-6.836,-17.090,-10.742,-533.691,0.000
1737553226.905,-8.789,-14.648,-8.789,-1000.000,0.000
1737553226.909,9.766,-6.836,-0.488,83.496,0.000
1737553226.913,16.602,-3.906,-0.977,910.156,0.000
1737553226.917,10.742,-12.207,-8.789,310.059,0.000
1737553226.921,-6.836,-13.184,-14.160,-812.500,0.000
1737553226.924,-17.578,-11.719,-11.719,-1000.000,0.000
1737553226.928,-3.418,-16.113,-1.953,-756.348,0.000
1737553226.932,15.137,-12.207,-5.371,-427.246,0.000
1737553226.936,10.742,-0.977,-4.395,-814.453,0.000
1737553226.940,3.906,6.348,-5.859,-1000.000,0.000
1737553226.944,14.160,0.000,-6.348,-974.121,0.000
1737553226.948,6.836,0.977,-2.441,-1000.000,0.000
1737553226.952,6.348,-7.812,0.000,-1000.000,0.000
1737553226.956,30.273,-14.160,7.324,-1000.000,0.000
1737553226.960,-20.020,18.066,-5.859,-976.074,0.000
1737553226.964,-42.480,11.719,-1.465,-1000.000,0.000
1737553226.967,57.129,-9.277,10.254,-876.953,0.000
1737553226.971,115.723,0.977,-7.812,-149.414,0.000
1737553226.975,54.199,17.090,-4.883,354.492,0.000
1737553226.979,-22.949,18.555,-2.930,-30.273,0.000
1737553226.983,-16.113,-14.160,9.766,-500.977,0.000
1737553226.987,52.246,-3.418,6.836,488.770,0.000
1737553226.991,34.668,5.859,-8.301,999.512,0.000
1737553226.995,-11.719,0.977,3.418,940.430,0.000
1737553226.999,-29.297,0.000,20.508,950.195,0.000
1737553227.003,-64.941,23.926,-13.184,555.176,0.000
1737553227.006,-32.715,-4.883,-4.883,755.371,0.000
1737553227.010,-131.348,17.090,24.414,999.512,0.000
1737553227.014,-151.855,64.941,-41.016,903.809,0.000
1737553227.018,-230.957,71.777,3.906,0.000,0.000
1737553227.022,-345.703,25.879,116.699,-974.121,0.000
1737553227.026,-70.801,-59.082,63.477,-999.023,0.000
1737553227.030,-56.641,9.277,-23.438,-976.562,0.000
1737553227.034,-220.703,80.566,-55.664,-1000.000,0.000
1737553227.038,-230.469,28.809,16.113,-1000.000,0.000
1737553227.042,-266.602,-85.449,164.551,-1000.000,0.000
1737553227.046,-78.125,-15.137,-52.246,-1000.000,0.000
1737553227.049,18.066,19.531,-142.578,-1000.000,0.000
1737553227.053,-196.777,-97.168,63.965,-1000.000,0.000
1737553227.057,-315.430,9.277,79.590,-1000.000,0.000
1737553227.061,-124.023,-17.578,-31.738,-971.191,0.000
1737553227.065,-98.633,-14.648,-93.750,-1000.000,0.000
1737553227.069,84.961,-57.617,-101.562,-702.148,0.000
1737553227.073,154.785,-95.703,-29.297,-69.336,0.000
1737553227.077,24.414,-33.203,-8.301,-596.680,0.000
1737553227.081,7.324,-35.156,-32.227,-1000.000,0.000
1737553227.085,-216.797,-37.109,32.715,-1000.000,0.000
1737553227.089,-200.195,0.977,1.953,-508.789,0.000
1737553227.092,12.695,-68.848,-67.871,715.820,0.000
1737553227.096,-3.906,0.977,-100.098,999.512,0.000
1737553227.100,-62.012,67.383,-85.449,-254.395,0.000
1737553227.104,153.320,-117.188,-44.922,-999.512,0.000
1737553227.108,-48.340,8.789,-42.480,201.172,0.000
1737553227.112,-296.875,0.000,13.672,982.910,0.000
1737553227.116,-161.133,-107.422,56.152,990.723,0.000
1737553227.120,-18.066,-26.855,-65.430,610.352,0.000
1737553227.124,-66.895,7.324,-104.980,-67.383,0.000
1737553227.128,-207.520,25.879,-51.758,520.020,0.000
1737553227.131,-156.250,-60.059,-22.461,999.512,0.000
1737553227.135,-238.281,3.906,-50.293,980.469,0.000
1737553227.139,-572.266,81.543,-36.621,15.137,0.000
1737553227.143,-660.645,36.133,54.688,-978.516,0.000
1737553227.147,-145.020,-26.367,-65.430,226.074,0.000
1737553227.151,-58.594,-35.156,-94.238,999.512,0.000
1737553227.155,-90.820,-57.129,-41.016,947.754,0.000
1737553227.159,-5.859,-52.734,-24.414,938.477,0.000
1737553227.163,-184.082,7.812,-10.254,195.801,0.000
1737553227.167,-159.668,42.969,-67.871,441.895,0.000
1737553227.171,62.500,-26.855,-56.641,999.512,0.000
1737553227.174,3.418,-64.453,-18.066,977.051,0.000
1737553227.178,-176.270,-22.949,-20.508,919.922,0.000
1737553227.182,-62.012,-44.922,-25.391,485.840,0.000
1737553227.186,84.473,-45.898,-34.668,750.488,0.000
1737553227.190,69.824,-44.434,2.930,999.512,0.000
1737553227.194,31.250,-17.090,-23.438,960.449,0.000
1737553227.198,-0.977,-0.977,-40.039,968.750,0.000
1737553227.202,-27.344,-21.484,-7.324,276.855,0.000
1737553227.206,28.809,-1.465,-24.414,365.723,0.000
1737553227.210,55.664,-34.668,-7.812,986.328,0.000
1737553227.213,42.480,-53.711,-8.301,953.125,0.000
1737553227.217,111.816,-28.320,-38.086,999.512,0.000
1737553227.221,106.934,-18.555,-21.973,451.660,0.000
1737553227.225,74.219,-20.020,-14.160,150.391,0.000
1737553227.229,78.613,-15.137,-14.648,836.914,0.000
1737553227.233,78.125,-10.254,-8.301,999.512,0.000
1737553227.237,72.754,-7.324,7.324,970.215,0.000
1737553227.241,62.012,-9.277,4.883,36.621,0.000
1737553227.245,62.500,-17.578,-3.418,-682.129,0.000
1737553227.249,90.332,-18.066,-3.418,393.555,0.000
1737553227.253,90.820,-21.484,-4.395,999.512,0.000
1737553227.256,67.383,-17.578,-3.906,497.070,0.000
1737553227.260,49.316,-17.090,-7.812,-671.875,0.000
1737553227.264,47.852,-24.414,-7.812,-1000.000,0.000
1737553227.268,64.453,-15.625,1.465,-382.812,0.000
1737553227.272,73.242,-9.766,1.465,689.941,0.000
1737553227.276,79.102,-7.812,1.465,696.289,0.000
1737553227.280,64.941,-6.836,1.953,-589.844,0.000
1737553227.284,61.523,-16.602,-2.441,-1000.000,0.000
1737553227.288,95.703,-15.137,0.488,-24.902,0.000
1737553227.292,105.469,-8.301,-1.953,944.824,0.000
1737553227.296,96.191,-10.254,-1.465,975.586,0.000
1737553227.299,87.402,-14.648,-5.859,-71.289,0.000
1737553227.303,76.660,-18.555,-6.836,-975.098,0.000
1737553227.307,98.145,-16.602,-0.977,236.816,0.000
1737553227.311,125.488,-12.207,3.906,999.512,0.000
1737553227.315,131.348,-7.812,4.395,940.918,0.000
1737553227.319,130.371,-5.859,0.488,928.223,0.000
1737553227.323,137.695,-7.324,4.883,720.215,0.000
1737553227.327,147.461,-8.789,5.859,895.508,0.000
1737553227.331,131.836,-9.766,6.836,999.512,0.000
1737553227.335,108.887,-11.719,4.395,955.078,0.000
1737553227.338,82.520,-9.766,-5.371,973.633,0.000
1737553227.342,57.617,-0.977,-8.301,970.703,0.000
1737553227.346,64.453,-7.324,-2.930,970.703,0.000
1737553227.350,66.406,-18.066,-2.441,970.703,0.000
1737553227.354,45.898,-16.113,-5.371,970.703,0.000
1737553227.358,32.715,-13.672,-3.418,970.703,0.000
1737553227.362,21.973,-9.766,-0.488,970.703,0.000
1737553227.366,14.648,-5.371,-4.395,970.703,0.000
1737553227.370,7.324,-6.836,-3.418,970.703,0.000
1737553227.374,-4.883,-11.230,-5.371,970.703,0.000
1737553227.378,-20.508,-14.648,-9.766,970.703,0.000
1737553227.381,-39.551,-18.555,-10.742,970.703,0.000
1737553227.385,-40.039,-13.672,-10.254,970.703,0.000
1737553227.389,-47.363,-11.230,-11.719,970.215,0.000
1737553227.393,-61.035,-14.648,-15.625,970.703,0.000
1737553227.397,-59.082,-5.371,-12.207,970.703,0.000
1737553227.401,-66.406,-3.418,-8.301,970.215,0.000
1737553227.405,-65.918,-10.742,-12.695,970.703,0.000
1737553227.409,-66.895,-8.301,-0.488,970.703,0.000
1737553227.413,-80.078,-4.883,3.906,970.703,0.000
1737553227.417,-77.148,-10.742,-9.277,970.703,0.000
1737553227.421,-75.684,-10.254,-13.184,970.703,0.000
1737553227.424,-60.059,-3.418,-3.418,972.168,0.000
1737553227.428,-52.734,-5.859,-4.395,970.703,0.000
1737553227.432,-66.406,-7.324,-4.395,933.594,0.000
1737553227.436,-72.266,-1.953,0.000,999.512,0.000
1737553227.440,-72.266,2.930,0.977,578.125,0.000
1737553227.444,-73.242,3.906,4.883,-162.598,0.000
1737553227.448,-74.707,3.418,10.254,576.172,0.000
1737553227.452,-69.824,3.906,3.906,999.512,0.000
1737553227.456,-78.125,6.836,-1.953,901.855,0.000
1737553227.460,-110.840,0.488,10.254,-63.965,0.000
1737553227.463,-151.855,-7.812,-2.930,-1000.000,0.000
1737553227.467,-155.762,0.977,-8.789,-613.770,0.000
1737553227.471,-151.367,14.648,6.348,574.707,0.000
1737553227.475,-202.637,19.531,-6.348,384.766,0.000
1737553227.479,-252.930,8.789,-28.809,-852.051,0.000
1737553227.483,-291.504,-2.930,-31.738,-1000.000,0.000
1737553227.487,-339.844,-0.488,-27.344,-958.984,0.000
1737553227.491,-370.117,1.953,-31.738,-986.816,0.000
1737553227.495,-399.414,-5.859,-30.762,-984.375,0.000
1737553227.499,-422.852,-2.441,-31.250,-989.258,0.000
1737553227.503,-422.363,-7.812,-33.691,-1000.000,0.000
1737553227.506,-410.645,-10.254,-28.809,-1000.000,0.000
1737553227.510,-376.465,6.348,-21.973,-425.781,0.000
1737553227.514,-375.977,7.324,-26.367,-181.152,0.000
1737553227.518,-390.137,-8.301,-29.297,-795.898,0.000
1737553227.522,-373.535,-3.418,-24.414,-1000.000,0.000
1737553227.526,-347.656,10.742,-18.066,-863.281,0.000
1737553227.530,-336.426,1.465,-22.461,-47.363,0.000
1737553227.534,-319.824,3.906,-27.832,677.734,0.000
1737553227.538,-317.871,2.441,-21.484,147.949,0.000
1737553227.542,-325.195,-19.043,-22.949,-908.203,0.000
1737553227.546,-296.387,-4.395,-21.973,-988.281,0.000
1737553227.549,-251.465,18.555,-20.508,164.551,0.000
1737553227.553,-216.797,-7.324,-20.996,999.512,0.000
1737553227.557,-209.473,0.977,-23.926,531.738,0.000
1737553227.561,-223.145,22.949,-22.949,-773.926,0.000
1737553227.565,-216.309,19.531,-14.160,-1000.000,0.000
1737553227.569,-148.926,26.855,-3.906,394.043,0.000
1737553227.573,-111.816,24.414,-6.348,999.512,0.000
1737553227.577,-115.723,16.113,-16.602,935.059,0.000
1737553227.581,-114.746,2.930,-17.090,-194.824,0.000
1737553227.585,-90.332,-11.719,-18.555,-910.156,0.000
1737553227.588,-32.227,-6.348,-14.648,475.098,0.000
1737553227.592,-1.465,0.977,-8.789,999.512,0.000
1737553227.596,17.578,-9.766,-11.230,952.637,0.000
1737553227.600,28.320,-10.254,-14.648,19.531,0.000
1737553227.604,28.809,-8.789,-13.184,-1000.000,0.000
1737553227.608,67.383,-20.508,-14.648,113.281,0.000
1737553227.612,102.539,-28.809,-20.020,984.375,0.000
1737553227.616,115.723,-19.531,-16.602,999.512,0.000
1737553227.620,120.117,-14.648,-12.695,536.621,0.000
1737553227.624,104.492,-20.996,-10.254,-818.359,0.000
1737553227.628,122.070,-18.555,-11.719,-207.520,0.000
1737553227.631,154.297,-17.090,-16.602,945.801,0.000
1737553227.635,157.227,-26.367,-15.625,999.512,0.000
1737553227.639,148.926,-26.855,-12.207,407.715,0.000
1737553227.643,133.301,-24.414,-14.648,-883.301,0.000
1737553227.647,145.020,-23.926,-13.184,-198.730,0.000
1737553227.651,166.992,-21.484,-11.230,955.078,0.000
1737553227.655,162.598,-25.391,-10.742,999.512,0.000
1737553227.659,144.531,-31.250,-9.766,438.965,0.000
1737553227.663,121.582,-28.809,-12.207,-857.422,0.000
1737553227.667,126.465,-31.738,-13.184,-414.062,0.000
1737553227.671,148.438,-38.574,-10.742,853.027,0.000
1737553227.674,154.785,-36.133,-13.184,999.512,0.000
1737553227.678,126.465,-30.273,-15.137,386.230,0.000
1737553227.682,100.098,-27.832,-13.672,-904.297,0.000
1737553227.686,107.910,-26.855,-14.160,-720.703,0.000
1737553227.690,135.254,-21.973,-10.742,683.105,0.000
1737553227.694,134.277,-13.672,-12.207,999.512,0.000
1737553227.698,112.793,-14.160,-11.719,823.730,0.000
1737553227.702,81.543,-15.137,-13.184,-588.867,0.000
1737553227.706,72.266,-11.230,-15.625,-931.152,0.000
1737553227.710,84.473,5.371,-7.324,612.793,0.000
1737553227.713,71.777,-2.930,-10.742,999.512,0.000
1737553227.717,28.320,-11.719,-15.137,437.012,0.000
1737553227.721,-21.973,-12.695,-25.391,-754.395,0.000
1737553227.725,-68.359,-7.812,-26.367,-1000.000,0.000
1737553227.729,-97.168,7.324,-25.879,-592.285,0.000
1737553227.733,-132.324,9.277,-32.227,-386.230,0.000
1737553227.737,-215.820,-3.418,-31.250,-893.555,0.000
1737553227.741,-272.461,-4.883,-34.668,-1000.000,0.000
1737553227.745,-285.645,1.465,-30.762,-996.582,0.000
1737553227.749,-291.016,4.883,-18.555,-929.688,0.000
1737553227.753,-286.133,-6.836,-8.301,-533.691,0.000
1737553227.756,-272.461,-8.789,-14.648,-652.344,0.000
1737553227.760,-291.992,0.488,-18.555,-970.215,0.000
1737553227.764,-305.176,-4.395,-16.113,-1000.000,0.000
1737553227.768,-285.156,-4.395,-12.207,-486.328,0.000
1737553227.772,-259.277,-8.789,-11.719,571.289,0.000
1737553227.776,-256.836,-6.348,-16.113,627.441,0.000
1737553227.780,-266.602,0.000,-13.184,-526.367,0.000
1737553227.784,-271.484,-3.906,-14.648,-1000.000,0.000
1737553227.788,-233.398,5.859,-14.160,-185.059,0.000
1737553227.792,-189.941,8.789,-9.277,872.070,0.000
1737553227.795,-186.035,6.348,-9.277,999.512,0.000
1737553227.799,-196.777,9.766,-10.742,62.012,0.000
1737553227.803,-200.684,11.719,-6.836,-991.211,0.000
1737553227.807,-167.969,20.020,-10.254,-191.406,0.000
1737553227.811,-145.020,10.254,-13.184,981.934,0.000
1737553227.815,-141.602,-1.465,-14.648,731.445,0.000
1737553227.819,-137.207,8.301,-20.996,-497.559,0.000
1737553227.823,-126.465,15.625,-19.531,-1000.000,0.000
1737553227.827,-104.980,2.930,-10.742,-700.684,0.000
1737553227.831,-76.172,0.000,-10.742,487.305,0.000
1737553227.835,-48.828,10.254,-11.230,999.512,0.000
1737553227.838,-57.129,5.371,-9.277,102.051,0.000
1737553227.842,-69.824,-4.883,-11.230,-1000.000,0.000
1737553227.846,-18.555,-9.277,-11.230,-585.449,0.000
1737553227.850,43.457,-9.766,-5.859,739.746,0.000
1737553227.854,67.871,-6.836,-1.953,999.512,0.000
1737553227.858,62.988,-7.324,-6.836,762.207,0.000
1737553227.862,44.434,-12.207,-13.672,-604.004,0.000
1737553227.866,75.684,-11.719,-6.836,-625.488,0.000
1737553227.870,106.934,-10.742,-6.836,823.242,0.000
1737553227.874,107.422,-19.043,-14.648,999.512,0.000
1737553227.878,141.602,-25.879,-12.207,961.426,0.000
1737553227.881,144.043,-22.949,-9.766,354.980,0.000
1737553227.885,146.484,-24.414,-15.137,-24.902,0.000
1737553227.889,174.805,-22.461,-12.695,799.805,0.000
1737553227.893,174.805,-23.926,-10.742,996.094,0.000
1737553227.897,170.898,-31.250,-13.184,999.512,0.000
1737553227.901,163.574,-32.227,-16.113,200.684,0.000
1737553227.905,144.043,-30.762,-14.648,-700.684,0.000
1737553227.909,175.293,-20.996,-9.277,471.191,0.000
1737553227.913,211.914,-20.508,-10.742,999.512,0.000
1737553227.917,189.453,-27.832,-14.648,925.293,0.000
1737553227.920,164.062,-31.738,-14.648,-108.398,0.000
1737553227.924,164.551,-39.551,-14.160,-1000.000,0.000
1737553227.928,166.016,-37.109,-11.230,212.402,0.000
1737553227.932,169.922,-27.344,-10.254,999.512,0.000
1737553227.936,166.504,-31.250,-11.719,918.945,0.000
1737553227.940,142.578,-40.039,-11.719,-188.477,0.000
1737553227.944,126.953,-32.227,-7.812,-1000.000,0.000
1737553227.948,147.461,-27.832,-8.789,55.176,0.000
1737553227.952,155.762,-28.809,-7.812,952.637,0.000
1737553227.956,141.113,-26.855,-5.371,999.512,0.000
1737553227.960,132.812,-30.273,-11.230,464.355,0.000
1737553227.963,108.887,-37.109,-19.043,-861.328,0.000
1737553227.967,120.605,-35.156,-20.508,-211.914,0.000
1737553227.971,141.602,-34.180,-20.508,940.430,0.000
1737553227.975,126.953,-36.133,-22.461,999.512,0.000
1737553227.979,109.375,-32.227,-16.602,410.156,0.000
1737553227.983,80.566,-33.691,-11.719,-881.836,0.000
1737553227.987,82.031,-31.250,-9.766,-324.219,0.000
1737553227.991,96.680,-26.855,-11.719,902.832,0.000
1737553227.995,84.961,-25.879,-16.113,999.512,0.000
1737553227.999,55.664,-32.227,-20.996,280.273,0.000
1737553228.003,29.785,-26.367,-23.438,-949.219,0.000
1737553228.006,50.781,-26.367,-16.602,-676.758,0.000
1737553228.010,73.242,-22.461,-11.230,707.520,0.000
1737553228.014,40.039,-13.672,-21.973,999.512,0.000
1737553228.018,23.438,-11.719,-21.973,323.730,0.000
1737553228.022,-5.371,-15.137,-24.902,-856.934,0.000
1737553228.026,-47.363,-7.812,-36.133,-1000.000,0.000
1737553228.030,-81.543,0.977,-27.832,16.602,0.000
1737553228.034,-114.746,8.301,-20.020,187.012,0.000
1737553228.038,-157.715,19.531,-51.758,-829.102,0.000
1737553228.042,-203.125,7.812,-47.363,-1000.000,0.000
1737553228.045,-244.629,-5.859,-30.273,-956.543,0.000
1737553228.049,-291.504,-8.301,-25.879,-1000.000,0.000
1737553228.053,-317.871,-4.883,-13.672,-1000.000,0.000
1737553228.057,-313.965,-1.953,-16.113,-1000.000,0.000
1737553228.061,-328.613,4.395,-14.648,-995.605,0.000
1737553228.065,-354.004,10.742,-15.625,-1000.000,0.000
1737553228.069,-331.055,20.020,-16.113,-989.258,0.000
1737553228.073,-306.152,26.855,-11.230,-922.852,0.000
1737553228.077,-317.383,31.738,-14.648,-953.125,0.000
1737553228.081,-307.129,36.621,-18.555,-998.047,0.000
1737553228.085,-280.762,48.340,-9.766,-1000.000,0.000
1737553228.088,-266.602,49.316,-10.254,-94.727,0.000
1737553228.092,-244.629,44.434,-14.648,978.516,0.000
1737553228.096,-234.863,42.969,-9.277,597.168,0.000
1737553228.100,-253.906,38.086,-13.184,-687.012,0.000
1737553228.104,-241.699,28.320,-17.578,-1000.000,0.000
1737553228.108,-205.078,32.715,-23.926,-235.352,0.000
1737553228.112,-179.199,41.016,-23.926,849.121,0.000
1737553228.116,-156.738,37.598,-17.578,820.801,0.000
1737553228.120,-157.227,35.156,-16.113,-306.641,0.000
1737553228.124,-144.043,27.344,-22.949,-1000.000,0.000
1737553228.128,-111.328,21.484,-28.320,-19.531,0.000
1737553228.131,-76.172,26.855,-21.973,940.430,0.000
1737553228.135,-47.852,18.066,-10.742,999.512,0.000
1737553228.139,-45.410,4.883,-10.254,417.480,0.000
1737553228.143,-45.898,-2.441,-18.066,-883.301,0.000
1737553228.147,-14.648,-6.836,-16.113,-351.074,0.000
1737553228.151,24.902,-11.719,-17.578,881.836,0.000
1737553228.155,48.828,-19.043,-22.461,999.512,0.000
1737553228.159,65.918,-23.438,-22.461,777.832,0.000
1737553228.163,68.359,-32.227,-22.461,-373.535,0.000
1737553228.167,86.426,-43.945,-15.137,-343.262,0.000
1737553228.170,120.605,-36.133,-11.719,842.773,0.000
1737553228.174,129.395,-29.785,-12.207,999.512,0.000
1737553228.178,133.301,-34.180,-9.766,784.180,0.000
1737553228.182,125.488,-41.504,-10.742,-367.676,0.000
1737553228.186,126.465,-41.016,-7.812,-519.531,0.000
1737553228.190,155.273,-27.832,-4.883,749.512,0.000
1737553228.194,169.434,-32.227,-12.207,999.512,0.000
1737553228.198,164.062,-41.504,-11.230,868.164,0.000
1737553228.202,134.766,-43.457,-8.301,-428.223,0.000
1737553228.206,133.789,-44.434,-5.859,-915.527,0.000
1737553228.210,166.504,-41.992,-2.930,541.504,0.000
1737553228.213,175.293,-42.969,-7.324,999.512,0.000
1737553228.217,163.086,-46.875,-4.395,887.695,0.000
1737553228.221,139.648,-48.828,2.930,-352.539,0.000
1737553228.225,147.949,-44.922,9.766,-896.973,0.000
1737553228.229,164.062,-46.875,6.836,543.457,0.000
1737553228.233,148.926,-54.199,0.000,999.512,0.000
1737553228.237,134.766,-48.828,1.465,763.184,0.000
1737553228.241,107.422,-51.270,-0.488,-505.859,0.000
1737553228.245,103.027,-59.570,0.488,-1000.000,0.000
1737553228.249,130.859,-56.641,-2.930,232.422,0.000
1737553228.252,137.207,-49.316,-6.348,999.512,0.000
1737553228.256,122.070,-52.246,-3.906,895.508,0.000
1737553228.260,101.074,-55.176,-7.812,-186.523,0.000
1737553228.264,93.262,-44.922,-11.719,-1000.000,0.000
1737553228.268,115.234,-40.039,-8.301,86.426,0.000
1737553228.272,116.211,-32.715,-3.418,983.398,0.000
1737553228.276,96.191,-30.762,-7.812,982.910,0.000
1737553228.280,76.660,-41.504,-14.648,203.613,0.000
1737553228.284,60.059,-46.387,-19.531,-961.426,0.000
1737553228.288,74.707,-40.039,-19.043,-260.254,0.000
1737553228.292,97.656,-34.180,-10.254,878.418,0.000
1737553228.295,98.145,-33.203,-7.812,999.512,0.000
1737553228.299,76.172,-36.133,-16.602,464.844,0.000
1737553228.303,38.574,-40.039,-21.484,-875.000,0.000
1737553228.307,36.621,-39.551,-19.043,-487.305,0.000
1737553228.311,67.871,-35.645,-12.207,843.262,0.000
1737553228.315,68.359,-30.273,-9.766,999.512,0.000
1737553228.319,36.133,-32.715,-14.648,276.367,0.000
1737553228.323,27.832,-40.527,-20.020,-937.500,0.000
1737553228.327,51.758,-35.156,-15.625,-717.773,0.000
1737553228.331,73.730,-30.273,-10.742,658.691,0.000
1737553228.335,64.941,-33.203,-10.254,999.512,0.000
1737553228.338,39.062,-34.668,-12.207,480.957,0.000
1737553228.342,19.531,-41.016,-14.648,-848.145,0.000
1737553228.346,29.785,-39.551,-19.043,-836.914,0.000
1737553228.350,48.828,-38.574,-28.320,597.168,0.000
1737553228.354,44.434,-39.062,-23.438,999.512,0.000
1737553228.358,30.273,-34.180,-11.230,552.246,0.000
1737553228.362,0.488,-35.645,-10.254,-776.855,0.000
1737553228.366,4.883,-32.715,-11.230,-874.512,0.000
1737553228.370,33.203,-25.391,-13.672,588.379,0.000
1737553228.374,31.738,-29.297,-13.184,999.512,0.000
1737553228.377,22.949,-32.715,-15.137,491.211,0.000
1737553228.381,-5.859,-43.457,-24.902,-770.020,0.000
1737553228.385,0.000,-42.969,-20.996,-1000.000,0.000
1737553228.389,21.484,-24.414,-10.742,342.773,0.000
1737553228.393,19.531,-19.531,-11.230,999.512,0.000
1737553228.397,1.953,-25.391,-11.230,481.445,0.000
1737553228.401,-20.020,-27.344,-10.254,-737.793,0.000
1737553228.405,-23.926,-25.879,-18.066,-1000.000,0.000
1737553228.409,-1.953,-24.414,-20.508,-67.871,0.000
1737553228.413,25.879,-20.508,-13.184,962.891,0.000
1737553228.417,10.742,-21.973,-20.508,703.125,0.000
1737553228.420,-13.184,-25.391,-25.391,-590.332,0.000
1737553228.424,-16.113,-26.367,-22.461,-1000.000,0.000
1737553228.428,5.859,-30.762,-16.602,-346.680,0.000
1737553228.432,28.809,-23.438,-11.719,840.332,0.000
1737553228.436,17.090,-12.207,-10.254,550.293,0.000
1737553228.440,-4.395,-15.137,-18.555,-734.863,0.000
1737553228.444,-0.977,-16.113,-20.020,-1000.000,0.000
1737553228.448,16.602,-8.789,-11.230,-427.246,0.000
1737553228.452,35.156,-6.348,-8.789,809.082,0.000
1737553228.456,22.461,-12.695,-3.906,666.992,0.000
1737553228.460,-1.953,-12.207,-5.371,-655.762,0.000
1737553228.463,0.488,-11.230,-12.207,-1000.000,0.000
1737553228.467,12.207,-20.020,-7.812,-517.578,0.000
1737553228.471,23.438,-18.555,-3.906,608.398,0.000
1737553228.475,9.766,-16.602,-6.836,622.070,0.000
1737553228.479,-24.414,-20.020,-13.184,-507.812,0.000
1737553228.483,-36.621,-20.020,-14.648,-1000.000,0.000
1737553228.487,-20.996,-21.973,-18.555,-745.117,0.000
1737553228.491,-6.348,-23.926,-24.902,443.359,0.000
1737553228.495,-5.371,-25.391,-25.879,999.512,0.000
1737553228.499,-14.160,-35.156,-25.391,20.020,0.000
1737553228.502,-24.902,-36.133,-22.461,-1000.000,0.000
1737553228.506,-16.113,-19.531,-18.555,-668.945,0.000
1737553228.510,-2.441,-12.207,-23.438,662.598,0.000
1737553228.514,-6.836,-14.648,-21.484,999.512,0.000
1737553228.518,-17.578,-16.602,-17.578,251.953,0.000
1737553228.522,-33.691,-21.973,-16.113,-895.020,0.000
1737553228.526,-27.344,-24.414,-14.648,-935.059,0.000
1737553228.530,-0.977,-23.438,-11.719,414.551,0.000
1737553228.534,-3.418,-28.809,-10.254,999.512,0.000
1737553228.538,-18.555,-34.180,-13.672,162.598,0.000
1737553228.542,-29.785,-30.762,-16.602,-892.090,0.000
1737553228.545,-32.715,-26.855,-11.719,-1000.000,0.000
1737553228.549,-14.648,-25.879,-6.836,35.156,0.000
1737553228.553,5.859,-21.484,-8.301,999.512,0.000
1737553228.557,-7.812,-31.250,-13.184,516.602,0.000
1737553228.561,-36.621,-41.016,-15.137,-803.223,0.000
1737553228.565,-33.203,-29.785,-8.301,-1000.000,0.000
1737553228.569,-6.836,-22.461,-7.812,143.555,0.000
1737553228.573,7.324,-29.297,-14.160,999.512,0.000
1737553228.577,-7.324,-24.902,-7.324,375.488,0.000
1737553228.581,-37.109,-19.043,-8.301,-782.715,0.000
1737553228.585,-62.500,-45.410,-23.926,-1000.000,0.000
1737553228.588,-63.965,-37.598,-21.484,-712.402,0.000
1737553228.592,-87.891,-20.020,-15.625,-280.762,0.000
1737553228.596,-148.926,-21.973,-15.625,-737.305,0.000
1737553228.600,-165.527,-24.414,-20.020,-1000.000,0.000
1737553228.604,-172.363,-18.555,-20.996,-970.703,0.000
1737553228.608,-231.934,-14.648,-21.973,-1000.000,0.000
1737553228.612,-313.965,-11.719,-21.484,-1000.000,0.000
1737553228.616,-374.512,-13.184,-23.438,-1000.000,0.000
1737553228.620,-396.484,-10.254,-30.273,-996.094,0.000
1737553228.624,-405.762,-6.836,-27.832,-1000.000,0.000
1737553228.627,-406.250,-5.371,-24.414,-998.047,0.000
1737553228.631,-384.766,-0.977,-21.484,-891.113,0.000
1737553228.635,-372.559,7.812,-14.648,-942.383,0.000
1737553228.639,-373.535,0.488,-9.277,-965.332,0.000
1737553228.643,-364.746,5.859,-18.066,-1000.000,0.000
1737553228.647,-333.008,32.715,-25.879,-611.328,0.000
1737553228.651,-301.758,29.785,-27.344,736.816,0.000
1737553228.655,-305.664,26.855,-32.227,939.453,0.000
1737553228.659,-300.781,34.180,-27.344,-63.965,0.000
1737553228.663,-294.922,41.016,-18.555,-1000.000,0.000
1737553228.667,-275.391,57.617,-15.625,-681.641,0.000
1737553228.670,-233.887,55.176,-18.066,665.527,0.000
1737553228.674,-224.609,46.387,-24.902,999.512,0.000
1737553228.678,-219.238,46.387,-19.043,632.812,0.000
1737553228.682,-217.285,38.086,-19.043,-751.465,0.000
1737553228.686,-199.707,48.340,-28.320,-808.594,0.000
1737553228.690,-153.809,47.852,-30.273,696.777,0.000
1737553228.694,-139.160,31.250,-31.250,999.512,0.000
1737553228.698,-145.020,40.039,-27.344,961.914,0.000
1737553228.702,-165.039,47.363,-19.043,-67.871,0.000
1737553228.706,-163.086,49.316,-20.020,-682.617,0.000
1737553228.709,-110.840,48.828,-23.926,653.320,0.000
1737553228.713,-87.402,38.086,-28.320,999.512,0.000
1737553228.717,-90.820,20.020,-24.902,950.684,0.000
1737553228.721,-94.238,14.160,-21.973,344.238,0.000
1737553228.725,-71.289,7.324,-25.391,112.793,0.000
1737553228.729,-31.738,10.742,-19.531,902.832,0.000
1737553228.733,-18.555,18.555,-17.578,977.051,0.000
1737553228.737,-5.859,9.766,-20.020,999.512,0.000
1737553228.741,13.184,0.000,-21.973,660.156,0.000
1737553228.745,37.598,-0.977,-18.066,143.066,0.000
1737553228.749,70.312,-5.859,-9.766,767.090,0.000
1737553228.752,92.285,-14.160,-15.625,999.512,0.000
1737553228.756,109.375,-19.043,-16.602,999.512,0.000
1737553228.760,126.465,-15.137,-11.230,591.309,0.000
1737553228.764,141.113,-20.996,-12.207,-303.711,0.000
1737553228.768,169.434,-20.996,-9.277,494.141,0.000
1737553228.772,173.828,-20.508,-9.277,999.512,0.000
1737553228.776,169.922,-29.785,-9.766,987.305,0.000
1737553228.780,177.246,-32.227,-4.395,532.715,0.000
1737553228.784,171.387,-34.668,-6.836,-817.871,0.000
1737553228.788,188.477,-31.738,-6.348,-152.832,0.000
1737553228.792,206.543,-30.762,-5.371,972.656,0.000
1737553228.795,204.590,-35.156,-6.836,999.512,0.000
1737553228.799,194.824,-35.645,-5.371,522.949,0.000
1737553228.803,166.016,-40.527,-11.719,-822.266,0.000
1737553228.807,174.805,-39.551,-9.766,-356.445,0.000
1737553228.811,189.941,-32.227,-11.230,880.371,0.000
1737553228.815,183.105,-31.738,-13.184,999.512,0.000
1737553228.819,182.129,-33.691,-9.277,839.844,0.000
1737553228.823,152.344,-31.738,-10.254,-520.996,0.000
1737553228.827,131.836,-32.715,-5.859,-772.461,0.000
1737553228.831,146.484,-34.668,-9.766,671.875,0.000
1737553228.834,124.512,-33.203,-17.090,999.512,0.000
1737553228.838,101.562,-35.156,-3.418,491.211,0.000
1737553228.842,44.922,-24.902,-17.578,-757.812,0.000
1737553228.846,-26.855,-29.785,-28.320,-1000.000,0.000
1737553228.850,-56.641,-2.930,-37.598,-578.125,0.000
1737553228.854,-107.910,19.531,-41.992,-349.609,0.000
1737553228.858,-142.090,-7.324,-23.926,-864.258,0.000
1737553228.862,-167.969,-20.996,-22.949,-1000.000,0.000
1737553228.866,-208.496,-19.043,-9.277,-972.168,0.000
1737553228.870,-247.559,-17.090,-10.254,-1000.000,0.000
1737553228.874,-276.855,-25.391,-13.672,-1000.000,0.000
1737553228.877,-279.297,-18.555,-2.441,-989.258,0.000
1737553228.881,-261.719,3.418,-9.766,-977.051,0.000
1737553228.885,-249.023,7.812,-17.090,-1000.000,0.000
1737553228.889,-245.605,17.090,-17.578,-353.027,0.000
1737553228.893,-232.422,24.902,-4.883,701.172,0.000
1737553228.897,-237.305,22.949,-6.836,494.629,0.000
1737553228.901,-240.723,27.832,-20.508,-759.766,0.000
1737553228.905,-229.492,28.809,-18.066,-912.598,0.000
1737553228.909,-200.684,34.668,-11.230,564.941,0.000
1737553228.913,-182.129,26.367,-12.695,999.512,0.000
1737553228.917,-170.898,22.949,-17.090,983.398,0.000
1737553228.920,-162.598,31.250,-20.020,185.059,0.000
1737553228.924,-167.480,29.785,-18.555,-867.676,0.000
1737553228.928,-124.512,30.762,-15.625,377.441,0.000
1737553228.932,-81.055,35.645,-20.020,999.512,0.000
1737553228.936,-82.520,25.391,-26.855,961.426,0.000
1737553228.940,-77.637,19.531,-20.508,782.715,0.000
1737553228.944,-65.430,15.137,-14.160,133.301,0.000
1737553228.948,-29.785,7.324,-10.742,689.453,0.000
1737553228.952,2.930,6.836,-2.930,999.512,0.000
1737553228.956,18.555,3.906,-4.883,986.816,0.000
1737553228.959,24.902,-5.859,-15.625,747.559,0.000
1737553228.963,35.156,-19.043,-15.625,-469.238,0.000
1737553228.967,81.055,-22.461,-7.812,-41.016,0.000
1737553228.971,121.582,-27.344,-9.277,954.590,0.000
1737553228.975,128.906,-30.762,-10.254,999.512,0.000
1737553228.979,130.371,-36.621,-11.719,830.566,0.000
1737553228.983,116.211,-50.293,-14.648,-526.855,0.000
1737553228.987,131.348,-46.875,-16.113,-414.551,0.000
1737553228.991,165.039,-40.527,-10.742,877.930,0.000
1737553228.995,181.152,-42.480,-3.906,999.512,0.000
1737553228.999,189.453,-43.457,-5.859,879.883,0.000
1737553229.002,169.434,-44.434,-9.277,-24.414,0.000
1737553229.006,170.410,-41.016,-7.324,53.711,0.000
1737553229.010,193.848,-35.645,-3.906,921.875,0.000
1737553229.014,186.035,-43.945,-5.371,989.258,0.000
1737553229.018,176.758,-45.410,-4.395,945.801,0.000
1737553229.022,154.297,-45.898,-8.789,-144.531,0.000
1737553229.026,145.508,-47.363,-6.348,-459.473,0.000
1737553229.030,171.387,-48.828,2.441,761.719,0.000
1737553229.034,165.527,-50.293,-1.465,999.512,0.000
1737553229.038,157.715,-41.992,-2.441,941.406,0.000
1737553229.042,139.648,-42.480,-2.930,-115.234,0.000
1737553229.045,119.141,-47.363,-7.324,-958.008,0.000
1737553229.049,135.254,-45.410,-6.836,282.227,0.000
1737553229.053,142.578,-45.410,-7.812,999.512,0.000
1737553229.057,125.977,-48.828,-11.230,816.895,0.000
1737553229.061,105.469,-49.316,-12.207,-371.094,0.000
1737553229.065,91.309,-46.387,-10.254,-996.582,0.000
1737553229.069,110.352,-32.715,-13.672,375.488,0.000
1737553229.073,126.465,-23.438,-9.766,999.512,0.000
1737553229.077,103.516,-23.926,-0.488,944.336,0.000
1737553229.081,67.383,-30.762,-3.906,204.590,0.000
1737553229.084,25.391,-35.156,-16.113,-973.145,0.000
1737553229.088,2.441,-35.156,-22.949,-544.922,0.000
1737553229.092,1.465,-22.461,-16.602,765.137,0.000
1737553229.096,-48.340,-13.672,-19.043,430.176,0.000
1737553229.100,-125.000,-12.695,-27.344,-837.402,0.000
1737553229.104,-165.527,2.930,-36.621,-1000.000,0.000
1737553229.108,-224.609,6.348,-43.945,-919.434,0.000
1737553229.112,-266.113,0.488,-30.762,-409.180,0.000
1737553229.116,-276.855,-10.742,-17.578,-310.547,0.000
1737553229.120,-292.480,-21.973,-21.484,-851.562,0.000
1737553229.124,-305.664,-13.184,-22.461,-1000.000,0.000
1737553229.127,-293.945,-7.324,-17.578,-740.234,0.000
1737553229.131,-260.254,-6.348,-22.461,478.516,0.000
1737553229.135,-247.070,-8.301,-26.367,999.512,0.000
1737553229.139,-243.652,-9.766,-22.949,311.035,0.000
1737553229.143,-249.512,-7.812,-25.879,-924.316,0.000
1737553229.147,-231.934,-5.859,-25.391,-341.309,0.000
1737553229.151,-198.242,-16.113,-14.160,874.512,0.000
1737553229.155,-179.688,-20.508,-10.254,999.512,0.000
1737553229.159,-163.574,-8.789,-13.672,820.801,0.000
1737553229.163,-166.504,0.488,-16.113,-417.969,0.000
1737553229.167,-157.715,-2.441,-13.672,-460.449,0.000
1737553229.170,-111.816,-11.230,-15.137,807.129,0.000
1737553229.174,-83.496,-21.973,-21.484,999.512,0.000
1737553229.178,-75.195,-24.902,-22.949,839.355,0.000
1737553229.182,-68.848,-14.648,-20.020,-509.277,0.000
1737553229.186,-47.852,-9.277,-15.625,-901.367,0.000
1737553229.190,-10.254,-13.184,-14.160,576.660,0.000
1737553229.194,16.602,-17.090,-16.602,999.512,0.000
1737553229.198,26.367,-19.043,-17.090,765.625,0.000
1737553229.202,14.160,-25.391,-19.043,-564.453,0.000
1737553229.206,22.949,-31.738,-20.996,-968.750,0.000
1737553229.209,66.406,-23.926,-14.648,537.598,0.000
1737553229.213,87.402,-23.926,-16.113,999.512,0.000
1737553229.217,93.750,-31.250,-23.926,962.402,0.000
1737553229.221,91.797,-33.691,-24.414,8.789,0.000
1737553229.225,88.867,-30.762,-20.020,-869.141,0.000
1737553229.229,122.559,-26.367,-12.695,430.664,0.000
1737553229.233,135.742,-27.832,-9.766,999.512,0.000
1737553229.237,124.512,-25.391,-14.648,953.613,0.000
1737553229.241,101.074,-28.809,-16.113,34.180,0.000
1737553229.245,91.797,-31.250,-14.160,-932.129,0.000
1737553229.249,123.047,-25.391,-11.230,323.730,0.000
1737553229.252,136.719,-28.809,-14.648,999.512,0.000
1737553229.256,128.418,-32.715,-16.113,979.004,0.000
1737553229.260,124.023,-37.109,-14.160,513.184,0.000
1737553229.264,104.004,-42.480,-13.672,-809.082,0.000
1737553229.268,115.723,-33.203,-8.301,-211.426,0.000
1737553229.272,138.184,-24.902,-0.977,939.453,0.000
1737553229.276,131.348,-27.832,-2.930,999.512,0.000
1737553229.280,117.676,-30.273,-6.836,243.652,0.000
1737553229.284,96.680,-33.203,-4.883,-946.289,0.000
1737553229.288,111.816,-25.879,-5.859,-251.465,0.000
1737553229.292,134.766,-23.438,-6.348,902.832,0.000
1737553229.295,122.070,-28.320,-5.859,999.512,0.000
1737553229.299,97.168,-30.273,-4.883,318.848,0.000
1737553229.303,71.777,-27.344,-1.465,-933.594,0.000
1737553229.307,86.914,-21.973,-1.953,-417.480,0.000
1737553229.311,111.816,-25.879,-5.859,838.867,0.000
1737553229.315,100.586,-33.691,-5.371,999.512,0.000
1737553229.319,83.984,-31.250,-5.371,580.566,0.000
1737553229.323,65.430,-24.902,-5.859,-768.066,0.000
1737553229.327,65.430,-25.391,-8.789,-564.941,0.000
1737553229.331,80.566,-29.785,-9.277,824.219,0.000
1737553229.334,79.590,-25.391,-8.789,999.512,0.000
1737553229.338,79.590,-21.973,-12.695,956.543,0.000
1737553229.342,49.805,-31.738,-13.672,-48.828,0.000
1737553229.346,38.574,-31.738,-6.348,-483.398,0.000
1737553229.350,59.082,-25.879,-3.418,718.262,0.000
1737553229.354,52.734,-26.855,-4.883,999.512,0.000
1737553229.358,45.410,-32.227,-6.348,870.605,0.000
1737553229.362,31.738,-34.668,-9.766,-344.238,0.000
1737553229.366,21.484,-38.086,-16.113,-896.484,0.000
1737553229.370,41.016,-40.527,-16.602,532.227,0.000
1737553229.374,54.688,-37.598,-7.812,999.512,0.000
1737553229.377,46.875,-35.156,-3.418,772.461,0.000
1737553229.381,15.137,-32.715,-7.324,-501.465,0.000
1737553229.385,4.395,-33.203,-4.395,-1000.000,0.000
1737553229.389,27.832,-30.762,-0.977,209.473,0.000
1737553229.393,42.969,-27.832,-4.883,999.512,0.000
1737553229.397,33.203,-29.297,-8.301,889.648,0.000
1737553229.401,3.906,-34.180,-11.719,-314.453,0.000
1737553229.405,-4.883,-33.691,-9.277,-1000.000,0.000
1737553229.409,18.555,-25.879,-5.371,-62.988,0.000
1737553229.413,35.156,-18.066,-2.930,993.652,0.000
1737553229.416,24.902,-20.020,-5.371,790.527,0.000
1737553229.420,3.418,-23.438,-7.324,-488.281,0.000
1737553229.424,-0.977,-17.090,-3.418,-1000.000,0.000
1737553229.428,23.926,-19.043,-4.395,-275.391,0.000
1737553229.432,36.133,-20.508,-5.859,859.863,0.000
1737553229.436,23.926,-20.508,-2.930,892.578,0.000
1737553229.440,5.859,-28.320,-6.836,-249.512,0.000
1737553229.444,-14.160,-26.855,-12.695,-1000.000,0.000
1737553229.448,10.254,-17.578,-11.230,-155.762,0.000
1737553229.452,27.344,-21.484,-13.672,930.176,0.000
1737553229.456,17.090,-25.879,-11.719,936.523,0.000
1737553229.459,2.441,-23.926,-6.348,-61.523,0.000
1737553229.463,-13.184,-20.508,-6.836,-1000.000,0.000
1737553229.467,-6.348,-14.160,-7.324,-688.965,0.000
1737553229.471,17.090,-9.277,-9.766,644.531,0.000
1737553229.475,20.996,-10.742,-7.812,907.227,0.000
1737553229.479,-0.977,-12.695,-5.371,-179.199,0.000
1737553229.483,-17.578,-16.602,-15.137,-997.070,0.000
1737553229.487,-4.883,-19.531,-21.484,-839.355,0.000
1737553229.491,9.277,-19.531,-20.996,421.875,0.000
1737553229.495,6.836,-18.066,-21.484,937.988,0.000
1737553229.499,-4.883,-20.020,-21.973,-220.215,0.000
1737553229.502,-22.461,-22.461,-22.949,-1000.000,0.000
1737553229.506,-15.625,-19.043,-21.484,-876.953,0.000
1737553229.510,4.883,-16.602,-15.137,213.867,0.000
1737553229.514,4.883,-15.625,-12.695,999.512,0.000
1737553229.518,-7.324,-23.926,-12.695,407.715,0.000
1737553229.522,-28.809,-31.250,-16.113,-846.191,0.000
1737553229.526,-24.414,-24.902,-19.531,-1000.000,0.000
1737553229.530,-1.465,-16.602,-11.719,188.477,0.000
1737553229.534,13.672,-12.695,-11.719,999.512,0.000
1737553229.538,13.672,-15.137,-13.672,830.566,0.000
1737553229.541,-5.859,-20.996,-9.277,-407.227,0.000
1737553229.545,-13.184,-15.625,-7.812,-1000.000,0.000
1737553229.549,7.812,-12.695,-4.395,205.078,0.000
1737553229.553,15.137,-18.066,-6.348,996.582,0.000
1737553229.557,5.371,-19.531,-7.812,997.559,0.000
1737553229.561,-12.207,-20.020,-6.836,191.895,0.000
1737553229.565,-33.691,-24.414,-11.230,-916.992,0.000
1737553229.569,-15.137,-18.555,-11.230,113.770,0.000
1737553229.573,6.836,-12.207,-10.742,999.512,0.000
1737553229.577,5.859,-16.113,-9.277,993.164,0.000
1737553229.581,-3.418,-15.137,-0.977,362.305,0.000
1737553229.584,-17.578,-18.066,-3.906,-874.512,0.000
1737553229.588,-5.371,-23.438,-7.812,-136.230,0.000
1737553229.592,6.836,-19.043,-5.371,993.164,0.000
1737553229.596,3.418,-19.531,-5.371,950.684,0.000
1737553229.600,-4.883,-21.484,-2.930,-25.879,0.000
