timestamps,TP9,AF7,AF8,TP10,Right AUX
1737550313.838,120.117,-20.020,-17.090,894.043,0.000
1737550313.842,-25.391,-20.996,-25.879,-235.840,0.000
1737550313.846,-144.531,-32.715,-27.832,-1000.000,0.000
1737550313.850,-8.301,-30.273,-20.508,-496.582,0.000
1737550313.854,148.926,-19.531,-12.695,845.703,0.000
1737550313.857,144.043,-18.066,-12.695,990.723,0.000
1737550313.861,19.043,-13.672,-18.066,-166.992,0.000
1737550313.865,-97.656,-29.297,-15.137,-1000.000,0.000
1737550313.869,-100.586,-37.598,-14.648,-772.461,0.000
1737550313.873,41.016,-20.020,-8.789,464.355,0.000
1737550313.877,163.574,-9.277,-17.578,999.512,0.000
1737550313.881,37.109,-13.672,-23.438,28.320,0.000
1737550313.885,-113.770,-18.555,-13.184,-1000.000,0.000
1737550313.889,-122.070,-26.367,-15.625,-913.574,0.000
1737550313.893,-6.836,-27.832,-22.461,272.461,0.000
1737550313.896,60.547,-10.254,-32.715,999.512,0.000
1737550313.900,-44.922,-14.648,-37.109,90.332,0.000
1737550313.904,-202.637,-23.438,-21.973,-1000.000,0.000
1737550313.908,-246.582,-16.602,-10.742,-983.398,0.000
1737550313.912,-127.930,-19.531,-6.348,128.906,0.000
1737550313.916,-50.781,-18.555,-6.348,999.512,0.000
1737550313.920,-167.969,-22.949,-17.090,86.426,0.000
1737550313.924,-330.566,-32.227,-24.414,-1000.000,0.000
1737550313.928,-436.035,-14.648,-29.297,-1000.000,0.000
1737550313.932,-323.242,-3.906,-16.113,-2.930,0.000
1737550313.936,-188.477,-9.766,-13.672,999.512,0.000
1737550313.939,-292.969,-11.230,-21.484,464.844,0.000
1737550313.943,-477.539,-12.695,-23.438,-793.945,0.000
1737550313.947,-555.664,-17.578,-16.602,-1000.000,0.000
1737550313.951,-435.547,-10.254,-2.930,23.926,0.000
1737550313.955,-315.430,-6.836,-4.395,999.512,0.000
1737550313.959,-400.391,-27.832,-16.602,432.617,0.000
1737550313.963,-552.246,-34.180,-23.438,-819.336,0.000
1737550313.967,-593.750,-14.648,-13.184,-1000.000,0.000
1737550313.971,-472.168,-7.324,-10.254,-41.016,0.000
1737550313.975,-348.145,-3.906,-20.508,999.512,0.000
1737550313.979,-389.160,-13.184,-17.090,652.344,0.000
1737550313.982,-501.465,-23.438,-18.555,-506.348,0.000
1737550313.986,-590.820,-25.879,-5.859,-1000.000,0.000
1737550313.990,-538.574,-32.227,-13.672,-285.156,0.000
1737550313.994,-372.559,-22.949,-33.203,966.797,0.000
1737550313.998,-322.754,-7.812,-12.207,972.656,0.000
1737550314.002,-432.129,-8.301,-5.859,-11.719,0.000
1737550314.006,-575.195,-18.066,-17.578,-1000.000,0.000
1737550314.010,-520.508,-18.555,-19.531,-564.941,0.000
1737550314.014,-343.262,-13.672,-21.973,861.328,0.000
1737550314.018,-357.422,-20.508,-16.602,794.922,0.000
1737550314.021,-473.633,-33.203,-23.438,-454.590,0.000
1737550314.025,-479.004,-36.133,-41.016,-1000.000,0.000
1737550314.029,-427.734,-28.809,-33.203,-591.797,0.000
1737550314.033,-298.340,-18.555,-38.574,700.195,0.000
1737550314.037,-231.934,-20.020,-38.086,999.512,0.000
1737550314.041,-335.938,-27.344,-35.645,4.883,0.000
1737550314.045,-463.867,-29.297,-29.785,-1000.000,0.000
1737550314.049,-428.223,-19.043,-25.391,-634.766,0.000
1737550314.053,-266.602,-17.578,-31.250,667.480,0.000
1737550314.057,-165.527,-20.996,-24.414,999.512,0.000
1737550314.061,-236.328,-23.926,-23.438,235.840,0.000
1737550314.064,-375.488,-27.344,-25.391,-958.008,0.000
1737550314.068,-409.180,-22.461,-24.414,-927.246,0.000
1737550314.072,-262.695,-18.066,-17.090,290.527,0.000
1737550314.076,-142.090,-10.742,-14.160,999.512,0.000
1737550314.080,-210.938,-10.742,-20.996,296.387,0.000
1737550314.084,-336.426,-18.555,-31.250,-963.867,0.000
1737550314.088,-357.422,-24.902,-25.879,-927.246,0.000
1737550314.092,-205.566,-24.902,-15.625,311.523,0.000
1737550314.096,-99.609,-20.508,-14.160,999.512,0.000
1737550314.100,-144.531,-13.672,-10.742,678.223,0.000
1737550314.103,-266.602,-16.113,-20.508,-488.770,0.000
1737550314.107,-356.934,-35.156,-18.555,-1000.000,0.000
1737550314.111,-227.051,-29.785,-11.719,16.602,0.000
1737550314.115,-77.637,-9.277,-19.531,999.512,0.000
1737550314.119,-92.773,-11.719,-19.531,720.703,0.000
1737550314.123,-213.379,-21.973,-20.020,-429.199,0.000
1737550314.127,-325.195,-25.879,-25.391,-1000.000,0.000
1737550314.131,-202.148,-22.949,-28.809,-117.676,0.000
1737550314.135,-62.012,-24.902,-26.855,999.512,0.000
1737550314.139,-71.777,-21.484,-16.113,827.148,0.000
1737550314.143,-176.758,-14.160,-20.996,-274.902,0.000
1737550314.146,-308.105,-23.438,-31.250,-1000.000,0.000
1737550314.150,-194.824,-23.438,-27.832,-221.680,0.000
1737550314.154,-41.992,-13.672,-28.320,999.512,0.000
1737550314.158,-91.797,-16.602,-29.297,621.582,0.000
1737550314.162,-210.938,-25.879,-33.203,-584.473,0.000
1737550314.166,-284.668,-27.832,-26.855,-1000.000,0.000
1737550314.170,-245.605,-23.438,-18.066,-399.414,0.000
1737550314.174,-102.539,-17.090,-18.066,875.977,0.000
1737550314.178,-8.789,-17.090,-20.508,999.512,0.000
1737550314.182,-116.699,-20.996,-11.230,131.836,0.000
1737550314.186,-291.504,-15.625,-13.672,-1000.000,0.000
1737550314.189,-243.652,-10.742,-30.273,-522.461,0.000
1737550314.193,-83.496,-19.043,-26.367,854.492,0.000
1737550314.197,-41.992,-23.438,-24.414,984.375,0.000
1737550314.201,-138.672,-26.367,-27.344,-103.027,0.000
1737550314.205,-258.789,-32.227,-38.086,-1000.000,0.000
1737550314.209,-215.332,-23.926,-36.621,-751.953,0.000
1737550314.213,-38.574,-10.254,-24.902,513.672,0.000
1737550314.217,39.551,-7.324,-20.508,999.512,0.000
1737550314.221,-52.734,-20.508,-13.672,112.305,0.000
1737550314.225,-185.547,-25.879,-16.602,-1000.000,0.000
1737550314.228,-173.340,-17.090,-18.555,-748.535,0.000
1737550314.232,-23.926,-10.742,-17.578,537.598,0.000
1737550314.236,62.988,-5.859,-20.996,999.512,0.000
1737550314.240,-16.113,-10.254,-20.020,184.570,0.000
1737550314.244,-165.039,-22.949,-24.414,-1000.000,0.000
1737550314.248,-178.223,-23.926,-25.879,-951.660,0.000
1737550314.252,-25.391,-13.672,-21.973,207.031,0.000
1737550314.256,78.125,-8.789,-10.742,999.512,0.000
1737550314.260,22.461,-23.438,-3.418,480.957,0.000
1737550314.264,-119.629,-31.250,-17.090,-768.555,0.000
1737550314.268,-177.734,-19.043,-21.484,-1000.000,0.000
1737550314.271,-63.477,-8.789,-15.625,28.809,0.000
1737550314.275,68.848,-3.418,-10.742,999.512,0.000
1737550314.279,45.898,-8.301,-14.160,589.844,0.000
1737550314.283,-109.863,-24.902,-17.578,-599.121,0.000
1737550314.287,-184.570,-25.391,-19.531,-1000.000,0.000
1737550314.291,-86.914,-12.695,-23.438,-147.461,0.000
1737550314.295,47.852,-9.766,-16.602,999.512,0.000
1737550314.299,43.457,-15.137,-11.230,732.422,0.000
1737550314.303,-95.215,-23.926,-18.066,-420.410,0.000
1737550314.307,-194.824,-30.762,-18.555,-1000.000,0.000
1737550314.311,-78.613,-27.832,-11.719,-209.961,0.000
1737550314.314,68.848,-12.695,-10.742,999.512,0.000
1737550314.318,55.664,-9.766,-7.812,823.242,0.000
1737550314.322,-62.988,-17.578,-6.836,-308.105,0.000
1737550314.326,-172.852,-19.531,-5.859,-1000.000,0.000
1737550314.330,-87.402,-16.113,-2.441,-204.102,0.000
1737550314.334,55.664,-11.719,-10.254,999.512,0.000
1737550314.338,66.895,-13.184,-20.996,874.512,0.000
1737550314.342,-45.898,-19.531,-20.508,-208.984,0.000
1737550314.346,-169.434,-34.668,-20.020,-1000.000,0.000
1737550314.350,-94.238,-30.762,-25.879,-498.047,0.000
1737550314.353,83.008,-11.719,-23.438,857.422,0.000
1737550314.357,139.648,-12.695,-20.508,943.848,0.000
1737550314.361,-15.137,-20.996,-20.996,-206.543,0.000
1737550314.365,59.570,-20.508,-18.066,-1000.000,0.000
1737550314.369,669.434,-19.043,-17.090,-413.574,0.000
1737550314.373,996.094,-6.836,-21.973,879.883,0.000
1737550314.377,953.613,-2.930,-17.578,999.512,0.000
1737550314.381,966.797,-20.020,-16.602,75.684,0.000
1737550314.385,971.680,-34.668,-18.555,-1000.000,0.000
1737550314.389,970.215,-40.527,-13.184,-758.301,0.000
1737550314.393,969.727,-21.484,-12.207,528.320,0.000
1737550314.396,969.727,-11.719,-12.695,999.512,0.000
1737550314.400,970.215,-22.949,-10.254,155.273,0.000
1737550314.404,970.215,-26.367,-13.184,-1000.000,0.000
1737550314.408,970.215,-13.672,-21.484,-946.289,0.000
1737550314.412,970.215,-7.812,-18.066,247.070,0.000
1737550314.416,970.215,-13.184,-18.066,999.512,0.000
1737550314.420,970.215,-9.277,-24.902,371.582,0.000
1737550314.424,970.215,-12.695,-19.531,-783.691,0.000
1737550314.428,970.215,-23.926,-22.949,-1000.000,0.000
1737550314.432,970.215,-25.879,-34.668,62.500,0.000
1737550314.435,970.215,-14.648,-25.879,999.512,0.000
1737550314.439,969.727,-8.789,-20.020,257.324,0.000
1737550314.443,970.215,-19.531,-22.461,-957.520,0.000
1737550314.447,970.215,-18.555,-21.484,-1000.000,0.000
1737550314.451,970.215,-13.672,-19.531,62.500,0.000
1737550314.455,970.215,-15.625,-13.184,999.512,0.000
1737550314.459,970.215,-20.508,-18.066,477.051,0.000
1737550314.463,970.215,-25.879,-28.320,-747.559,0.000
1737550314.467,970.215,-24.902,-21.484,-1000.000,0.000
1737550314.471,970.215,-20.996,-9.766,-104.492,0.000
1737550314.475,970.215,-15.625,-8.301,999.512,0.000
1737550314.478,970.215,-21.484,-7.812,705.078,0.000
1737550314.482,970.215,-32.227,-13.672,-441.406,0.000
1737550314.486,970.215,-25.879,-27.344,-1000.000,0.000
1737550314.490,970.215,-17.090,-25.391,-312.988,0.000
1737550314.494,969.727,-11.230,-17.578,999.512,0.000
1737550314.498,967.285,-10.254,-19.043,752.930,0.000
1737550314.502,977.539,-16.113,-26.367,-430.176,0.000
1737550314.506,919.434,-18.555,-22.949,-1000.000,0.000
1737550314.510,855.957,-14.160,-19.043,-470.215,0.000
1737550314.514,874.023,-9.766,-17.090,890.137,0.000
1737550314.518,781.250,-17.090,-13.672,875.000,0.000
1737550314.521,566.406,-31.250,-19.531,-314.453,0.000
1737550314.525,390.137,-35.645,-15.625,-1000.000,0.000
1737550314.529,374.023,-28.809,-12.695,-582.520,0.000
1737550314.533,445.312,-28.809,-6.348,766.113,0.000
1737550314.537,409.668,-29.785,-0.977,968.262,0.000
1737550314.541,220.215,-26.855,-11.719,-216.797,0.000
1737550314.545,53.223,-25.391,-10.254,-1000.000,0.000
1737550314.549,46.387,-20.996,-7.812,-742.188,0.000
1737550314.553,102.539,-17.090,-17.090,508.301,0.000
1737550314.557,97.168,-20.508,-16.602,999.512,0.000
1737550314.560,-37.109,-25.879,-9.277,98.145,0.000
1737550314.564,-185.547,-30.762,-8.789,-1000.000,0.000
1737550314.568,-250.488,-30.762,-4.395,-880.371,0.000
1737550314.572,-210.449,-21.484,1.953,345.215,0.000
1737550314.576,-176.758,-13.184,-9.277,999.512,0.000
1737550314.580,-294.434,-17.578,-24.414,114.746,0.000
1737550314.584,-457.520,-29.785,-28.809,-1000.000,0.000
1737550314.588,-526.855,-32.715,-23.438,-1000.000,0.000
1737550314.592,-459.473,-27.832,-20.020,91.797,0.000
1737550314.596,-410.645,-20.508,-29.785,999.512,0.000
1737550314.600,-535.645,-25.391,-30.273,260.742,0.000
1737550314.603,-690.430,-29.785,-13.672,-959.961,0.000
1737550314.607,-738.770,-25.391,-13.184,-1000.000,0.000
1737550314.611,-657.227,-25.879,-16.113,74.219,0.000
1737550314.615,-624.512,-21.484,-13.672,999.512,0.000
1737550314.619,-723.633,-19.043,-9.766,369.141,0.000
1737550314.623,-848.145,-25.391,-9.277,-830.566,0.000
1737550314.627,-922.363,-33.691,-20.020,-1000.000,0.000
1737550314.631,-847.168,-29.785,-25.391,-113.770,0.000
1737550314.635,-764.160,-24.902,-26.367,999.512,0.000
1737550314.639,-815.918,-28.320,-30.762,665.527,0.000
1737550314.643,-938.965,-25.391,-26.367,-510.254,0.000
1737550314.646,-1000.000,-29.297,-23.926,-1000.000,0.000
1737550314.650,-952.148,-32.227,-26.855,-235.840,0.000
1737550314.654,-853.516,-12.695,-17.578,999.512,0.000
1737550314.658,-867.676,-9.766,-11.719,849.121,0.000
1737550314.662,-956.543,-22.949,-17.090,-272.461,0.000
1737550314.666,-1000.000,-21.973,-12.207,-1000.000,0.000
1737550314.670,-966.309,-16.113,-10.742,-284.668,0.000
1737550314.674,-878.906,-17.090,-22.949,999.512,0.000
1737550314.678,-894.043,-18.066,-25.391,891.602,0.000
1737550314.682,-970.215,-19.531,-20.996,-216.309,0.000
1737550314.685,-1000.000,-26.855,-24.414,-1000.000,0.000
1737550314.689,-997.559,-31.250,-27.832,-460.449,0.000
1737550314.693,-885.742,-20.996,-18.555,846.191,0.000
1737550314.697,-841.309,-11.230,-12.695,999.512,0.000
1737550314.701,-953.125,-16.602,-15.137,31.250,0.000
1737550314.705,-998.047,-22.949,-19.531,-1000.000,0.000
1737550314.709,-925.293,-24.902,-28.320,-679.688,0.000
1737550314.713,-798.828,-18.555,-29.785,657.227,0.000
1737550314.717,-747.559,-14.648,-20.996,999.512,0.000
1737550314.721,-832.520,-21.973,-18.555,-90.820,0.000
1737550314.725,-910.156,-23.926,-17.578,-1000.000,0.000
1737550314.728,-855.957,-28.320,-7.812,-728.027,0.000
1737550314.732,-752.930,-21.973,-9.766,516.113,0.000
1737550314.736,-677.246,-13.184,-17.578,999.512,0.000
1737550314.740,-724.121,-19.531,-12.695,297.363,0.000
1737550314.744,-851.562,-23.926,-16.113,-992.188,0.000
1737550314.748,-805.176,-16.113,-19.531,-786.621,0.000
1737550314.752,-649.414,-6.836,-21.973,527.832,0.000
1737550314.756,-555.664,-14.648,-25.879,999.512,0.000
1737550314.760,-618.164,-20.020,-13.184,344.727,0.000
1737550314.764,-733.398,-15.625,-6.836,-880.859,0.000
1737550314.767,-732.910,-19.531,-15.625,-991.699,0.000
1737550314.771,-596.680,-22.461,-19.531,219.238,0.000
1737550314.775,-501.953,-15.137,-23.926,999.512,0.000
1737550314.779,-516.602,-13.184,-30.273,736.328,0.000
1737550314.783,-640.137,-16.602,-28.320,-393.555,0.000
1737550314.787,-718.262,-21.484,-19.531,-1000.000,0.000
1737550314.791,-534.668,-18.066,-18.555,-10.254,0.000
1737550314.795,-438.965,-11.719,-25.391,999.512,0.000
1737550314.799,-493.164,-21.484,-22.949,713.867,0.000
1737550314.803,-555.176,-26.367,-20.020,-408.203,0.000
1737550314.807,-615.723,-30.762,-26.367,-1000.000,0.000
1737550314.810,-520.996,-32.227,-31.738,-165.039,0.000
1737550314.814,-397.461,-22.949,-28.320,999.512,0.000
1737550314.818,-412.598,-23.438,-26.855,831.543,0.000
1737550314.822,-519.043,-28.320,-26.367,-298.828,0.000
1737550314.826,-604.980,-30.762,-25.879,-1000.000,0.000
1737550314.830,-499.512,-25.879,-31.250,-200.684,0.000
1737550314.834,-372.070,-17.090,-31.250,999.512,0.000
1737550314.838,-368.164,-15.137,-33.691,833.984,0.000
1737550314.842,-446.289,-17.578,-28.809,-227.051,0.000
1737550314.846,-558.105,-23.438,-11.230,-1000.000,0.000
1737550314.850,-459.961,-21.484,-3.906,-294.922,0.000
1737550314.853,-336.426,-17.090,-4.883,980.957,0.000
1737550314.857,-340.332,-22.461,-9.277,999.512,0.000
1737550314.861,-394.043,-31.738,-13.672,1.953,0.000
1737550314.865,-498.047,-34.668,-11.230,-1000.000,0.000
1737550314.869,-453.125,-35.156,-15.137,-512.695,0.000
1737550314.873,-343.750,-28.320,-17.090,812.012,0.000
1737550314.877,-305.664,-17.578,-13.184,999.512,0.000
1737550314.881,-379.395,-13.672,-10.254,225.098,0.000
1737550314.885,-482.422,-18.555,-7.324,-1000.000,0.000
1737550314.889,-409.668,-21.484,-12.207,-559.570,0.000
1737550314.892,-302.734,-19.531,-6.348,811.523,0.000
1737550314.896,-276.855,-20.996,-1.953,999.512,0.000
1737550314.900,-352.051,-30.762,-8.301,124.512,0.000
1737550314.904,-477.539,-37.598,-18.066,-1000.000,0.000
1737550314.908,-419.434,-29.297,-15.625,-676.270,0.000
1737550314.912,-279.785,-22.461,-3.906,669.922,0.000
1737550314.916,-284.668,-26.855,-12.207,999.512,0.000
1737550314.920,-394.531,-36.133,-20.508,-13.672,0.000
1737550314.924,-448.242,-36.133,-18.555,-1000.000,0.000
1737550314.928,-396.973,-27.832,-12.695,-895.996,0.000
1737550314.932,-280.762,-18.555,-8.789,265.625,0.000
1737550314.935,-200.684,-21.484,-18.555,999.512,0.000
1737550314.939,-262.695,-28.320,-19.531,514.160,0.000
1737550314.943,-404.297,-21.973,-12.207,-776.855,0.000
1737550314.947,-405.762,-20.508,-10.742,-1000.000,0.000
1737550314.951,-275.391,-18.066,-14.648,226.074,0.000
1737550314.955,-206.055,-8.301,-20.508,999.512,0.000
1737550314.959,-245.605,-10.742,-28.320,568.359,0.000
1737550314.963,-338.867,-14.648,-32.227,-645.508,0.000
1737550314.967,-381.348,-15.137,-28.320,-1000.000,0.000
1737550314.971,-279.785,-18.555,-17.578,15.625,0.000
1737550314.975,-167.969,-15.137,-10.254,999.512,0.000
1737550314.978,-187.988,-12.695,-5.859,842.773,0.000
1737550314.982,-293.457,-19.043,-11.719,-215.332,0.000
1737550314.986,-377.441,-21.484,-11.230,-1000.000,0.000
1737550314.990,-270.996,-21.484,-9.277,-225.586,0.000
1737550314.994,-145.020,-21.973,-11.230,999.512,0.000
1737550314.998,-176.270,-15.625,-14.160,679.199,0.000
1737550315.002,-294.922,-17.578,-20.996,-510.254,0.000
1737550315.006,-372.070,-21.973,-26.855,-1000.000,0.000
1737550315.010,-266.113,-17.090,-26.855,-366.211,0.000
1737550315.014,-159.668,-12.207,-16.602,991.211,0.000
1737550315.017,-204.102,-12.207,-9.766,777.344,0.000
1737550315.021,-261.230,-16.602,-16.113,-394.531,0.000
1737550315.025,-330.078,-19.531,-16.602,-1000.000,0.000
1737550315.029,-281.738,-15.137,-12.207,-446.289,0.000
1737550315.033,-166.016,-17.090,-14.160,897.461,0.000
1737550315.037,-163.574,-20.020,-25.879,934.570,0.000
1737550315.041,-260.742,-20.020,-27.344,-208.008,0.000
1737550315.045,-369.141,-22.461,-21.484,-1000.000,0.000
1737550315.049,-356.934,-14.160,-21.973,-693.848,0.000
1737550315.053,-201.172,-11.719,-17.578,609.375,0.000
1737550315.057,-156.738,-16.113,-14.648,999.512,0.000
1737550315.060,-316.895,-31.250,-10.742,-94.238,0.000
1737550315.064,-396.973,-36.621,-8.789,-1000.000,0.000
1737550315.068,-306.152,-20.020,-10.254,-706.543,0.000
1737550315.072,-193.359,-8.789,-17.090,543.945,0.000
1737550315.076,-172.363,-1.953,-24.902,999.512,0.000
1737550315.080,-235.352,-10.254,-20.996,402.344,0.000
1737550315.084,-357.422,-37.109,-22.461,-852.539,0.000
1737550315.088,-391.113,-42.480,-19.531,-961.914,0.000
1737550315.092,-243.652,-24.414,-16.113,270.508,0.000
1737550315.096,-144.043,-20.020,-19.043,999.512,0.000
1737550315.099,-239.258,-21.973,-25.391,346.680,0.000
1737550315.103,-336.426,-21.973,-31.738,-910.645,0.000
1737550315.107,-325.684,-15.625,-37.598,-1000.000,0.000
1737550315.111,-231.445,-9.766,-32.227,137.207,0.000
1737550315.115,-190.918,-11.230,-12.695,999.512,0.000
1737550315.119,-214.844,-13.672,-10.742,592.773,0.000
1737550315.123,-270.020,-16.602,-16.113,-611.328,0.000
1737550315.127,-338.867,-19.043,-14.160,-1000.000,0.000
1737550315.131,-245.117,-20.996,-18.066,-32.715,0.000
1737550315.135,-133.789,-18.066,-20.020,999.512,0.000
1737550315.139,-172.852,-21.484,-20.508,755.859,0.000
1737550315.142,-298.340,-27.832,-34.180,-378.906,0.000
1737550315.146,-360.840,-20.996,-34.180,-1000.000,0.000
1737550315.150,-288.574,-19.531,-25.391,-212.402,0.000
1737550315.154,-166.016,-18.555,-27.832,999.512,0.000
1737550315.158,-140.625,-10.742,-33.203,694.336,0.000
1737550315.162,-246.582,-11.719,-28.809,-493.164,0.000
1737550315.166,-318.848,-13.184,-20.020,-1000.000,0.000
1737550315.170,-222.656,-13.672,-17.578,-177.734,0.000
1737550315.174,-111.328,-14.160,-15.625,999.512,0.000
1737550315.178,-121.582,-18.066,-22.461,874.512,0.000
1737550315.182,-219.238,-18.555,-28.809,-182.129,0.000
1737550315.185,-287.598,-16.113,-26.367,-1000.000,0.000
1737550315.189,-246.582,-23.926,-23.926,-538.086,0.000
1737550315.193,-135.742,-25.391,-25.391,833.008,0.000
1737550315.197,-106.934,-17.578,-28.320,911.133,0.000
1737550315.201,-217.773,-21.484,-24.414,-281.250,0.000
1737550315.205,-310.059,-23.438,-24.902,-1000.000,0.000
1737550315.209,-228.027,-14.648,-31.738,-588.379,0.000
1737550315.213,-76.660,0.977,-36.133,698.730,0.000
1737550315.217,-53.711,8.301,-34.180,999.512,0.000
1737550315.221,-157.715,4.883,-35.156,133.789,0.000
1737550315.224,-265.137,2.441,-38.086,-1000.000,0.000
1737550315.228,-239.258,-3.418,-37.598,-879.883,0.000
1737550315.232,-108.398,-3.906,-34.180,376.953,0.000
1737550315.236,-46.387,1.953,-30.273,999.512,0.000
1737550315.240,-134.277,-2.930,-29.297,-57.617,0.000
1737550315.244,-212.891,-14.160,-36.133,-1000.000,0.000
1737550315.248,-178.223,-11.230,-36.133,-806.641,0.000
1737550315.252,-56.641,-5.371,-31.738,412.598,0.000
1737550315.256,0.000,-3.906,-41.016,999.512,0.000
1737550315.260,-73.242,-7.812,-43.945,282.227,0.000
1737550315.264,-176.270,-16.113,-41.016,-946.289,0.000
1737550315.267,-193.848,-20.020,-30.762,-971.680,0.000
1737550315.271,-86.426,-10.742,-20.996,196.777,0.000
1737550315.275,4.883,-6.348,-24.902,999.512,0.000
1737550315.279,-36.133,-14.160,-26.855,534.668,0.000
1737550315.283,-172.363,-13.672,-29.297,-708.984,0.000
1737550315.287,-237.305,-16.602,-27.344,-1000.000,0.000
1737550315.291,-96.191,-11.230,-22.949,128.906,0.000
1737550315.295,8.789,-2.930,-21.484,999.512,0.000
1737550315.299,-56.641,-8.789,-24.414,831.055,0.000
1737550315.303,-154.785,-16.602,-31.738,-245.117,0.000
1737550315.307,-217.285,-17.090,-26.367,-1000.000,0.000
1737550315.310,-123.047,-13.672,-23.926,-105.957,0.000
1737550315.314,-11.230,-14.648,-26.855,999.512,0.000
1737550315.318,-52.734,-18.555,-21.973,734.375,0.000
1737550315.322,-168.457,-22.461,-20.996,-430.176,0.000
1737550315.326,-243.164,-24.902,-17.578,-1000.000,0.000
1737550315.330,-166.016,-16.602,-4.883,-108.398,0.000
1737550315.334,-52.246,-7.812,-18.066,999.512,0.000
1737550315.338,-53.223,-7.324,-28.809,856.934,0.000
1737550315.342,-160.645,-14.160,-20.508,-218.750,0.000
1737550315.346,-266.602,-27.832,-18.066,-1000.000,0.000
1737550315.349,-171.387,-20.996,-21.973,-254.883,0.000
1737550315.353,-42.969,-10.254,-17.578,961.426,0.000
1737550315.357,-33.691,-8.789,-8.789,999.512,0.000
1737550315.361,-114.746,-17.578,-16.113,271.484,0.000
1737550315.365,-252.930,-26.855,-24.414,-1000.000,0.000
1737550315.369,-190.918,-18.066,-27.344,-480.469,0.000
1737550315.373,-56.152,-13.184,-25.391,870.117,0.000
1737550315.377,-74.219,-19.531,-7.812,999.512,0.000
1737550315.381,-149.902,-20.508,-9.766,262.695,0.000
1737550315.385,-245.605,-20.020,-28.809,-1000.000,0.000
1737550315.389,-221.191,-19.531,-25.879,-608.887,0.000
1737550315.392,-105.469,-12.207,-18.066,739.258,0.000
1737550315.396,-68.848,-9.277,-23.438,999.512,0.000
1737550315.400,-121.582,-16.602,-30.273,473.145,0.000
1737550315.404,-248.047,-25.391,-26.855,-855.469,0.000
1737550315.408,-256.836,-31.738,-20.996,-768.066,0.000
1737550315.412,-129.395,-27.832,-21.484,590.332,0.000
1737550315.416,-73.730,-15.625,-22.461,999.512,0.000
1737550315.420,-154.785,-5.859,-22.949,485.352,0.000
1737550315.424,-276.855,-5.859,-33.691,-754.395,0.000
1737550315.428,-260.254,-20.020,-32.227,-955.566,0.000
1737550315.432,-113.281,-26.367,-18.555,311.035,0.000
1737550315.435,-43.945,-18.066,-18.066,999.512,0.000
1737550315.439,-101.074,-20.020,-18.066,680.176,0.000
1737550315.443,-213.867,-27.832,-19.531,-519.043,0.000
1737550315.447,-271.484,-27.832,-27.832,-1000.000,0.000
1737550315.451,-145.996,-7.324,-15.137,183.594,0.000
1737550315.455,-58.594,0.000,-17.578,999.512,0.000
1737550315.459,-90.332,-25.879,-14.648,513.672,0.000
1737550315.463,-198.242,-25.879,-18.066,-703.125,0.000
1737550315.467,-271.973,-17.090,-33.203,-1000.000,0.000
1737550315.471,-155.762,-31.738,-21.973,-6.348,0.000
1737550315.474,-71.777,-25.879,-24.902,999.512,0.000
1737550315.478,-98.145,-26.855,-18.555,829.102,0.000
1737550315.482,-183.105,-29.297,-19.043,-257.324,0.000
1737550315.486,-249.512,-38.086,-21.484,-1000.000,0.000
1737550315.490,-132.324,-33.691,-15.625,-165.039,0.000
1737550315.494,-59.082,-12.695,-4.395,999.512,0.000
1737550315.498,-86.914,-5.859,-7.324,906.250,0.000
1737550315.502,-174.316,-22.461,-23.926,-114.258,0.000
1737550315.506,-300.293,-32.227,-15.137,-1000.000,0.000
1737550315.510,-214.355,-19.531,-1.953,-332.031,0.000
1737550315.514,-73.242,-16.113,-20.996,992.188,0.000
1737550315.517,-77.637,-17.578,-32.715,898.438,0.000
1737550315.521,-183.105,-13.672,-31.250,-199.219,0.000
1737550315.525,-281.250,-12.695,-34.668,-1000.000,0.000
1737550315.529,-212.891,-19.043,-31.738,-436.523,0.000
1737550315.533,-85.449,-23.438,-15.137,862.793,0.000
1737550315.537,-62.500,-11.719,-4.883,999.512,0.000
1737550315.541,-144.531,-8.301,-25.391,83.008,0.000
1737550315.545,-258.301,-15.625,-37.598,-1000.000,0.000
1737550315.549,-200.195,-24.902,-19.043,-514.160,0.000
1737550315.553,-83.984,-19.531,-20.996,822.266,0.000
1737550315.556,-97.168,-21.484,-31.738,999.512,0.000
1737550315.560,-160.156,-25.391,-24.902,212.402,0.000
1737550315.564,-239.746,-25.391,-20.508,-952.148,0.000
1737550315.568,-254.883,-28.809,-14.648,-831.055,0.000
1737550315.572,-119.629,-25.391,-20.508,450.195,0.000
1737550315.576,-36.621,-26.367,-12.695,999.512,0.000
1737550315.580,-111.328,-25.879,-15.625,395.996,0.000
1737550315.584,-223.145,-18.066,-30.762,-915.039,0.000
1737550315.588,-222.168,-9.277,-25.391,-783.203,0.000
1737550315.592,-129.883,0.977,-29.297,551.270,0.000
1737550315.596,-60.547,-11.230,-18.555,999.512,0.000
1737550315.599,-88.867,-34.180,-14.648,447.266,0.000
1737550315.603,-258.301,-37.598,-20.996,-805.176,0.000
1737550315.607,-288.086,-40.527,-18.066,-1000.000,0.000
1737550315.611,-115.723,-39.551,-15.137,141.113,0.000
1737550315.615,-20.508,-28.809,-12.207,999.512,0.000
1737550315.619,-99.121,-26.855,-2.441,675.293,0.000
1737550315.623,-244.629,-34.180,-2.930,-516.113,0.000
1737550315.627,-265.137,-34.180,-22.461,-1000.000,0.000
1737550315.631,-134.766,-22.949,-34.668,1.953,0.000
1737550315.635,-47.852,-16.602,-28.320,999.512,0.000
1737550315.639,-65.918,-19.531,-22.949,714.844,0.000
1737550315.642,-187.988,-16.602,-31.250,-429.688,0.000
1737550315.646,-300.781,-22.461,-25.879,-1000.000,0.000
1737550315.650,-180.664,-30.762,-21.484,-162.109,0.000
1737550315.654,-55.664,-31.250,-17.578,999.512,0.000
1737550315.658,-98.145,-16.602,-8.301,644.043,0.000
1737550315.662,-173.828,-11.230,-25.879,-542.480,0.000
1737550315.666,-245.605,-26.855,-21.484,-1000.000,0.000
1737550315.670,-173.340,-35.156,12.695,-208.984,0.000
1737550315.674,-45.410,-15.137,-7.812,999.512,0.000
1737550315.678,-41.992,-7.324,-33.691,802.246,0.000
1737550315.681,-120.117,-25.391,-26.367,-328.613,0.000
1737550315.685,-250.000,-9.766,-27.832,-1000.000,0.000
1737550315.689,-209.961,-3.906,-24.902,-393.555,0.000
1737550315.693,-32.227,-24.414,-4.395,940.430,0.000
1737550315.697,-9.766,-12.695,-9.766,919.434,0.000
1737550315.701,-153.809,-18.066,-18.066,-221.680,0.000
1737550315.705,-244.141,-27.832,-28.320,-1000.000,0.000
1737550315.709,-157.715,-25.391,-25.879,-540.527,0.000
1737550315.713,-72.754,-33.203,4.395,820.801,0.000
1737550315.717,-62.988,-34.180,-4.883,914.062,0.000
1737550315.721,-160.156,-31.738,-3.418,-268.066,0.000
1737550315.724,-246.582,-30.273,-13.672,-1000.000,0.000
1737550315.728,-216.797,-43.457,4.883,-671.875,0.000
1737550315.732,-75.684,-29.297,7.812,618.652,0.000
1737550315.736,-13.184,-17.090,-31.738,999.512,0.000
1737550315.740,-114.746,-34.180,-31.250,57.129,0.000
1737550315.744,-234.375,-50.293,-28.320,-1000.000,0.000
1737550315.748,-229.004,-49.316,-23.438,-905.762,0.000
1737550315.752,-45.898,-23.438,-19.531,311.523,0.000
1737550315.756,1.953,-18.066,10.254,999.512,0.000
1737550315.760,-109.375,-38.086,6.348,-1.953,0.000
1737550315.764,-218.262,-26.855,-39.551,-1000.000,0.000
1737550315.767,-223.633,-7.324,-48.340,-939.453,0.000
1737550315.771,-80.566,-28.320,-5.371,204.102,0.000
1737550315.775,21.973,-32.227,-14.160,999.512,0.000
1737550315.779,-48.828,-19.043,-50.293,78.125,0.000
1737550315.783,-160.156,-32.227,-29.297,-1000.000,0.000
1737550315.787,-166.504,-42.480,-19.043,-1000.000,0.000
1737550315.791,-52.734,-19.043,-20.996,4.883,0.000
1737550315.795,-8.789,1.953,-5.859,999.512,0.000
1737550315.799,-42.480,-27.344,-5.371,566.406,0.000
1737550315.803,-108.398,-31.250,-26.855,-617.188,0.000
1737550315.806,-193.848,-13.672,-15.137,-1000.000,0.000
1737550315.810,-91.797,-21.484,6.348,-84.473,0.000
1737550315.814,62.500,-22.949,-27.832,999.512,0.000
1737550315.818,19.043,-15.625,-49.316,567.871,0.000
1737550315.822,-113.770,-24.902,-33.203,-646.973,0.000
1737550315.826,-159.668,-24.902,-0.488,-1000.000,0.000
1737550315.830,-29.785,-17.578,4.395,-125.488,0.000
1737550315.834,87.402,-10.254,-8.301,999.512,0.000
1737550315.838,37.598,-12.207,-2.930,727.051,0.000
1737550315.842,-75.684,-23.438,-26.855,-440.918,0.000
1737550315.846,-171.875,-21.973,-18.066,-1000.000,0.000
1737550315.849,-101.562,-0.488,-0.977,-302.734,0.000
1737550315.853,47.363,-15.137,-11.719,971.680,0.000
1737550315.857,72.754,-27.832,-27.832,959.961,0.000
1737550315.861,-62.500,-31.738,-2.441,-95.703,0.000
1737550315.865,-200.684,-23.926,-11.719,-1000.000,0.000
1737550315.869,-128.906,-13.184,-25.879,-416.504,0.000
1737550315.873,36.621,4.395,-19.531,910.645,0.000
1737550315.877,62.988,-14.160,-1.465,986.816,0.000
1737550315.881,-7.812,-25.879,-0.488,-42.969,0.000
1737550315.885,-144.531,-24.414,-6.836,-1000.000,0.000
1737550315.888,-148.438,-40.039,13.184,-755.371,0.000
1737550315.892,10.742,-17.090,-32.715,574.707,0.000
1737550315.896,74.707,-1.465,-41.992,999.512,0.000
1737550315.900,-30.273,-11.230,-26.855,-156.738,0.000
1737550315.904,-135.742,-34.668,-15.137,-1000.000,0.000
1737550315.908,-125.488,-25.879,-10.742,-787.109,0.000
1737550315.912,16.113,-11.230,-34.180,453.613,0.000
1737550315.916,77.637,-20.508,-18.066,999.512,0.000
1737550315.920,-49.805,-18.066,-7.812,143.555,0.000
1737550315.924,-219.727,-8.789,4.883,-997.070,0.000
1737550315.928,-228.027,-19.043,-2.930,-925.781,0.000
1737550315.931,-20.508,-42.969,-19.531,264.160,0.000
1737550315.935,60.547,-16.113,-19.043,999.512,0.000
1737550315.939,-15.625,-0.977,-44.434,354.980,0.000
1737550315.943,-135.254,-31.250,-38.086,-884.766,0.000
1737550315.947,-199.707,-57.617,-16.113,-1000.000,0.000
1737550315.951,-81.055,-47.363,-5.859,27.832,0.000
1737550315.955,-1.953,-18.555,-15.137,999.512,0.000
1737550315.959,-66.406,-25.391,-5.859,554.688,0.000
1737550315.963,-140.625,-25.391,-33.203,-719.727,0.000
1737550315.967,-196.777,-24.414,-39.551,-932.129,0.000
1737550315.971,-128.906,-13.184,22.461,331.055,0.000
1737550315.974,-52.246,-10.742,-0.977,999.512,0.000
1737550315.978,-80.078,-27.344,-35.156,637.207,0.000
1737550315.982,-194.336,-6.836,-21.973,-517.578,0.000
1737550315.986,-265.625,5.859,-37.109,-1000.000,0.000
1737550315.990,-152.344,-39.551,-30.273,-87.402,0.000
1737550315.994,14.648,-51.270,-11.230,999.512,0.000
1737550315.998,-47.852,-45.898,28.320,759.766,0.000
1737550316.002,-270.020,-4.883,-8.301,-388.184,0.000
1737550316.006,-365.723,-20.020,-43.457,-1000.000,0.000
1737550316.010,-193.848,-39.062,-42.480,-183.105,0.000
1737550316.013,-31.250,-11.230,-43.457,999.512,0.000
1737550316.017,-98.633,4.395,-33.691,942.871,0.000
1737550316.021,-289.551,9.766,-53.223,-100.586,0.000
1737550316.025,-416.016,-9.277,-55.664,-1000.000,0.000
1737550316.029,-346.680,-27.344,-25.879,-284.668,0.000
1737550316.033,-302.734,-27.832,-18.066,956.543,0.000
1737550316.037,-375.488,-30.762,-2.441,999.512,0.000
1737550316.041,-483.887,-13.672,-29.785,192.383,0.000
1737550316.045,-718.750,1.465,-27.832,-1000.000,0.000
1737550316.049,-700.195,6.836,-41.016,-571.777,0.000
1737550316.053,-551.270,-9.277,-42.969,773.926,0.000
1737550316.056,-567.383,-32.227,-15.137,999.512,0.000
1737550316.060,-627.930,-10.254,-23.926,254.883,0.000
1737550316.064,-744.141,-17.090,-28.809,-1000.000,0.000
1737550316.068,-754.883,-31.250,-27.344,-654.785,0.000
1737550316.072,-609.863,-13.672,-25.879,705.078,0.000
1737550316.076,-562.988,-20.508,-38.574,999.512,0.000
1737550316.080,-603.516,-25.879,-41.992,163.574,0.000
1737550316.084,-689.941,2.930,-44.434,-1000.000,0.000
1737550316.088,-642.578,-34.668,-10.254,-769.043,0.000
1737550316.092,-451.660,-45.410,-8.301,525.391,0.000
1737550316.096,-371.582,-32.715,-6.348,999.512,0.000
1737550316.099,-407.227,-25.879,-10.254,637.695,0.000
1737550316.103,-510.254,-8.789,-36.133,-610.840,0.000
1737550316.107,-542.969,-8.301,-27.832,-938.965,0.000
1737550316.111,-372.070,-13.184,-26.367,367.188,0.000
1737550316.115,-300.293,-5.859,-9.766,999.512,0.000
1737550316.119,-424.316,4.883,-18.555,222.168,0.000
1737550316.123,-509.766,-21.484,-36.133,-958.496,0.000
1737550316.127,-483.887,-47.852,-15.625,-1000.000,0.000
1737550316.131,-367.188,-38.086,-13.184,85.938,0.000
1737550316.135,-262.695,-40.527,-28.809,999.512,0.000
1737550316.138,-279.297,-16.602,-35.156,647.949,0.000
1737550316.142,-409.180,0.977,-18.555,-543.945,0.000
1737550316.146,-438.965,-30.762,-8.789,-1000.000,0.000
1737550316.150,-270.996,-41.504,-14.648,-9.277,0.000
1737550316.154,-155.273,-14.648,-25.391,999.512,0.000
1737550316.158,-178.223,-11.719,-13.672,699.707,0.000
1737550316.162,-304.688,-12.207,-24.902,-474.121,0.000
1737550316.166,-402.832,-17.090,-20.020,-1000.000,0.000
1737550316.170,-244.141,-17.578,-11.719,-131.348,0.000
1737550316.174,-62.988,-23.438,-21.973,999.512,0.000
1737550316.178,-113.281,-30.762,-19.043,553.711,0.000
1737550316.181,-231.934,-29.297,-23.438,-673.340,0.000
1737550316.185,-263.672,-24.414,-23.926,-1000.000,0.000
1737550316.189,-134.766,-33.203,-20.508,-267.578,0.000
1737550316.193,-29.785,-3.418,-30.762,974.609,0.000
1737550316.197,-3.906,-5.859,-22.949,966.309,0.000
1737550316.201,-43.945,-29.297,-12.207,-30.273,0.000
1737550316.205,-156.250,-6.836,-27.832,-1000.000,0.000
1737550316.209,-79.590,-16.113,-23.438,-527.832,0.000
1737550316.213,111.328,-14.648,-14.160,854.980,0.000
1737550316.217,173.828,-17.090,-24.414,950.684,0.000
1737550316.220,41.016,-22.461,-28.809,-208.008,0.000
1737550316.224,-75.195,-27.344,-13.672,-1000.000,0.000
1737550316.228,-24.414,-27.344,-19.043,-612.793,0.000
1737550316.232,109.375,-21.484,-8.789,697.266,0.000
1737550316.236,158.691,-20.996,-20.020,999.512,0.000
1737550316.240,77.637,-33.691,-40.039,-46.875,0.000
1737550316.244,-24.902,-24.902,-22.461,-1000.000,0.000
1737550316.248,-65.430,-1.465,0.000,-660.156,0.000
1737550316.252,81.055,-16.602,-17.090,664.062,0.000
1737550316.256,195.801,-14.648,-43.945,999.512,0.000
1737550316.260,53.223,-21.973,-10.742,-48.340,0.000
1737550316.263,-43.457,-49.805,-8.789,-1000.000,0.000
1737550316.267,2.930,-24.902,-16.602,-943.359,0.000
1737550316.271,144.531,-13.184,-25.879,184.570,0.000
1737550316.275,201.660,-16.113,-31.250,999.512,0.000
1737550316.279,108.887,-3.418,-25.879,243.164,0.000
1737550316.283,8.301,-18.555,-8.301,-934.570,0.000
1737550316.287,-36.133,-16.113,-12.695,-1000.000,0.000
1737550316.291,109.375,-4.883,-11.230,63.965,0.000
1737550316.295,230.957,-16.602,-9.277,999.512,0.000
1737550316.299,111.328,-17.578,-19.531,234.375,0.000
1737550316.303,-44.434,0.488,-8.301,-970.703,0.000
1737550316.306,-30.762,-40.527,-3.418,-1000.000,0.000
1737550316.310,86.426,-48.340,-29.785,-122.559,0.000
1737550316.314,165.039,-15.625,-21.973,999.512,0.000
1737550316.318,74.707,-16.113,-1.465,581.543,0.000
1737550316.322,-34.180,-37.109,-12.695,-655.273,0.000
1737550316.326,-83.496,-32.227,-23.926,-1000.000,0.000
1737550316.330,-0.488,15.625,-46.875,-189.453,0.000
1737550316.334,114.258,13.184,-33.203,999.512,0.000
1737550316.338,88.379,-18.066,-9.766,682.129,0.000
1737550316.342,-39.062,-21.484,-22.949,-492.188,0.000
1737550316.345,-122.559,-29.297,-18.066,-1000.000,0.000
1737550316.349,-4.883,-15.625,-10.254,-284.180,0.000
1737550316.353,139.648,-27.832,-18.555,999.512,0.000
1737550316.357,92.773,-28.320,-5.371,789.551,0.000
1737550316.361,-47.363,-9.766,-18.555,-385.742,0.000
1737550316.365,-118.164,-12.695,-35.645,-1000.000,0.000
1737550316.369,-49.805,-31.738,-10.742,-437.012,0.000
1737550316.373,62.500,-2.441,-20.508,924.316,0.000
1737550316.377,56.152,-7.812,-15.625,825.195,0.000
1737550316.381,-62.988,-33.203,-1.953,-359.375,0.000
1737550316.385,-149.902,-15.137,-31.738,-1000.000,0.000
1737550316.388,-27.344,-35.156,-24.902,-483.887,0.000
1737550316.392,84.961,-26.855,-17.090,805.176,0.000
1737550316.396,55.664,-6.836,-20.020,999.512,0.000
1737550316.400,-55.176,-14.648,-17.578,106.445,0.000
1737550316.404,-201.172,-5.859,-25.879,-1000.000,0.000
1737550316.408,-190.430,-13.184,-5.371,-671.387,0.000
1737550316.412,-20.020,-24.902,-5.371,666.016,0.000
1737550316.416,23.926,-21.973,-21.484,999.512,0.000
1737550316.420,-113.281,-17.578,-18.066,-38.574,0.000
1737550316.424,-212.891,-28.320,-16.602,-1000.000,0.000
1737550316.428,-191.406,-23.438,-14.160,-690.430,0.000
1737550316.431,-78.125,-7.324,-24.902,576.172,0.000
1737550316.435,18.555,-36.621,-18.066,999.512,0.000
1737550316.439,-11.230,-25.879,-9.277,625.977,0.000
1737550316.443,-189.453,-12.207,-15.625,-612.305,0.000
1737550316.447,-247.070,-19.043,-21.484,-968.750,0.000
1737550316.451,-61.523,-14.160,-7.812,316.895,0.000
1737550316.455,20.996,5.371,-22.949,999.512,0.000
1737550316.459,-39.062,-4.395,-38.574,484.863,0.000
1737550316.463,-156.738,-23.926,-20.508,-731.445,0.000
1737550316.467,-215.820,-20.020,-15.625,-1000.000,0.000
1737550316.470,-102.539,-17.578,-15.625,131.836,0.000
1737550316.474,8.789,-12.207,-20.020,999.512,0.000
1737550316.478,-18.555,-15.625,-23.926,744.141,0.000
1737550316.482,-136.719,-10.254,-22.949,-374.023,0.000
1737550316.486,-211.426,-18.555,-21.973,-1000.000,0.000
1737550316.490,-96.680,-36.133,-27.832,-123.535,0.000
1737550316.494,43.945,-24.414,-28.320,999.512,0.000
1737550316.498,-20.996,-3.418,-27.344,625.488,0.000
1737550316.502,-161.133,4.883,-15.137,-589.355,0.000
1737550316.506,-176.270,-22.949,-24.414,-1000.000,0.000
1737550316.510,-61.035,-39.551,-38.086,-214.844,0.000
1737550316.513,24.414,-26.855,-32.715,999.512,0.000
1737550316.517,-3.418,-20.508,-22.949,793.945,0.000
1737550316.521,-137.695,-19.531,-21.484,-350.098,0.000
1737550316.525,-220.215,-33.691,-20.996,-1000.000,0.000
1737550316.529,-95.703,-36.133,-4.395,-286.621,0.000
1737550316.533,33.691,-18.066,-7.812,999.512,0.000
1737550316.537,12.695,-17.090,-21.973,776.855,0.000
1737550316.541,-114.746,-21.484,-18.066,-395.020,0.000
1737550316.545,-202.637,-27.344,-11.230,-1000.000,0.000
1737550316.549,-109.375,-22.949,-15.625,-444.824,0.000
1737550316.552,10.254,-19.531,-15.625,888.184,0.000
1737550316.556,18.555,-21.973,-16.602,948.730,0.000
1737550316.560,-85.449,-25.391,-18.066,-167.480,0.000
1737550316.564,-184.570,-29.297,-10.254,-1000.000,0.000
1737550316.568,-129.883,-20.996,-12.695,-627.441,0.000
1737550316.572,6.836,-8.301,-25.879,646.484,0.000
1737550316.576,71.777,-8.301,-24.902,999.512,0.000
1737550316.580,-7.324,-18.555,-19.531,199.707,0.000
1737550316.584,-117.188,-28.809,-11.719,-1000.000,0.000
1737550316.588,-135.742,-18.555,-13.184,-849.121,0.000
1737550316.592,-9.277,-13.184,-12.695,417.969,0.000
1737550316.595,98.633,-12.695,-13.184,999.512,0.000
1737550316.599,8.301,-8.789,-10.742,182.617,0.000
1737550316.603,-140.625,-15.137,-7.812,-1000.000,0.000
1737550316.607,-125.977,-20.508,-14.160,-942.871,0.000
1737550316.611,44.434,-5.371,-21.973,243.652,0.000
1737550316.615,125.000,0.488,-30.273,999.512,0.000
1737550316.619,28.809,-17.090,-21.973,211.914,0.000
1737550316.623,-132.324,8.789,-22.461,-990.723,0.000
1737550316.627,-141.602,-4.395,-22.949,-942.871,0.000
1737550316.631,-38.574,-37.598,-29.785,199.707,0.000
1737550316.635,50.781,-22.949,-27.832,999.512,0.000
1737550316.638,10.254,-7.324,-10.742,327.148,0.000
1737550316.642,-131.836,-9.766,-14.648,-895.996,0.000
1737550316.646,-173.340,-15.625,-25.391,-1000.000,0.000
1737550316.650,-80.566,-16.113,-22.461,-142.090,0.000
1737550316.654,5.859,1.465,-25.879,999.512,0.000
1737550316.658,-34.180,-10.742,-20.508,562.012,0.000
1737550316.662,-140.137,-35.645,-15.137,-676.270,0.000
1737550316.666,-211.914,-26.855,-22.949,-1000.000,0.000
1737550316.670,-152.344,-18.555,-17.578,-124.512,0.000
1737550316.674,-38.574,-1.953,-21.973,999.512,0.000
1737550316.677,-64.941,-27.344,-19.531,572.754,0.000
1737550316.681,-191.895,-37.598,-8.301,-633.301,0.000
1737550316.685,-240.723,-14.160,-11.230,-1000.000,0.000
1737550316.689,-139.160,-15.137,-15.137,-333.496,0.000
1737550316.693,-17.090,-14.648,-17.090,985.840,0.000
1737550316.697,-25.391,-15.137,-14.648,852.539,0.000
1737550316.701,-142.578,-4.395,-14.648,-298.828,0.000
1737550316.705,-255.859,-11.230,-9.277,-1000.000,0.000
1737550316.709,-229.492,-21.973,-9.277,-508.789,0.000
1737550316.713,-89.355,-18.555,-16.113,794.434,0.000
1737550316.717,-48.340,-6.836,-17.090,999.512,0.000
1737550316.720,-178.223,-13.184,-14.160,-16.602,0.000
1737550316.724,-305.176,-31.738,-23.926,-1000.000,0.000
1737550316.728,-268.555,-34.668,-30.762,-715.332,0.000
1737550316.732,-145.996,-22.949,-20.508,597.168,0.000
1737550316.736,-104.980,-12.695,-21.973,999.512,0.000
1737550316.740,-220.703,-17.578,-20.508,-51.270,0.000
1737550316.744,-333.496,-31.250,-16.113,-1000.000,0.000
1737550316.748,-287.598,-25.391,-22.461,-754.395,0.000
1737550316.752,-147.461,-13.672,-24.414,520.508,0.000
1737550316.756,-77.637,-20.020,-21.973,999.512,0.000
1737550316.760,-142.578,-18.066,-27.344,104.980,0.000
1737550316.763,-235.840,-17.578,-20.996,-1000.000,0.000
1737550316.767,-226.562,-22.461,-10.254,-810.547,0.000
1737550316.771,-100.586,-25.391,-17.090,421.875,0.000
1737550316.775,-3.906,-23.438,-26.855,999.512,0.000
1737550316.779,-53.711,-14.648,-26.855,324.219,0.000
1737550316.783,-163.086,-15.137,-26.367,-927.246,0.000
1737550316.787,-182.129,-20.508,-25.879,-998.047,0.000
1737550316.791,-46.387,-18.555,-38.574,164.551,0.000
1737550316.795,61.523,-7.812,-38.574,999.512,0.000
1737550316.799,-15.625,-6.836,-18.066,476.562,0.000
1737550316.802,-115.723,-20.508,-6.836,-768.066,0.000
1737550316.806,-134.277,-18.555,-4.395,-1000.000,0.000
1737550316.810,-27.832,-7.324,-13.184,-11.230,0.000
1737550316.814,96.680,-2.930,-29.297,999.512,0.000
1737550316.818,29.785,-9.766,-23.926,312.500,0.000
1737550316.822,-105.957,-10.742,-20.508,-911.621,0.000
1737550316.826,-148.438,-14.648,-31.738,-1000.000,0.000
1737550316.830,-49.805,-16.113,-28.320,-190.430,0.000
1737550316.834,37.598,4.883,-31.250,999.512,0.000
1737550316.838,-18.066,1.953,-30.273,604.980,0.000
1737550316.842,-108.887,-22.461,-17.090,-616.699,0.000
1737550316.845,-200.684,-17.578,-16.113,-1000.000,0.000
1737550316.849,-122.559,-10.742,-18.066,-186.523,0.000
1737550316.853,32.227,-9.277,-21.973,999.512,0.000
1737550316.857,0.977,-14.648,-23.438,891.113,0.000
1737550316.861,-132.324,-20.508,-20.020,-170.898,0.000
1737550316.865,-230.469,-20.020,-23.438,-1000.000,0.000
1737550316.869,-185.059,-32.227,-24.414,-547.852,0.000
1737550316.873,-49.316,-17.090,-20.996,869.141,0.000
1737550316.877,-45.898,-7.812,-20.508,764.648,0.000
1737550316.881,-166.504,-17.578,-22.949,-503.418,0.000
1737550316.885,-240.723,-19.043,-24.902,-1000.000,0.000
1737550316.888,-168.945,-17.578,-25.391,-416.992,0.000
1737550316.892,-51.270,-19.531,-24.902,911.133,0.000
1737550316.896,-55.664,-24.414,-20.508,938.965,0.000
1737550316.900,-171.387,-21.973,-22.461,-206.543,0.000
1737550316.904,-263.672,-5.371,-33.203,-1000.000,0.000
1737550316.908,-202.148,-19.043,-27.344,-655.762,0.000
1737550316.912,-60.547,-33.203,-14.160,669.434,0.000
1737550316.916,-55.176,-10.254,-21.973,999.512,0.000
1737550316.920,-156.250,-28.320,-12.207,-154.785,0.000
1737550316.924,-192.383,-38.086,-11.230,-1000.000,0.000
1737550316.927,-191.895,-18.555,-18.555,-869.141,0.000
1737550316.931,-103.027,-13.672,-5.859,298.828,0.000
1737550316.935,-19.531,-13.672,-13.672,999.512,0.000
1737550316.939,-96.680,-16.602,-27.344,192.383,0.000
1737550316.943,-224.121,-29.297,-21.973,-974.609,0.000
1737550316.947,-247.559,-32.715,-20.996,-993.164,0.000
1737550316.951,-107.422,-14.648,-21.973,177.734,0.000
1737550316.955,-4.883,-15.625,-18.555,999.512,0.000
1737550316.959,-102.539,-28.320,-25.391,123.535,0.000
1737550316.963,-239.258,-30.762,-33.203,-1000.000,0.000
1737550316.967,-235.352,-24.414,-23.926,-960.938,0.000
1737550316.970,-98.145,-6.348,-6.348,167.480,0.000
1737550316.974,-46.875,4.883,-10.254,999.512,0.000
1737550316.978,-116.699,-6.836,-10.254,442.383,0.000
1737550316.982,-211.426,-18.066,-14.160,-781.738,0.000
1737550316.986,-267.090,-17.578,-21.973,-1000.000,0.000
1737550316.990,-153.320,-13.184,-21.484,-61.035,0.000
1737550316.994,-42.480,-14.648,-17.090,999.512,0.000
1737550316.998,-66.895,-8.301,-21.973,716.309,0.000
1737550317.002,-208.496,-5.371,-32.227,-454.102,0.000
1737550317.006,-293.945,-8.789,-31.738,-1000.000,0.000
1737550317.009,-186.035,-4.395,-27.832,-202.148,0.000
1737550317.013,-69.336,-6.836,-22.461,999.512,0.000
1737550317.017,-83.008,-2.930,-28.809,750.977,0.000
1737550317.021,-220.215,3.418,-35.645,-396.973,0.000
1737550317.025,-293.945,-4.883,-38.086,-1000.000,0.000
1737550317.029,-177.246,-8.789,-29.297,-265.137,0.000
1737550317.033,-37.109,-7.812,-17.090,999.512,0.000
1737550317.037,-67.871,-17.578,-17.090,800.781,0.000
1737550317.041,-195.312,-21.484,-23.926,-342.773,0.000
1737550317.045,-266.113,-23.926,-31.250,-1000.000,0.000
1737550317.049,-185.059,-16.602,-34.668,-449.707,0.000
1737550317.052,-57.129,-15.625,-31.738,890.137,0.000
1737550317.056,-53.223,-23.926,-21.484,931.641,0.000
1737550317.060,-175.293,-23.438,-15.137,-220.215,0.000
1737550317.064,-268.066,-21.973,-22.949,-1000.000,0.000
1737550317.068,-225.098,-13.672,-24.902,-675.293,0.000
1737550317.072,-104.492,-2.930,-18.066,647.949,0.000
1737550317.076,-57.129,-12.695,-21.484,998.047,0.000
1737550317.080,-176.758,-25.879,-25.879,-184.082,0.000
1737550317.084,-285.156,-26.367,-21.484,-1000.000,0.000
1737550317.088,-209.473,-23.438,-27.344,-664.551,0.000
1737550317.092,-61.523,-13.672,-35.645,613.770,0.000
1737550317.095,-11.719,-13.672,-26.855,999.512,0.000
1737550317.099,-128.906,-23.438,-23.926,129.883,0.000
1737550317.103,-261.230,-27.832,-27.344,-1000.000,0.000
1737550317.107,-242.188,-24.902,-21.973,-994.629,0.000
1737550317.111,-110.840,-17.090,-18.555,144.531,0.000
1737550317.115,-12.695,-15.137,-28.809,999.512,0.000
1737550317.119,-106.445,-17.578,-36.621,157.715,0.000
1737550317.123,-226.562,-15.137,-31.250,-988.770,0.000
1737550317.127,-236.816,-14.160,-19.531,-1000.000,0.000
1737550317.131,-134.766,-13.184,-12.207,78.613,0.000
1737550317.134,-41.016,-17.090,-14.160,999.512,0.000
1737550317.138,-101.074,-17.578,-18.555,429.199,0.000
1737550317.142,-213.379,-22.949,-21.973,-822.754,0.000
1737550317.146,-254.395,-17.090,-18.555,-1000.000,0.000
1737550317.150,-135.742,-8.301,-24.902,-57.617,0.000
1737550317.154,-36.621,-15.137,-22.461,999.512,0.000
1737550317.158,-72.754,-16.113,-35.156,465.820,0.000
1737550317.162,-162.598,-18.555,-33.691,-780.273,0.000
1737550317.166,-245.605,-11.230,-13.672,-1000.000,0.000
1737550317.170,-134.766,-9.277,-7.324,-149.902,0.000
1737550317.174,-4.395,-25.391,-4.395,999.512,0.000
1737550317.177,-91.797,-9.766,-22.461,518.555,0.000
1737550317.181,-234.375,-15.137,-31.250,-724.121,0.000
1737550317.185,-240.234,-54.199,-18.555,-1000.000,0.000
1737550317.189,-125.977,-36.133,-19.043,-212.402,0.000
1737550317.193,-22.461,-6.836,-22.949,999.512,0.000
1737550317.197,-42.969,-10.742,-20.508,846.680,0.000
1737550317.201,-166.992,-14.160,-19.531,-269.531,0.000
1737550317.205,-262.695,-23.438,-29.297,-1000.000,0.000
1737550317.209,-171.387,-28.320,-22.949,-561.523,0.000
1737550317.213,-49.805,-19.043,-15.137,825.684,0.000
1737550317.217,-53.711,-18.555,-28.809,820.312,0.000
1737550317.220,-149.902,-16.113,-32.227,-391.113,0.000
1737550317.224,-279.297,-20.020,-33.691,-1000.000,0.000
1737550317.228,-236.816,-34.180,-32.715,-528.809,0.000
1737550317.232,-46.387,-23.926,-21.973,849.609,0.000
1737550317.236,-26.855,-15.137,-24.902,882.812,0.000
1737550317.240,-166.992,-20.996,-21.973,-333.496,0.000
1737550317.244,-239.746,-16.113,-23.926,-1000.000,0.000
1737550317.248,-200.684,-21.973,-15.625,-682.617,0.000
1737550317.252,-76.660,-21.484,-13.184,606.445,0.000
1737550317.256,-18.066,0.000,-28.320,999.512,0.000
1737550317.259,-127.930,-6.348,-30.273,-117.188,0.000
1737550317.263,-222.656,-29.785,-23.926,-1000.000,0.000
1737550317.267,-193.359,-23.926,-20.508,-823.730,0.000
1737550317.271,-96.191,-16.113,-13.184,382.812,0.000
1737550317.275,-36.621,-8.789,-22.949,999.512,0.000
1737550317.279,-79.590,-12.207,-27.832,295.410,0.000
1737550317.283,-240.234,-15.625,-18.555,-893.066,0.000
1737550317.287,-291.504,-19.043,-26.367,-1000.000,0.000
1737550317.291,-103.027,-24.902,-18.555,84.961,0.000
1737550317.295,15.137,-11.719,-3.418,999.512,0.000
1737550317.299,-54.199,-15.137,-6.348,423.828,0.000
1737550317.302,-174.805,-13.672,-9.277,-814.453,0.000
1737550317.306,-230.469,-8.789,-22.949,-1000.000,0.000
1737550317.310,-126.465,-14.160,-34.180,54.199,0.000
1737550317.314,-59.082,-3.906,-18.555,999.512,0.000
1737550317.318,-87.891,-16.602,-11.230,585.449,0.000
1737550317.322,-185.547,-36.621,-17.090,-667.480,0.000
1737550317.326,-260.254,-17.578,-20.508,-1000.000,0.000
1737550317.330,-109.863,-8.789,-22.461,78.125,0.000
1737550317.334,-7.324,-13.184,-23.438,999.512,0.000
1737550317.338,-80.566,-21.973,-20.020,592.773,0.000
1737550317.341,-202.637,-27.344,-19.043,-603.027,0.000
1737550317.345,-279.297,-29.785,-22.949,-1000.000,0.000
1737550317.349,-208.496,-24.414,-14.160,-231.934,0.000
1737550317.353,-100.098,-16.113,-18.555,999.512,0.000
1737550317.357,-96.191,-13.672,-26.367,787.598,0.000
1737550317.361,-183.594,-18.066,-27.832,-360.840,0.000
1737550317.365,-275.879,-24.414,-31.250,-1000.000,0.000
1737550317.369,-218.262,-26.855,-28.809,-373.535,0.000
1737550317.373,-82.031,-21.484,-20.996,967.285,0.000
1737550317.377,-64.941,-16.113,-13.672,866.699,0.000
1737550317.381,-203.613,-25.879,-14.648,-288.574,0.000
1737550317.384,-286.133,-31.738,-18.066,-1000.000,0.000
1737550317.388,-177.246,-15.625,-20.508,-463.867,0.000
1737550317.392,-105.469,4.395,-32.715,878.418,0.000
1737550317.396,-112.305,-8.789,-34.668,941.406,0.000
1737550317.400,-187.500,-28.809,-21.973,-210.449,0.000
1737550317.404,-278.809,-31.250,-21.973,-1000.000,0.000
1737550317.408,-258.789,-26.367,-28.809,-685.059,0.000
1737550317.412,-137.207,-16.113,-27.832,587.891,0.000
1737550317.416,-75.195,-7.812,-23.438,999.512,0.000
1737550317.420,-158.691,-8.789,-22.461,97.168,0.000
1737550317.423,-308.594,-1.465,-39.551,-1000.000,0.000
1737550317.427,-321.289,-3.906,-41.504,-736.816,0.000
1737550317.431,-112.793,-24.414,-21.484,574.707,0.000
1737550317.435,-21.973,-22.949,-35.156,999.512,0.000
1737550317.439,-159.668,-3.906,-48.340,61.035,0.000
1737550317.443,-276.855,-7.812,-36.133,-1000.000,0.000
1737550317.447,-250.000,-23.438,-23.926,-860.840,0.000
1737550317.451,-109.375,-19.043,-17.090,369.629,0.000
1737550317.455,-29.297,-15.137,-10.254,999.512,0.000
1737550317.459,-89.844,-21.484,-12.207,502.930,0.000
1737550317.463,-232.910,-20.508,-26.855,-732.422,0.000
1737550317.466,-296.387,-17.578,-23.926,-1000.000,0.000
1737550317.470,-146.973,-15.137,-19.043,131.348,0.000
1737550317.474,-49.805,-17.090,-23.926,999.512,0.000
1737550317.478,-83.984,-15.625,-24.414,540.039,0.000
1737550317.482,-204.590,-21.973,-31.250,-724.121,0.000
1737550317.486,-262.695,-29.297,-25.879,-1000.000,0.000
1737550317.490,-161.621,-2.441,-22.949,108.398,0.000
1737550317.494,-83.496,-3.906,-25.879,999.512,0.000
1737550317.498,-116.211,-23.926,-21.484,452.148,0.000
1737550317.502,-255.859,-27.344,-13.184,-763.184,0.000
1737550317.506,-299.805,-33.203,-15.137,-1000.000,0.000
1737550317.509,-149.902,-24.414,-23.926,-138.184,0.000
1737550317.513,-37.598,-13.672,-17.578,999.512,0.000
1737550317.517,-67.871,-18.066,-18.555,719.727,0.000
1737550317.521,-161.621,-21.973,-25.879,-452.148,0.000
1737550317.525,-254.883,-20.996,-25.391,-1000.000,0.000
1737550317.529,-171.875,-24.902,-25.879,-280.762,0.000
1737550317.533,-43.457,-22.949,-13.672,999.512,0.000
1737550317.537,-68.359,-19.531,-4.883,832.031,0.000
1737550317.541,-170.898,-11.230,-11.230,-298.340,0.000
1737550317.545,-253.906,-16.602,-19.043,-1000.000,0.000
1737550317.549,-177.734,-25.879,-30.762,-474.609,0.000
1737550317.552,-68.848,-10.254,-20.508,848.633,0.000
1737550317.556,-70.801,-3.906,-10.742,985.840,0.000
1737550317.560,-123.535,-21.484,-16.602,-78.125,0.000
1737550317.564,-224.121,-29.297,-24.414,-1000.000,0.000
1737550317.568,-206.055,-17.578,-23.926,-611.816,0.000
1737550317.572,-100.586,-7.324,-13.184,689.941,0.000
1737550317.576,-55.176,0.977,-21.973,999.512,0.000
1737550317.580,-140.137,-9.766,-22.949,99.609,0.000
1737550317.584,-260.254,-30.762,-18.066,-1000.000,0.000
1737550317.588,-182.129,-27.832,-23.438,-753.418,0.000
1737550317.591,-57.617,-8.301,-23.926,538.574,0.000
1737550317.595,-44.922,-11.719,-20.508,999.512,0.000
1737550317.599,-115.234,-28.320,-13.672,233.398,0.000
1737550317.603,-211.914,-25.879,-16.602,-957.520,0.000
1737550317.607,-245.117,-9.277,-26.855,-896.484,0.000
1737550317.611,-113.281,-14.160,-20.020,385.742,0.000
1737550317.615,-8.301,-25.879,-24.902,999.512,0.000
1737550317.619,-116.699,-24.414,-19.531,79.590,0.000
1737550317.623,-212.891,-9.766,-9.766,-1000.000,0.000
1737550317.627,-232.910,-12.695,-13.672,-1000.000,0.000
1737550317.631,-134.766,-25.879,-7.324,90.332,0.000
1737550317.634,-5.371,-12.207,-5.859,999.512,0.000
1737550317.638,-82.031,8.301,-20.020,389.648,0.000
1737550317.642,-208.496,-9.766,-15.625,-839.844,0.000
1737550317.646,-209.961,-28.320,-16.602,-1000.000,0.000
1737550317.650,-82.031,-19.531,-24.902,30.762,0.000
1737550317.654,10.254,-8.789,-21.484,999.512,0.000
1737550317.658,-53.711,-11.230,-18.066,723.145,0.000
1737550317.662,-191.895,-22.949,-31.250,-420.410,0.000
1737550317.666,-268.555,-30.762,-37.109,-1000.000,0.000
1737550317.670,-116.211,-26.367,-18.066,-140.137,0.000
1737550317.673,-18.555,-14.648,-21.484,999.512,0.000
1737550317.677,-99.609,-6.836,-32.227,616.699,0.000
1737550317.681,-211.426,-20.508,-26.367,-594.238,0.000
1737550317.685,-253.906,-35.156,-24.902,-1000.000,0.000
1737550317.689,-173.340,-10.254,-24.414,-215.332,0.000
1737550317.693,-66.406,-11.230,-6.836,999.512,0.000
1737550317.697,-57.129,-18.555,-9.277,792.480,0.000
1737550317.701,-162.109,-10.254,-30.762,-333.496,0.000
1737550317.705,-252.441,-24.414,-31.250,-1000.000,0.000
1737550317.709,-164.062,-19.531,-19.531,-346.680,0.000
1737550317.713,-51.758,1.465,-9.766,989.746,0.000
1737550317.716,-64.453,-10.742,-15.625,852.539,0.000
1737550317.720,-128.418,-8.789,-27.344,-302.734,0.000
1737550317.724,-229.492,-15.625,-24.414,-1000.000,0.000
1737550317.728,-165.527,-31.250,-20.508,-481.445,0.000
1737550317.732,-9.277,-15.137,-16.113,850.586,0.000
1737550317.736,-3.906,5.859,-22.949,966.309,0.000
1737550317.740,-82.520,-18.555,-30.762,-142.578,0.000
1737550317.744,-139.160,-44.922,-17.090,-1000.000,0.000
1737550317.748,-81.055,-22.461,-16.602,-550.781,0.000
1737550317.752,14.648,-6.348,-18.555,769.043,0.000
1737550317.756,63.965,-9.277,-10.254,999.512,0.000
1737550317.759,-1.465,-13.672,-10.254,6.836,0.000
1737550317.763,-142.578,-23.438,-12.207,-1000.000,0.000
1737550317.767,-126.953,-25.391,-14.648,-802.734,0.000
1737550317.771,8.301,-20.508,-10.742,477.539,0.000
1737550317.775,84.961,-21.484,-15.137,999.512,0.000
1737550317.779,-32.715,-17.090,-26.855,-43.457,0.000
1737550317.783,-149.414,-15.625,-32.715,-1000.000,0.000
1737550317.787,-136.230,-26.855,-17.578,-894.531,0.000
1737550317.791,-8.301,-11.230,-9.766,250.977,0.000
1737550317.795,94.238,-5.859,-15.137,999.512,0.000
1737550317.798,34.668,-13.184,-9.277,525.391,0.000
1737550317.802,-110.352,-22.949,-9.766,-723.633,0.000
1737550317.806,-171.875,-23.926,-18.555,-1000.000,0.000
1737550317.810,-41.992,-12.695,-9.766,9.277,0.000
1737550317.814,77.637,-10.254,-1.465,999.512,0.000
1737550317.818,18.555,-12.207,-5.371,420.898,0.000
1737550317.822,-124.023,-15.137,-20.996,-839.355,0.000
1737550317.826,-159.668,-9.277,-20.996,-1000.000,0.000
1737550317.830,-41.504,-6.836,-11.230,-13.184,0.000
1737550317.834,51.758,-10.254,-16.113,999.512,0.000
1737550317.838,-3.418,-9.766,-26.367,555.176,0.000
1737550317.841,-125.000,-10.254,-28.809,-652.832,0.000
1737550317.845,-190.430,-29.785,-18.066,-1000.000,0.000
1737550317.849,-71.289,-21.484,-14.160,-179.199,0.000
1737550317.853,45.898,-0.977,-18.555,999.512,0.000
1737550317.857,-4.883,-23.438,-16.113,703.125,0.000
1737550317.861,-103.516,-32.715,-13.184,-462.891,0.000
1737550317.865,-158.691,-27.344,-13.672,-1000.000,0.000
1737550317.869,-107.422,-19.531,-24.414,-370.605,0.000
1737550317.873,4.883,-14.160,-24.414,951.172,0.000
1737550317.877,-15.137,-11.230,-24.414,909.668,0.000
1737550317.881,-120.117,-19.043,-25.391,-208.008,0.000
1737550317.884,-187.988,-31.738,-25.391,-1000.000,0.000
1737550317.888,-121.582,-24.414,-22.461,-365.234,0.000
1737550317.892,-20.020,-16.113,-18.066,944.824,0.000
1737550317.896,-29.785,-11.719,-10.742,981.445,0.000
1737550317.900,-91.797,-20.508,-1.953,-54.199,0.000
1737550317.904,-202.637,-35.156,-11.719,-1000.000,0.000
1737550317.908,-168.945,-26.855,-20.020,-657.715,0.000
1737550317.912,-40.527,-6.836,-16.113,671.387,0.000
1737550317.916,-30.762,-3.418,-20.508,999.512,0.000
1737550317.920,-104.980,-24.414,-17.578,-40.039,0.000
1737550317.924,-192.383,-38.574,-12.207,-1000.000,0.000
1737550317.927,-198.242,-33.691,-36.133,-764.160,0.000
1737550317.931,-76.172,-23.926,-33.203,477.539,0.000
1737550317.935,-9.277,-6.836,-12.695,999.512,0.000
1737550317.939,-89.355,-10.742,-21.973,355.469,0.000
1737550317.943,-192.871,-25.879,-16.602,-924.316,0.000
1737550317.947,-215.332,-27.344,-8.301,-972.656,0.000
1737550317.951,-91.797,-14.160,-12.695,242.676,0.000
1737550317.955,-38.574,3.906,-15.625,999.512,0.000
1737550317.959,-99.609,-26.367,-11.719,256.348,0.000
1737550317.963,-156.250,-36.133,-13.184,-986.328,0.000
1737550317.966,-216.797,-5.859,-23.438,-971.680,0.000
1737550317.970,-124.512,-7.324,-34.668,198.242,0.000
1737550317.974,5.371,-14.160,-32.227,999.512,0.000
1737550317.978,-56.641,11.230,-24.414,615.234,0.000
1737550317.982,-193.359,-8.789,-19.531,-570.801,0.000
1737550317.986,-256.836,-39.062,-18.066,-1000.000,0.000
1737550317.990,-153.809,-34.180,-13.184,-51.758,0.000
1737550317.994,-36.133,-1.953,-15.625,999.512,0.000
1737550317.998,-58.105,-3.906,-21.973,630.859,0.000
1737550318.002,-190.430,-24.902,-16.113,-547.363,0.000
1737550318.006,-288.574,-25.879,-17.090,-1000.000,0.000
1737550318.009,-131.836,-1.953,-35.645,-145.508,0.000
1737550318.013,11.230,-8.301,-30.762,999.512,0.000
1737550318.017,-17.578,-40.527,-6.836,774.414,0.000
1737550318.021,-187.988,-21.484,-20.996,-363.770,0.000
1737550318.025,-269.043,-33.691,-28.809,-1000.000,0.000
1737550318.029,-130.371,-36.621,-12.207,-181.641,0.000
1737550318.033,-59.082,-6.348,-12.695,999.512,0.000
1737550318.037,-63.477,-0.488,-21.484,942.383,0.000
1737550318.041,-128.906,-35.645,-6.836,-61.523,0.000
1737550318.045,-258.301,-39.551,-9.766,-1000.000,0.000
1737550318.048,-193.359,-25.879,-9.766,-401.855,0.000
1737550318.052,-76.172,-15.137,-6.348,879.883,0.000
1737550318.056,-55.176,-8.301,-15.137,999.512,0.000
1737550318.060,-159.668,-21.973,-12.695,208.984,0.000
1737550318.064,-301.758,-46.387,-8.301,-1000.000,0.000
1737550318.068,-208.496,-32.715,-15.137,-606.934,0.000
1737550318.072,-57.617,-14.160,-26.855,716.309,0.000
1737550318.076,-33.691,-20.020,-23.926,999.512,0.000
1737550318.080,-126.953,-18.555,-19.043,301.270,0.000
1737550318.084,-259.766,-20.996,-18.066,-1000.000,0.000
1737550318.088,-223.145,-24.902,-17.090,-652.344,0.000
1737550318.091,-100.586,-18.066,-18.066,689.453,0.000
1737550318.095,-55.176,-20.020,-6.836,999.512,0.000
1737550318.099,-146.973,-32.227,-6.348,203.125,0.000
1737550318.103,-267.578,-28.809,-11.719,-1000.000,0.000
1737550318.107,-246.582,-22.949,-18.066,-860.352,0.000
1737550318.111,-167.480,-19.043,-18.066,370.605,0.000
1737550318.115,-72.754,-15.137,-11.230,999.512,0.000
1737550318.119,-92.285,-10.742,-27.832,402.344,0.000
1737550318.123,-255.371,-13.184,-30.762,-899.902,0.000
1737550318.127,-263.672,-20.020,-18.066,-875.000,0.000
1737550318.130,-111.328,-17.578,-13.672,406.250,0.000
1737550318.134,-78.125,-21.973,-13.184,999.512,0.000
1737550318.138,-147.949,-23.926,-11.719,415.039,0.000
1737550318.142,-230.957,-26.367,-16.602,-779.785,0.000
1737550318.146,-275.879,-21.484,-20.996,-1000.000,0.000
1737550318.150,-175.293,-8.789,-25.879,12.207,0.000
1737550318.154,-53.223,-16.113,-26.855,999.512,0.000
1737550318.158,-103.027,-27.344,-20.996,828.125,0.000
1737550318.162,-247.559,-19.043,-33.203,-278.809,0.000
1737550318.166,-285.156,-17.090,-34.180,-1000.000,0.000
1737550318.170,-129.395,-16.113,-17.090,-134.277,0.000
1737550318.173,-28.809,-4.883,-14.160,999.512,0.000
1737550318.177,-90.820,-10.254,-17.090,622.559,0.000
1737550318.181,-198.730,-19.531,-6.348,-591.797,0.000
1737550318.185,-258.301,-14.648,-6.348,-1000.000,0.000
1737550318.189,-155.762,-12.695,-9.277,-93.262,0.000
1737550318.193,-42.480,-16.602,-15.137,999.512,0.000
1737550318.197,-63.477,-16.113,-17.578,851.074,0.000
1737550318.201,-170.898,-4.883,-12.207,-216.797,0.000
1737550318.205,-287.109,-10.254,-14.160,-1000.000,0.000
1737550318.209,-207.031,-10.742,-13.672,-279.785,0.000
1737550318.213,-74.707,-8.789,-8.789,979.004,0.000
1737550318.216,-89.355,-9.277,-5.859,999.512,0.000
1737550318.220,-196.289,-14.160,-13.672,21.484,0.000
1737550318.224,-248.047,-26.367,-24.902,-1000.000,0.000
1737550318.228,-159.180,-17.090,-22.461,-432.617,0.000
1737550318.232,-45.410,-14.160,-22.949,925.781,0.000
1737550318.236,-59.082,-6.836,-28.809,958.496,0.000
1737550318.240,-180.664,-13.184,-22.461,-137.695,0.000
1737550318.244,-271.973,-23.438,-14.160,-1000.000,0.000
1737550318.248,-219.727,-25.879,-12.695,-604.492,0.000
1737550318.252,-92.285,-19.531,-12.207,695.801,0.000
1737550318.255,-46.875,-5.859,-17.090,999.512,0.000
1737550318.259,-129.883,-9.766,-26.367,155.762,0.000
1737550318.263,-272.949,-21.973,-29.785,-1000.000,0.000
1737550318.267,-256.348,-29.785,-21.484,-824.707,0.000
1737550318.271,-111.328,-24.902,-20.508,428.223,0.000
1737550318.275,-66.895,-14.648,-27.344,999.512,0.000
1737550318.279,-117.188,-14.648,-23.438,298.340,0.000
1737550318.283,-219.727,-23.438,-18.066,-933.105,0.000
1737550318.287,-249.512,-6.348,-27.344,-904.785,0.000
1737550318.291,-135.742,-18.066,-31.250,345.215,0.000
1737550318.295,-43.457,-34.668,-22.461,999.512,0.000
1737550318.298,-116.211,-15.137,-20.020,240.234,0.000
1737550318.302,-201.172,-17.578,-25.879,-949.707,0.000
1737550318.306,-207.031,-32.715,-16.602,-1000.000,0.000
1737550318.310,-116.699,-20.508,-15.137,110.352,0.000
1737550318.314,-39.062,-3.906,-17.578,999.512,0.000
1737550318.318,-106.934,-5.371,-16.113,414.551,0.000
1737550318.322,-210.449,-22.949,-18.066,-809.082,0.000
1737550318.326,-282.715,-27.344,-14.160,-1000.000,0.000
1737550318.330,-160.156,-15.137,-6.348,-62.012,0.000
1737550318.334,-9.277,-10.742,-2.930,999.512,0.000
1737550318.338,-65.430,-18.066,-6.348,596.680,0.000
1737550318.341,-182.617,-21.484,-17.090,-618.652,0.000
1737550318.345,-246.094,-15.625,-22.949,-1000.000,0.000
1737550318.349,-164.551,-20.996,-13.672,-191.895,0.000
1737550318.353,-30.273,-14.160,-19.043,999.512,0.000
1737550318.357,-24.414,-9.766,-19.043,824.219,0.000
1737550318.361,-154.297,-18.066,-15.137,-285.156,0.000
1737550318.365,-260.742,-23.926,-18.555,-1000.000,0.000
1737550318.369,-170.898,-22.949,-10.742,-278.320,0.000
1737550318.373,-49.316,-17.090,-16.113,999.512,0.000
1737550318.377,-62.988,-23.438,-24.414,829.590,0.000
1737550318.380,-170.898,-32.227,-18.066,-289.551,0.000
1737550318.384,-247.070,-27.344,-14.648,-1000.000,0.000
1737550318.388,-177.734,-11.719,-22.949,-411.621,0.000
1737550318.392,-61.523,-1.465,-21.484,922.852,0.000
1737550318.396,-28.320,-9.766,-17.578,925.293,0.000
1737550318.400,-146.973,-22.461,-14.160,-197.266,0.000
1737550318.404,-266.113,-21.484,-8.301,-1000.000,0.000
1737550318.408,-184.082,-13.184,-14.648,-645.020,0.000
1737550318.412,-54.688,-13.184,-10.742,688.965,0.000
1737550318.416,-35.156,-12.695,-13.184,995.605,0.000
1737550318.420,-124.023,-21.973,-23.438,-171.387,0.000
1737550318.423,-222.656,-28.320,-18.555,-1000.000,0.000
1737550318.427,-205.566,-9.277,-19.531,-763.184,0.000
1737550318.431,-104.980,-8.789,-8.301,491.699,0.000
1737550318.435,-44.434,-23.438,-5.371,999.512,0.000
1737550318.439,-123.047,-10.742,-23.926,-14.648,0.000
1737550318.443,-253.906,-13.184,-24.414,-1000.000,0.000
1737550318.447,-225.098,-23.926,-21.484,-840.820,0.000
1737550318.451,-81.543,-13.672,-19.043,358.398,0.000
1737550318.455,17.090,-0.977,-12.695,999.512,0.000
1737550318.459,-63.965,-2.930,-5.371,342.285,0.000
1737550318.463,-224.121,-11.230,-15.625,-883.789,0.000
1737550318.466,-246.094,-9.277,-25.879,-1000.000,0.000
1737550318.470,-140.625,-0.488,-20.996,46.387,0.000
1737550318.474,-57.617,5.859,-20.996,999.512,0.000
1737550318.478,-171.875,0.488,-32.715,196.777,0.000
1737550318.482,-285.156,0.488,-34.180,-946.289,0.000
1737550318.486,-319.336,-3.906,-29.297,-1000.000,0.000
1737550318.490,-245.117,-1.465,-35.156,-166.504,0.000
1737550318.494,-111.816,12.207,-36.621,999.512,0.000
1737550318.498,-177.246,8.789,-32.227,494.141,0.000
1737550318.502,-339.844,1.465,-40.039,-743.164,0.000
1737550318.505,-405.762,1.465,-41.016,-1000.000,0.000
1737550318.509,-276.855,3.418,-34.668,-277.832,0.000
1737550318.513,-146.973,17.090,-41.504,999.512,0.000
1737550318.517,-202.148,24.414,-50.293,585.938,0.000
1737550318.521,-335.938,1.465,-50.781,-681.641,0.000
1737550318.525,-397.461,-5.859,-40.039,-1000.000,0.000
1737550318.529,-303.711,7.324,-30.273,-253.418,0.000
1737550318.533,-178.711,16.602,-39.062,999.512,0.000
1737550318.537,-181.641,4.395,-37.109,821.777,0.000
1737550318.541,-254.883,-7.324,-32.715,-325.195,0.000
1737550318.545,-314.453,-3.906,-34.180,-1000.000,0.000
1737550318.548,-233.398,-3.418,-26.367,-240.723,0.000
1737550318.552,-89.844,-9.277,-34.180,999.512,0.000
1737550318.556,-41.016,0.488,-42.480,929.688,0.000
1737550318.560,-156.738,-7.812,-27.344,-106.934,0.000
1737550318.564,-273.926,-17.090,-17.090,-1000.000,0.000
1737550318.568,-182.129,-7.812,-24.414,-499.512,0.000
1737550318.572,-50.293,-20.020,-21.973,822.754,0.000
1737550318.576,-1.465,-28.320,-13.672,999.512,0.000
1737550318.580,-65.918,-21.973,-21.484,39.062,0.000
1737550318.584,-199.707,-26.367,-24.902,-1000.000,0.000
1737550318.587,-170.410,-28.320,-22.949,-704.590,0.000
1737550318.591,-28.320,-17.090,-8.789,586.426,0.000
1737550318.595,9.277,-15.625,4.395,999.512,0.000
1737550318.599,-46.387,-25.391,-12.695,200.195,0.000
1737550318.603,-112.305,-37.109,-38.086,-1000.000,0.000
1737550318.607,-113.770,-35.645,-32.715,-844.727,0.000
1737550318.611,-25.879,-15.137,-9.766,416.016,0.000
1737550318.615,49.316,-9.277,-3.906,999.512,0.000
1737550318.619,-49.316,-22.949,-6.348,304.688,0.000
1737550318.623,-170.410,-33.203,-3.906,-946.289,0.000
1737550318.627,-152.832,-26.855,-15.625,-845.215,0.000
1737550318.630,-29.785,-19.043,-11.719,405.273,0.000
1737550318.634,43.945,-27.832,-12.695,999.512,0.000
1737550318.638,-11.719,-39.551,-20.508,579.590,0.000
1737550318.642,-132.324,-40.039,-16.602,-613.770,0.000
1737550318.646,-195.801,-32.715,-14.648,-1000.000,0.000
1737550318.650,-77.637,-13.672,-1.953,73.242,0.000
1737550318.654,19.043,-8.301,3.418,999.512,0.000
1737550318.658,-41.016,-19.531,-6.836,576.660,0.000
1737550318.662,-125.977,-30.762,-12.695,-647.461,0.000
1737550318.666,-175.293,-27.832,-15.625,-1000.000,0.000
1737550318.670,-97.168,-22.461,-7.324,-116.211,0.000
1737550318.673,4.883,-27.832,-1.465,999.512,0.000
1737550318.677,-58.105,-31.738,-7.812,635.742,0.000
1737550318.681,-169.434,-19.531,-25.391,-556.152,0.000
1737550318.685,-201.660,-17.578,-31.738,-1000.000,0.000
1737550318.689,-96.680,-29.297,-10.254,-138.672,0.000
1737550318.693,-30.762,-20.996,-5.371,999.512,0.000
1737550318.697,-60.547,-18.066,-17.578,637.695,0.000
1737550318.701,-152.832,-21.484,-17.090,-548.340,0.000
1737550318.705,-234.375,-32.715,-10.742,-1000.000,0.000
1737550318.709,-125.488,-26.367,-10.742,-246.582,0.000
1737550318.713,-69.824,-15.625,-11.230,999.512,0.000
1737550318.716,-157.227,-22.461,-16.113,741.211,0.000
1737550318.720,-246.094,-15.625,-23.926,-423.340,0.000
1737550318.724,-314.941,-23.926,-14.648,-1000.000,0.000
1737550318.728,-274.414,-33.203,-7.324,-511.719,0.000
1737550318.732,-174.316,-20.996,-18.066,797.363,0.000
1737550318.736,-149.902,-18.066,-17.090,999.512,0.000
1737550318.740,-241.699,-28.809,-15.137,-37.109,0.000
1737550318.744,-364.258,-32.715,-16.113,-1000.000,0.000
1737550318.748,-311.523,-26.855,-15.625,-625.977,0.000
1737550318.752,-199.707,-25.879,-18.555,690.918,0.000
1737550318.755,-169.922,-29.785,-5.371,999.512,0.000
1737550318.759,-208.984,-24.414,-2.930,73.242,0.000
1737550318.763,-317.871,-17.578,-17.090,-1000.000,0.000
1737550318.767,-282.715,-13.184,-21.484,-604.980,0.000
1737550318.771,-139.160,-11.719,-13.184,716.797,0.000
1737550318.775,-122.070,-20.020,-6.836,999.512,0.000
1737550318.779,-194.824,-15.137,-3.418,403.320,0.000
1737550318.783,-319.824,-12.695,-16.113,-800.293,0.000
1737550318.787,-363.770,-16.113,-29.297,-965.820,0.000
1737550318.791,-257.324,-26.367,-20.020,291.504,0.000
1737550318.795,-136.230,-29.785,-20.508,999.512,0.000
1737550318.798,-138.184,-30.273,-18.555,713.379,0.000
1737550318.802,-270.020,-30.762,-20.020,-416.504,0.000
1737550318.806,-393.066,-24.902,-21.973,-1000.000,0.000
1737550318.810,-263.184,-21.484,-7.812,28.320,0.000
1737550318.814,-92.773,-10.742,-6.348,999.512,0.000
1737550318.818,-144.043,-6.348,-17.090,617.676,0.000
1737550318.822,-276.855,-20.996,-21.484,-630.371,0.000
1737550318.826,-344.238,-19.043,-19.043,-1000.000,0.000
1737550318.830,-240.723,-11.230,-15.625,88.379,0.000
1737550318.834,-166.504,-18.555,-24.902,999.512,0.000
1737550318.837,-200.684,-21.484,-27.344,636.719,0.000
1737550318.841,-289.551,-20.020,-20.996,-538.574,0.000
1737550318.845,-363.281,-24.414,-15.625,-1000.000,0.000
1737550318.849,-306.152,-15.137,-16.113,-73.242,0.000
1737550318.853,-206.543,-11.719,-13.672,999.512,0.000
1737550318.857,-171.875,-7.324,-8.301,820.801,0.000
1737550318.861,-331.543,-8.301,-9.766,-266.602,0.000
1737550318.865,-403.320,-24.414,-15.137,-1000.000,0.000
1737550318.869,-240.234,-23.438,-10.742,-215.332,0.000
1737550318.873,-127.441,-14.160,-1.465,999.512,0.000
1737550318.877,-138.672,-8.789,-11.719,840.820,0.000
1737550318.880,-245.117,-13.184,-11.719,-251.953,0.000
1737550318.884,-341.797,-13.184,-11.230,-1000.000,0.000
1737550318.888,-258.789,-13.672,-15.625,-359.863,0.000
1737550318.892,-120.117,-10.254,-3.906,970.215,0.000
1737550318.896,-139.160,-5.371,-2.441,903.320,0.000
1737550318.900,-248.047,-19.043,-6.836,-209.473,0.000
1737550318.904,-337.891,-14.648,-10.742,-1000.000,0.000
1737550318.908,-245.605,-25.391,-11.719,-439.941,0.000
1737550318.912,-79.102,-31.738,-10.254,854.492,0.000
1737550318.916,-68.848,-24.902,-7.812,999.512,0.000
1737550318.919,-167.969,-28.809,-10.742,217.773,0.000
1737550318.923,-285.156,-26.855,-15.625,-1000.000,0.000
1737550318.927,-237.305,-29.785,-15.137,-703.613,0.000
1737550318.931,-104.980,-24.414,-18.066,644.043,0.000
1737550318.935,-62.012,-19.043,-16.113,999.512,0.000
1737550318.939,-154.297,-24.414,-23.926,117.676,0.000
1737550318.943,-279.297,-29.297,-25.879,-1000.000,0.000
1737550318.947,-227.539,-19.043,-12.695,-700.195,0.000
1737550318.951,-80.566,-0.977,-18.066,591.797,0.000
1737550318.955,-54.199,-2.930,-16.602,999.512,0.000
1737550318.959,-119.141,-13.184,-15.137,414.551,0.000
1737550318.962,-218.262,-0.977,-26.367,-905.762,0.000
1737550318.966,-243.652,0.977,-21.973,-818.359,0.000
1737550318.970,-125.488,-11.719,-17.090,529.297,0.000
1737550318.974,0.000,-10.254,-21.484,999.512,0.000
1737550318.978,-53.223,-12.207,-24.414,522.461,0.000
1737550318.982,-192.871,-21.973,-25.879,-729.980,0.000
1737550318.986,-203.613,-25.391,-16.113,-1000.000,0.000
1737550318.990,-75.195,-17.090,-9.277,203.125,0.000
1737550318.994,-8.789,-9.766,-16.113,999.512,0.000
1737550318.998,-60.059,-9.766,-18.066,729.492,0.000
1737550319.002,-174.316,-11.230,-12.695,-400.391,0.000
1737550319.005,-238.770,-16.113,-16.113,-1000.000,0.000
1737550319.009,-126.953,-17.578,-17.578,-39.551,0.000
1737550319.013,-25.879,-14.160,-14.160,999.512,0.000
1737550319.017,-72.754,-10.742,-24.902,731.934,0.000
1737550319.021,-201.172,-14.648,-31.250,-418.457,0.000
1737550319.025,-239.258,-23.926,-13.672,-1000.000,0.000
1737550319.029,-106.445,-21.973,-11.230,-100.098,0.000
1737550319.033,-11.719,-16.602,-12.695,999.512,0.000
1737550319.037,-27.344,-22.461,-5.371,838.867,0.000
1737550319.041,-138.184,-20.996,-14.648,-234.863,0.000
1737550319.045,-273.926,-6.836,-19.531,-1000.000,0.000
1737550319.048,-199.707,-7.812,-11.719,-305.664,0.000
1737550319.052,-16.113,-17.578,-16.602,984.863,0.000
1737550319.056,-14.648,-25.391,-25.391,921.387,0.000
1737550319.060,-144.531,-21.973,-21.484,-71.777,0.000
1737550319.064,-251.953,-19.531,-23.926,-1000.000,0.000
1737550319.068,-189.941,-51.758,-17.090,-500.000,0.000
1737550319.072,-65.918,-41.016,-9.766,818.359,0.000
1737550319.076,-75.684,-12.207,-18.555,999.512,0.000
1737550319.080,-147.461,-14.648,-14.648,151.855,0.000
1737550319.084,-238.281,-22.949,-11.230,-1000.000,0.000
1737550319.087,-209.473,-23.438,-12.695,-659.668,0.000
1737550319.091,-94.727,-20.020,-13.672,721.680,0.000
1737550319.095,-97.656,-22.461,-16.602,967.285,0.000
1737550319.099,-175.293,-32.227,-36.621,-212.402,0.000
1737550319.103,-225.098,-30.273,-42.969,-1000.000,0.000
1737550319.107,-206.543,-20.508,-25.879,-692.871,0.000
1737550319.111,-118.164,-25.391,-13.672,594.238,0.000
1737550319.115,-92.285,-23.926,-13.672,999.512,0.000
1737550319.119,-181.641,-15.625,-21.484,-10.742,0.000
1737550319.123,-241.699,-37.598,-12.207,-1000.000,0.000
1737550319.127,-234.863,-44.434,-3.906,-847.656,0.000
1737550319.130,-157.715,-32.227,-5.859,354.492,0.000
1737550319.134,-79.590,-16.602,0.977,999.512,0.000
1737550319.138,-139.648,-20.996,6.836,208.008,0.000
1737550319.142,-230.469,-37.109,1.465,-998.535,0.000
1737550319.146,-205.078,-27.344,-9.277,-982.422,0.000
1737550319.150,-87.402,-22.461,-9.277,152.344,0.000
1737550319.154,-2.441,-21.973,-12.207,999.512,0.000
1737550319.158,-77.148,-21.484,-16.602,352.539,0.000
1737550319.162,-176.758,-30.273,-15.137,-884.277,0.000
1737550319.166,-176.758,-36.133,-19.531,-1000.000,0.000
1737550319.169,-45.898,-20.508,-15.625,1.953,0.000
1737550319.173,61.523,-10.742,-9.277,999.512,0.000
1737550319.177,6.836,-19.043,-6.836,521.973,0.000
1737550319.181,-83.496,-26.855,-11.230,-713.379,0.000
1737550319.185,-110.840,-22.949,-16.113,-1000.000,0.000
1737550319.189,24.902,-15.137,-17.090,-135.254,0.000
1737550319.193,178.711,-10.254,-17.090,999.512,0.000
1737550319.197,194.336,-1.953,-10.254,821.777,0.000
1737550319.201,175.293,-9.277,-15.137,-303.223,0.000
1737550319.205,153.320,-19.531,-14.648,-1000.000,0.000
1737550319.209,303.711,-15.625,-9.277,-234.863,0.000
1737550319.212,451.660,-13.184,-12.207,999.512,0.000
1737550319.216,491.211,-11.719,-10.742,847.656,0.000
1737550319.220,444.824,-8.301,-24.902,-265.137,0.000
1737550319.224,381.836,-19.043,-30.762,-1000.000,0.000
1737550319.228,492.676,-14.648,-26.367,-362.305,0.000
1737550319.232,642.090,-0.977,-26.855,950.195,0.000
1737550319.236,742.188,-24.902,-11.230,957.031,0.000
1737550319.240,749.512,-36.621,-6.836,-112.793,0.000
1737550319.244,683.594,-22.949,-13.184,-1000.000,0.000
1737550319.248,808.105,-13.672,-11.230,-444.336,0.000
1737550319.252,967.285,-10.254,-10.254,939.941,0.000
1737550319.255,970.215,-9.766,-12.695,866.699,0.000
1737550319.259,965.820,-16.602,-18.555,-322.266,0.000
1737550319.263,971.191,-22.461,-32.227,-1000.000,0.000
1737550319.267,970.215,-19.043,-28.320,-715.332,0.000
1737550319.271,970.215,-13.184,-6.836,575.195,0.000
1737550319.275,970.215,-9.766,-2.441,999.512,0.000
1737550319.279,970.215,-15.137,-14.160,-133.301,0.000
1737550319.283,970.215,-19.043,-24.414,-1000.000,0.000
1737550319.287,970.215,-18.555,-22.949,-933.105,0.000
1737550319.291,970.215,-11.719,-20.996,192.871,0.000
1737550319.294,969.727,-14.648,-17.578,999.512,0.000
1737550319.298,969.727,-28.320,-13.672,-16.113,0.000
1737550319.302,970.215,-25.391,-20.996,-1000.000,0.000
1737550319.306,970.215,-15.137,-25.391,-1000.000,0.000
1737550319.310,970.215,-12.695,-22.949,-90.820,0.000
1737550319.314,969.727,-11.719,-21.484,999.512,0.000
1737550319.318,970.215,-9.766,-17.090,-173.340,0.000
1737550319.322,970.215,-11.719,-11.230,-1000.000,0.000
1737550319.326,970.215,-16.113,-17.578,-1000.000,0.000
1737550319.330,970.215,-19.531,-25.879,-235.352,0.000
1737550319.334,969.727,-14.160,-17.578,999.512,0.000
1737550319.337,970.215,-8.301,-14.160,103.516,0.000
1737550319.341,970.215,-9.766,-19.531,-1000.000,0.000
1737550319.345,970.215,-11.719,-21.484,-1000.000,0.000
1737550319.349,970.215,-9.277,-20.996,-358.887,0.000
1737550319.353,967.773,-0.488,-16.113,999.512,0.000
1737550319.357,972.168,-8.301,-15.625,197.266,0.000
1737550319.361,948.730,-20.020,-18.555,-1000.000,0.000
1737550319.365,860.352,-9.277,-11.719,-1000.000,0.000
1737550319.369,862.793,-3.418,-12.207,-327.148,0.000
1737550319.373,962.891,-2.930,-11.719,999.512,0.000
1737550319.377,909.668,-7.324,-14.160,474.121,0.000
1737550319.380,787.109,-12.695,-23.438,-817.383,0.000
1737550319.384,769.043,-15.625,-23.926,-1000.000,0.000
1737550319.388,814.941,-21.973,-19.531,-422.852,0.000
1737550319.392,892.090,-15.625,-21.973,999.512,0.000
1737550319.396,856.934,-7.812,-28.320,566.406,0.000
1737550319.400,712.402,-16.113,-23.438,-763.672,0.000
1737550319.404,627.930,-23.926,-16.602,-1000.000,0.000
1737550319.408,621.094,-17.578,-18.066,-730.957,0.000
1737550319.412,716.797,-4.883,-20.996,585.938,0.000
1737550319.416,750.488,-1.465,-18.555,910.645,0.000
1737550319.419,618.164,-2.930,-21.973,-360.840,0.000
1737550319.423,553.711,-5.859,-26.367,-1000.000,0.000
1737550319.427,582.031,-12.207,-21.484,-769.531,0.000
1737550319.431,666.504,-1.953,-9.277,542.480,0.000
1737550319.435,686.035,1.465,-5.371,957.031,0.000
1737550319.439,531.250,-16.113,-19.043,-350.586,0.000
1737550319.443,443.359,-20.996,-23.438,-1000.000,0.000
1737550319.447,458.496,-17.090,-13.672,-1000.000,0.000
1737550319.451,545.410,-12.207,-6.348,-30.762,0.000
1737550319.455,594.727,0.000,0.000,882.324,0.000
1737550319.459,458.496,-20.020,-3.906,-450.195,0.000
1737550319.462,377.441,-34.180,-14.160,-1000.000,0.000
1737550319.466,381.348,-18.555,-15.625,-1000.000,0.000
1737550319.470,460.938,-4.883,-13.184,-268.555,0.000
1737550319.474,558.105,-0.488,-12.695,915.527,0.000
1737550319.478,453.613,-11.230,-14.160,-228.027,0.000
1737550319.482,361.328,-12.207,-12.207,-1000.000,0.000
1737550319.486,348.145,-8.301,-14.160,-1000.000,0.000
1737550319.490,394.043,-13.672,-14.648,-117.676,0.000
1737550319.494,463.379,-14.648,-15.137,999.512,0.000
1737550319.498,360.840,-18.066,-19.531,-213.379,0.000
1737550319.501,256.836,-26.367,-20.508,-1000.000,0.000
1737550319.505,238.770,-26.855,-18.066,-1000.000,0.000
1737550319.509,275.879,-20.020,-13.672,-325.684,0.000
1737550319.513,377.930,-14.160,-14.648,999.512,0.000
1737550319.517,304.199,-19.531,-23.926,98.633,0.000
1737550319.521,187.012,-22.949,-23.926,-1000.000,0.000
1737550319.525,180.176,-16.602,-30.273,-1000.000,0.000
1737550319.529,247.559,-6.348,-26.855,-236.328,0.000
1737550319.533,333.008,-5.371,-14.648,999.512,0.000
1737550319.537,266.602,-17.578,-17.578,428.223,0.000
1737550319.541,154.297,-19.043,-25.879,-840.332,0.000
1737550319.544,110.352,-17.578,-20.020,-1000.000,0.000
1737550319.548,160.645,-19.043,-8.301,-279.297,0.000
1737550319.552,260.742,-10.742,-8.789,999.512,0.000
1737550319.556,229.492,-9.766,-17.090,603.516,0.000
1737550319.560,120.117,-16.602,-18.066,-668.945,0.000
1737550319.564,74.219,-12.207,-18.066,-1000.000,0.000
1737550319.568,126.953,-8.789,-27.832,-541.016,0.000
1737550319.572,249.512,-6.836,-24.902,825.684,0.000
1737550319.576,232.910,-6.836,-14.648,819.336,0.000
1737550319.580,94.238,-12.207,-17.578,-461.914,0.000
1737550319.584,31.738,-20.508,-18.555,-1000.000,0.000
1737550319.587,70.801,-22.461,-14.160,-884.766,0.000
1737550319.591,181.152,-18.555,-19.531,361.328,0.000
1737550319.595,209.961,-11.230,-31.738,885.742,0.000
1737550319.599,101.562,-13.672,-20.020,-413.086,0.000
1737550319.603,29.785,-16.113,-4.395,-1000.000,0.000
1737550319.607,28.320,-15.625,-12.207,-784.668,0.000
1737550319.611,108.398,-12.207,-16.602,477.051,0.000
1737550319.615,173.828,-9.766,-14.160,999.512,0.000
1737550319.619,97.168,-14.160,-16.113,-174.316,0.000
1737550319.623,9.766,-5.859,-21.973,-1000.000,0.000
1737550319.626,21.973,-8.301,-36.133,-791.016,0.000
1737550319.630,140.625,-12.207,-35.645,435.059,0.000
1737550319.634,195.312,-11.719,-22.461,999.512,0.000
1737550319.638,73.242,-24.414,-26.367,29.785,0.000
1737550319.642,-32.227,-25.879,-29.297,-1000.000,0.000
1737550319.646,10.254,-17.578,-20.508,-899.902,0.000
1737550319.650,123.535,-7.812,-24.414,271.973,0.000
1737550319.654,165.527,-5.371,-31.250,999.512,0.000
1737550319.658,93.262,-12.695,-21.973,320.312,0.000
1737550319.662,-3.418,-15.625,-19.043,-901.367,0.000
1737550319.666,-27.832,-23.438,-24.902,-1000.000,0.000
1737550319.669,83.984,-15.625,-25.879,39.551,0.000
1737550319.673,152.832,-6.836,-25.391,999.512,0.000
1737550319.677,79.590,-15.137,-24.414,509.277,0.000
1737550319.681,-16.602,-25.879,-21.973,-755.371,0.000
1737550319.685,-59.082,-24.902,-17.090,-1000.000,0.000
1737550319.689,34.180,-13.672,-12.207,51.758,0.000
1737550319.693,125.488,-8.789,-14.160,999.512,0.000
1737550319.697,77.637,-8.301,-20.996,654.297,0.000
1737550319.701,-23.926,-15.625,-27.832,-546.387,0.000
1737550319.705,-74.707,-21.484,-37.109,-1000.000,0.000
1737550319.708,19.531,-23.926,-26.367,-158.203,0.000
1737550319.712,116.211,-18.066,-11.719,999.512,0.000
1737550319.716,74.707,-10.254,-10.742,746.094,0.000
1737550319.720,-25.391,-17.578,-9.277,-390.137,0.000
1737550319.724,-72.266,-18.066,-17.090,-1000.000,0.000
1737550319.728,-4.883,-17.090,-20.508,-362.305,0.000
1737550319.732,96.680,-14.160,-17.090,962.891,0.000
1737550319.736,99.609,-14.648,-23.438,899.902,0.000
1737550319.740,5.371,-16.113,-25.879,-193.359,0.000
1737550319.744,-79.102,-17.578,-16.113,-1000.000,0.000
1737550319.748,-11.230,-20.020,-5.859,-300.781,0.000
1737550319.751,108.398,-8.789,-8.301,999.512,0.000
1737550319.755,87.402,-0.977,-16.602,889.160,0.000
1737550319.759,-11.230,-15.625,-16.602,-232.910,0.000
1737550319.763,-63.965,-23.438,-14.160,-1000.000,0.000
1737550319.767,-39.062,-18.066,-21.484,-544.922,0.000
1737550319.771,78.125,-15.137,-22.461,743.652,0.000
1737550319.775,101.074,-11.719,-15.137,999.512,0.000
1737550319.779,-13.184,-11.719,-20.020,110.352,0.000
1737550319.783,-85.938,-20.508,-24.414,-1000.000,0.000
1737550319.787,-33.691,-22.949,-20.508,-737.793,0.000
1737550319.791,87.402,-15.137,-12.695,548.340,0.000
1737550319.794,129.883,-13.672,-16.602,999.512,0.000
1737550319.798,31.250,-20.508,-29.785,193.848,0.000
1737550319.802,-113.281,-24.414,-29.297,-1000.000,0.000
1737550319.806,-96.191,-24.414,-20.020,-813.965,0.000
1737550319.810,42.969,-9.277,-18.066,456.055,0.000
1737550319.814,103.516,-7.812,-23.438,999.512,0.000
1737550319.818,39.062,-18.555,-26.855,319.336,0.000
1737550319.822,-110.840,-14.160,-27.344,-945.312,0.000
1737550319.826,-119.141,-13.672,-11.719,-954.590,0.000
1737550319.830,20.996,-9.277,-4.395,256.836,0.000
1737550319.833,52.734,-3.906,-11.230,999.512,0.000
1737550319.837,13.672,-3.418,-18.066,579.590,0.000
1737550319.841,-71.777,-8.301,-27.344,-631.348,0.000
1737550319.845,-132.812,-10.254,-39.551,-1000.000,0.000
1737550319.849,-18.555,0.977,-37.598,146.484,0.000
1737550319.853,63.965,7.812,-29.297,999.512,0.000
1737550319.857,31.250,4.395,-34.668,852.539,0.000
1737550319.861,-63.965,0.488,-39.062,-180.176,0.000
1737550319.865,-158.691,-9.277,-34.668,-1000.000,0.000
1737550319.869,-64.941,-4.883,-33.203,-135.254,0.000
1737550319.873,38.086,3.418,-37.109,999.512,0.000
1737550319.876,28.809,7.812,-34.180,872.070,0.000
1737550319.880,-66.895,5.859,-36.621,-130.371,0.000
1737550319.884,-167.480,-2.930,-39.551,-1000.000,0.000
1737550319.888,-70.801,3.906,-28.809,-103.516,0.000
1737550319.892,16.602,3.906,-20.020,999.512,0.000
1737550319.896,-6.836,-5.859,-26.855,986.816,0.000
1737550319.900,-65.918,-9.766,-38.574,188.965,0.000
1737550319.904,-170.898,-12.695,-36.621,-1000.000,0.000
1737550319.908,-110.352,-5.371,-29.297,-245.117,0.000
1737550319.912,-18.555,-7.812,-25.391,999.512,0.000
1737550319.916,-45.410,-11.719,-20.020,893.066,0.000
1737550319.919,-119.141,-7.812,-26.855,-145.508,0.000
1737550319.923,-204.102,-15.625,-27.832,-1000.000,0.000
1737550319.927,-122.559,-13.672,-19.531,-332.520,0.000
1737550319.931,-52.734,-7.324,-11.230,931.152,0.000
1737550319.935,-82.031,-10.742,-12.207,999.512,0.000
1737550319.939,-84.961,-17.090,-21.973,262.695,0.000
1737550319.943,-167.969,-22.949,-26.855,-1000.000,0.000
1737550319.947,-135.742,-19.531,-26.855,-537.109,0.000
1737550319.951,-4.395,-11.719,-26.367,824.707,0.000
1737550319.955,3.418,-10.742,-22.949,999.512,0.000
1737550319.958,-65.430,-15.625,-18.066,270.996,0.000
1737550319.962,-179.199,-19.043,-21.973,-994.141,0.000
1737550319.966,-163.086,-21.484,-23.438,-651.855,0.000
1737550319.970,-19.043,-19.043,-17.090,717.285,0.000
1737550319.974,1.953,-11.719,-14.648,999.512,0.000
1737550319.978,-52.246,-16.113,-22.461,852.539,0.000
1737550319.982,-129.883,-22.949,-32.715,-322.266,0.000
1737550319.986,-146.973,-16.113,-26.367,-848.145,0.000
1737550319.990,-32.227,-8.301,-21.484,542.480,0.000
1737550319.994,14.648,-4.883,-16.113,999.512,0.000
1737550319.998,0.488,-0.488,-6.836,811.523,0.000
1737550320.001,-91.797,-11.719,-11.719,-298.828,0.000
1737550320.005,-161.621,-20.508,-23.438,-1000.000,0.000
1737550320.009,-50.293,-11.230,-22.949,181.152,0.000
1737550320.013,20.508,-5.859,-15.137,999.512,0.000
1737550320.017,-18.555,-7.812,-25.879,706.055,0.000
1737550320.021,-114.746,-14.648,-29.297,-447.754,0.000
1737550320.025,-164.551,-16.602,-19.043,-1000.000,0.000
1737550320.029,-56.641,-10.742,-14.648,-50.293,0.000
1737550320.033,23.926,-5.859,-19.043,999.512,0.000
1737550320.037,-31.738,-11.230,-22.949,659.180,0.000
1737550320.040,-126.465,-18.066,-20.020,-527.832,0.000
1737550320.044,-183.594,-14.160,-14.648,-1000.000,0.000
1737550320.048,-86.914,-15.137,-10.254,-109.863,0.000
1737550320.052,20.996,-15.625,-9.277,999.512,0.000
1737550320.056,-16.602,-10.742,-11.230,725.098,0.000
1737550320.060,-113.281,-8.301,-19.531,-421.387,0.000
1737550320.064,-185.547,-11.230,-17.578,-1000.000,0.000
1737550320.068,-99.609,-16.113,-11.230,-210.938,0.000
1737550320.072,7.324,-14.160,-20.020,999.512,0.000
1737550320.076,-6.836,-15.625,-21.484,978.027,0.000
1737550320.080,-104.004,-28.809,-15.625,5.371,0.000
1737550320.083,-211.426,-38.086,-7.812,-1000.000,0.000
1737550320.087,-132.812,-17.578,-9.766,-369.141,0.000
1737550320.091,-22.949,-0.488,-17.090,981.934,0.000
1737550320.095,-42.969,-7.324,-15.625,927.246,0.000
1737550320.099,-144.043,-15.625,-16.602,-202.637,0.000
1737550320.103,-218.262,-17.090,-25.879,-1000.000,0.000
1737550320.107,-170.898,-19.043,-32.227,-769.531,0.000
1737550320.111,-50.293,-15.137,-24.902,566.895,0.000
1737550320.115,-24.902,-14.160,-20.508,937.988,0.000
1737550320.119,-130.859,-18.555,-22.949,-328.613,0.000
1737550320.123,-211.914,-25.391,-25.391,-1000.000,0.000
1737550320.126,-168.945,-29.297,-22.461,-792.480,0.000
1737550320.130,-39.551,-15.137,-23.926,446.777,0.000
1737550320.134,-0.977,-3.906,-20.508,999.512,0.000
1737550320.138,-99.609,-11.230,-15.625,2.441,0.000
1737550320.142,-194.336,-20.996,-22.949,-1000.000,0.000
1737550320.146,-177.734,-20.996,-20.508,-924.805,0.000
1737550320.150,-60.059,-9.766,-2.441,261.230,0.000
1737550320.154,-7.324,-6.348,-0.488,999.512,0.000
1737550320.158,-77.148,-14.160,-0.977,117.676,0.000
1737550320.162,-158.691,-18.066,-12.695,-971.191,0.000
1737550320.165,-185.547,-20.508,-24.902,-1000.000,0.000
1737550320.169,-73.242,-12.695,-13.184,12.695,0.000
1737550320.173,23.438,-3.906,-10.742,999.512,0.000
1737550320.177,-51.758,-13.184,-16.113,416.504,0.000
1737550320.181,-159.180,-17.090,-15.137,-863.770,0.000
1737550320.185,-178.223,-16.602,-15.137,-1000.000,0.000
1737550320.189,-64.941,-11.719,-17.578,54.688,0.000
1737550320.193,6.348,-5.859,-15.137,999.512,0.000
1737550320.197,-59.082,-12.695,-12.207,408.203,0.000
1737550320.201,-154.297,-20.020,-16.113,-808.594,0.000
1737550320.205,-195.801,-18.555,-19.531,-1000.000,0.000
1737550320.208,-115.723,-13.184,-15.625,-249.512,0.000
1737550320.212,-27.832,-13.672,-17.578,999.512,0.000
1737550320.216,-78.613,-17.578,-22.949,515.137,0.000
1737550320.220,-167.480,-22.949,-28.809,-743.652,0.000
1737550320.224,-195.312,-32.715,-26.367,-1000.000,0.000
1737550320.228,-123.535,-26.367,-17.090,-326.172,0.000
1737550320.232,-24.902,-8.301,-18.555,993.652,0.000
1737550320.236,-41.016,0.977,-12.207,826.172,0.000
1737550320.240,-145.996,-4.883,-12.207,-340.820,0.000
1737550320.244,-205.078,-15.625,-28.320,-1000.000,0.000
1737550320.248,-129.395,-14.648,-24.414,-424.316,0.000
1737550320.251,-4.883,-2.441,-13.672,916.504,0.000
1737550320.255,2.441,-4.395,-15.137,925.293,0.000
1737550320.259,-124.023,-20.020,-21.973,-216.309,0.000
1737550320.263,-217.773,-22.461,-19.531,-1000.000,0.000
1737550320.267,-142.090,-20.996,-11.230,-357.422,0.000
1737550320.271,-34.180,-19.043,-9.277,920.410,0.000
1737550320.275,-36.621,-16.113,-10.742,999.512,0.000
1737550320.279,-96.191,-21.973,-7.324,248.047,0.000
1737550320.283,-198.730,-31.738,-8.789,-958.984,0.000
1737550320.287,-203.125,-31.250,-15.625,-803.223,0.000
1737550320.290,-80.078,-21.973,-17.090,498.535,0.000
1737550320.294,-22.461,-18.066,-11.230,999.512,0.000
1737550320.298,-93.750,-27.344,-8.789,196.777,0.000
1737550320.302,-205.078,-34.668,-13.672,-1000.000,0.000
1737550320.306,-175.293,-20.508,-6.836,-672.852,0.000
1737550320.310,-54.199,-12.695,4.883,640.625,0.000
1737550320.314,-28.809,-17.090,1.953,999.512,0.000
1737550320.318,-94.727,-17.578,-6.348,421.875,0.000
1737550320.322,-192.871,-20.020,-8.301,-859.863,0.000
1737550320.326,-186.523,-24.414,-4.883,-884.277,0.000
1737550320.330,-71.777,-21.973,-10.742,406.738,0.000
1737550320.333,-30.273,-15.137,-16.602,999.512,0.000
1737550320.337,-98.633,-19.043,-6.348,371.582,0.000
1737550320.341,-181.641,-20.508,-4.395,-875.977,0.000
1737550320.345,-181.152,-26.367,-12.207,-1000.000,0.000
1737550320.349,-60.547,-21.973,-15.137,221.191,0.000
1737550320.353,-16.602,-9.277,-7.812,999.512,0.000
1737550320.357,-90.820,-9.277,-5.859,652.832,0.000
1737550320.361,-180.176,-16.113,-9.277,-518.555,0.000
1737550320.365,-227.051,-26.367,-9.277,-1000.000,0.000
1737550320.369,-113.281,-20.020,-8.789,32.715,0.000
1737550320.373,-29.785,-6.836,-8.301,999.512,0.000
1737550320.376,-62.500,-15.625,-7.324,836.914,0.000
1737550320.380,-158.203,-25.391,-9.766,-235.840,0.000
1737550320.384,-235.840,-23.438,-14.648,-1000.000,0.000
1737550320.388,-128.906,-18.066,-16.602,-77.148,0.000
1737550320.392,-34.668,-9.277,-20.996,999.512,0.000
1737550320.396,-64.453,-14.160,-19.043,954.102,0.000
1737550320.400,-147.949,-23.926,-17.090,-5.859,0.000
1737550320.404,-240.723,-22.949,-26.367,-1000.000,0.000
1737550320.408,-151.367,-18.555,-20.508,-205.566,0.000
1737550320.412,-41.016,-20.996,-5.371,999.512,0.000
1737550320.415,-48.828,-20.508,0.488,980.469,0.000
1737550320.419,-106.445,-12.695,-7.812,141.113,0.000
1737550320.423,-215.332,-16.602,-17.578,-1000.000,0.000
1737550320.427,-172.363,-24.902,-11.719,-358.887,0.000
1737550320.431,-59.082,-17.578,-8.301,964.355,0.000
1737550320.435,-72.266,-18.066,-18.066,999.512,0.000
1737550320.439,-137.207,-20.020,-23.438,161.621,0.000
1737550320.443,-220.703,-20.996,-20.020,-1000.000,0.000
1737550320.447,-177.734,-26.367,-11.230,-537.109,0.000
1737550320.451,-62.500,-24.414,-11.230,812.988,0.000
1737550320.455,-58.105,-15.625,-23.438,999.512,0.000
1737550320.458,-138.184,-16.602,-18.555,157.227,0.000
1737550320.462,-216.309,-20.996,-7.812,-1000.000,0.000
1737550320.466,-177.734,-20.996,-9.277,-567.871,0.000
1737550320.470,-77.637,-22.461,-14.648,775.391,0.000
1737550320.474,-62.988,-21.484,-19.043,999.512,0.000
1737550320.478,-127.441,-20.996,-18.555,235.840,0.000
1737550320.482,-213.867,-27.344,-13.184,-1000.000,0.000
1737550320.486,-194.336,-23.926,-18.555,-711.426,0.000
1737550320.490,-82.520,-20.996,-30.273,615.234,0.000
1737550320.494,-49.805,-21.484,-19.043,999.512,0.000
1737550320.498,-90.332,-28.320,-11.230,618.652,0.000
1737550320.501,-177.246,-32.227,-17.090,-625.000,0.000
1737550320.505,-215.820,-28.320,-20.508,-926.758,0.000
1737550320.509,-93.750,-23.926,-20.508,404.785,0.000
1737550320.513,-41.504,-14.160,-22.949,999.512,0.000
1737550320.517,-70.801,-10.742,-14.160,825.195,0.000
1737550320.521,-156.250,-15.625,-12.695,-241.699,0.000
1737550320.525,-247.559,-26.855,-22.461,-1000.000,0.000
1737550320.529,-152.344,-29.785,-19.043,-13.672,0.000
1737550320.533,-28.320,-19.043,-11.719,999.512,0.000
1737550320.537,-45.410,-14.160,-20.020,769.043,0.000
1737550320.540,-169.922,-28.320,-32.715,-378.418,0.000
1737550320.544,-245.117,-28.809,-37.598,-1000.000,0.000
1737550320.548,-131.348,-9.277,-24.902,1.465,0.000
1737550320.552,-9.277,-9.766,-5.371,999.512,0.000
1737550320.556,-39.551,-21.973,-11.230,813.965,0.000
1737550320.560,-144.531,-18.555,-19.531,-272.461,0.000
1737550320.564,-215.820,-12.207,-14.648,-1000.000,0.000
1737550320.568,-109.863,-13.184,-7.812,-111.328,0.000
1737550320.572,-20.508,-10.254,-9.277,999.512,0.000
1737550320.576,-74.219,-7.324,-11.230,980.469,0.000
1737550320.580,-143.066,-8.789,-18.066,184.082,0.000
1737550320.583,-245.605,-19.043,-26.367,-1000.000,0.000
1737550320.587,-208.984,-22.461,-15.137,-430.664,0.000
1737550320.591,-52.734,-12.207,-2.930,926.758,0.000
1737550320.595,-35.156,-12.207,-6.348,972.656,0.000
1737550320.599,-127.930,-29.785,-16.113,6.348,0.000
1737550320.603,-216.797,-31.738,-19.043,-1000.000,0.000
1737550320.607,-151.855,-12.207,-13.672,-379.395,0.000
1737550320.611,-47.852,-1.953,-15.137,952.148,0.000
1737550320.615,-57.129,-6.836,-22.461,999.512,0.000
1737550320.619,-139.648,-11.230,-23.438,-9.766,0.000
1737550320.622,-215.820,-15.625,-20.508,-1000.000,0.000
1737550320.626,-147.461,-10.254,-20.020,-613.770,0.000
1737550320.630,-38.086,-7.812,-16.602,673.340,0.000
1737550320.634,-27.832,-12.207,-18.555,999.512,0.000
1737550320.638,-106.445,-14.648,-18.555,319.336,0.000
1737550320.642,-211.426,-29.785,-9.277,-983.398,0.000
1737550320.646,-210.449,-24.902,-13.672,-849.609,0.000
1737550320.650,-88.379,-12.695,-18.066,438.965,0.000
1737550320.654,-17.090,-7.812,-13.184,999.512,0.000
1737550320.658,-67.871,-5.371,-17.090,447.266,0.000
1737550320.662,-167.969,-17.578,-26.367,-738.281,0.000
1737550320.665,-206.543,-24.902,-26.855,-1000.000,0.000
1737550320.669,-72.266,-19.531,-16.113,87.891,0.000
1737550320.673,10.254,-11.230,-25.391,999.512,0.000
1737550320.677,-74.707,-9.277,-26.855,332.031,0.000
1737550320.681,-168.945,-14.160,-18.066,-917.969,0.000
1737550320.685,-174.316,-18.555,-18.555,-1000.000,0.000
1737550320.689,-93.750,-19.043,-11.230,44.434,0.000
1737550320.693,-23.438,-21.484,-14.160,999.512,0.000
1737550320.697,-103.516,-23.438,-14.648,411.621,0.000
1737550320.701,-190.918,-10.742,-11.230,-792.480,0.000
1737550320.705,-196.289,-13.672,-21.973,-1000.000,0.000
1737550320.708,-125.488,-22.461,-26.367,-168.457,0.000
1737550320.712,-23.926,-11.719,-24.414,999.512,0.000
1737550320.716,-68.848,-10.254,-23.926,538.086,0.000
1737550320.720,-166.504,-16.113,-23.438,-717.285,0.000
1737550320.724,-199.219,-21.484,-20.996,-1000.000,0.000
1737550320.728,-107.422,-20.996,-23.926,-195.801,0.000
1737550320.732,-11.230,-16.602,-22.949,999.512,0.000
1737550320.736,-48.340,-12.695,-15.625,650.391,0.000
1737550320.740,-143.555,-17.578,-12.695,-568.359,0.000
1737550320.744,-208.008,-29.785,-19.043,-1000.000,0.000
1737550320.747,-161.133,-23.926,-16.113,-321.777,0.000
1737550320.751,-7.812,-8.301,-11.230,997.070,0.000
1737550320.755,5.859,-9.277,-25.391,859.863,0.000
1737550320.759,-116.699,-17.578,-24.414,-299.316,0.000
1737550320.763,-186.035,-25.879,-7.812,-1000.000,0.000
1737550320.767,-97.656,-18.066,-1.953,-393.066,0.000
1737550320.771,12.695,-5.371,-9.766,918.457,0.000
1737550320.775,-4.395,-8.789,-12.207,985.840,0.000
1737550320.779,-112.793,-16.602,-5.371,-106.445,0.000
1737550320.783,-183.105,-27.344,-4.883,-1000.000,0.000
1737550320.787,-119.141,-20.020,-14.160,-588.867,0.000
1737550320.790,-33.203,-6.836,-15.625,701.660,0.000
1737550320.794,9.766,-14.160,-17.090,999.512,0.000
1737550320.798,-92.773,-24.414,-29.785,123.047,0.000
1737550320.802,-238.770,-28.320,-29.297,-1000.000,0.000
1737550320.806,-164.062,-19.043,-10.742,-735.352,0.000
1737550320.810,-24.414,-9.766,-2.441,574.707,0.000
1737550320.814,-4.395,-14.648,-5.371,999.512,0.000
1737550320.818,-113.770,-22.949,-10.742,39.551,0.000
1737550320.822,-192.871,-23.926,-8.789,-1000.000,0.000
1737550320.826,-155.273,-15.137,-3.906,-873.047,0.000
1737550320.830,-61.523,-7.812,-5.859,320.312,0.000
1737550320.833,2.441,-12.207,-11.719,999.512,0.000
1737550320.837,-78.613,-24.414,-21.973,256.836,0.000
1737550320.841,-178.223,-25.879,-27.832,-953.125,0.000
1737550320.845,-132.324,-21.973,-25.391,-1000.000,0.000
1737550320.849,-15.625,-16.113,-25.391,127.441,0.000
1737550320.853,68.848,0.000,-24.414,999.512,0.000
1737550320.857,-12.695,-10.742,-13.184,591.309,0.000
1737550320.861,-150.879,-26.855,-6.348,-667.480,0.000
1737550320.865,-156.250,-11.230,-8.301,-1000.000,0.000
1737550320.869,-53.711,-6.348,-16.113,167.480,0.000
1737550320.872,14.648,-11.719,-27.832,999.512,0.000
1737550320.876,-25.391,-11.230,-25.879,791.504,0.000
1737550320.880,-119.629,-13.672,-20.508,-336.426,0.000
1737550320.884,-174.316,-21.484,-20.508,-1000.000,0.000
1737550320.888,-116.211,-17.090,-13.184,-22.949,0.000
1737550320.892,-26.855,-9.277,-12.207,999.512,0.000
1737550320.896,-18.555,-12.695,-15.625,845.703,0.000
1737550320.900,-102.051,-19.531,-19.531,-228.027,0.000
1737550320.904,-190.430,-20.996,-28.809,-1000.000,0.000
1737550320.908,-121.094,-19.531,-25.879,-182.617,0.000
1737550320.912,-33.203,-22.949,-12.695,999.512,0.000
1737550320.915,-55.176,-25.391,-12.695,938.477,0.000
1737550320.919,-103.027,-24.902,-21.484,-91.797,0.000
1737550320.923,-179.688,-19.531,-20.508,-1000.000,0.000
1737550320.927,-130.371,-19.043,-14.648,-347.656,0.000
1737550320.931,-54.199,-21.484,-13.672,953.125,0.000
1737550320.935,-44.922,-18.066,-16.602,999.512,0.000
1737550320.939,-117.676,-17.090,-23.926,7.324,0.000
1737550320.943,-259.766,-21.484,-21.973,-1000.000,0.000
1737550320.947,-188.477,-9.766,-18.555,-511.230,0.000
1737550320.951,-5.371,-11.230,-10.254,841.797,0.000
1737550320.954,3.906,-19.531,-7.324,999.512,0.000
1737550320.958,-100.586,-18.066,-14.648,-61.035,0.000
1737550320.962,-179.688,-18.555,-15.625,-1000.000,0.000
1737550320.966,-136.719,-14.648,-14.160,-723.633,0.000
1737550320.970,-65.430,-9.766,-14.648,544.922,0.000
1737550320.974,-10.742,-6.836,-12.695,999.512,0.000
1737550320.978,-72.266,-8.789,-14.160,188.477,0.000
1737550320.982,-228.516,-18.066,-26.855,-1000.000,0.000
1737550320.986,-229.980,-22.949,-28.809,-875.488,0.000
1737550320.990,-74.219,-10.742,-15.625,382.812,0.000
1737550320.994,-30.273,-8.789,-12.207,999.512,0.000
1737550320.997,-139.648,-21.973,-18.555,97.656,0.000
1737550321.001,-202.637,-18.066,-18.555,-1000.000,0.000
1737550321.005,-189.453,-7.812,-21.973,-974.609,0.000
1737550321.009,-90.820,-9.277,-23.438,160.645,0.000
1737550321.013,-29.297,-10.742,-18.555,999.512,0.000
1737550321.017,-111.816,-12.207,-14.160,238.281,0.000
1737550321.021,-192.871,-16.602,-14.160,-957.031,0.000
1737550321.025,-207.520,-18.555,-20.020,-1000.000,0.000
1737550321.029,-110.840,-16.602,-13.672,92.285,0.000
1737550321.033,-14.160,-7.324,-16.602,999.512,0.000
1737550321.037,-52.246,-6.836,-30.762,456.055,0.000
1737550321.040,-197.266,-28.320,-23.438,-782.227,0.000
1737550321.044,-293.945,-28.320,-9.766,-1000.000,0.000
1737550321.048,-135.254,-4.883,-10.254,-166.504,0.000
1737550321.052,-29.297,7.324,-18.066,999.512,0.000
1737550321.056,-94.238,5.859,-20.508,763.184,0.000
1737550321.060,-168.457,-9.766,-20.508,-361.328,0.000
1737550321.064,-255.371,-22.949,-18.555,-1000.000,0.000
1737550321.068,-164.551,-17.090,-21.973,-423.828,0.000
1737550321.072,-8.301,-13.672,-20.996,959.961,0.000
1737550321.076,-47.363,-16.113,-14.648,775.879,0.000
1737550321.079,-216.309,-15.625,-19.043,-439.941,0.000
1737550321.083,-292.969,-28.809,-19.043,-1000.000,0.000
1737550321.087,-160.156,-30.762,-18.066,-301.758,0.000
1737550321.091,-37.598,-20.996,-30.273,999.512,0.000
1737550321.095,-62.012,-21.484,-33.203,885.742,0.000
1737550321.099,-159.668,-21.973,-14.648,-238.770,0.000
1737550321.103,-283.203,-23.926,-4.883,-1000.000,0.000
1737550321.107,-240.723,-21.973,-10.254,-641.602,0.000
1737550321.111,-67.383,-6.836,-23.438,711.914,0.000
1737550321.115,-88.867,-13.184,-24.902,924.316,0.000
1737550321.119,-207.031,-26.855,-16.602,-301.270,0.000
1737550321.122,-262.695,-15.625,-18.555,-1000.000,0.000
1737550321.126,-223.633,-20.508,-25.879,-698.242,0.000
1737550321.130,-161.621,-16.113,-18.066,566.406,0.000
1737550321.134,-172.852,-19.531,-4.883,999.512,0.000
1737550321.138,-186.035,-36.133,-10.742,-12.695,0.000
1737550321.142,-261.230,-24.414,-23.438,-1000.000,0.000
1737550321.146,-248.047,-15.625,-21.973,-814.941,0.000
1737550321.150,-159.668,-8.301,-23.926,433.105,0.000
1737550321.154,-121.582,-11.719,-27.344,999.512,0.000
1737550321.158,-179.199,-23.438,-12.695,79.102,0.000
1737550321.162,-315.430,-21.484,-11.719,-1000.000,0.000
1737550321.165,-291.992,-11.719,-20.020,-837.402,0.000
1737550321.169,-133.301,-7.324,-13.184,393.555,0.000
1737550321.173,-101.562,-12.207,-10.254,999.512,0.000
1737550321.177,-174.316,-14.648,-16.113,216.797,0.000
1737550321.181,-295.898,-13.672,-17.090,-947.754,0.000
1737550321.185,-290.527,-18.066,-23.438,-1000.000,0.000
1737550321.189,-155.762,-22.461,-20.996,-32.715,0.000
1737550321.193,-74.219,-5.371,-8.301,999.512,0.000
1737550321.197,-117.188,1.465,-18.555,405.762,0.000
1737550321.201,-246.582,-20.020,-24.414,-861.816,0.000
1737550321.204,-270.020,-24.414,-20.020,-1000.000,0.000
1737550321.208,-167.969,-12.695,-19.531,-40.527,0.000
1737550321.212,-79.590,-13.672,-24.414,999.512,0.000
1737550321.216,-121.582,-13.672,-23.438,667.969,0.000
1737550321.220,-221.191,-18.555,-11.719,-490.723,0.000
1737550321.224,-235.840,-22.461,-5.859,-1000.000,0.000
1737550321.228,-108.398,-10.742,-2.930,-227.539,0.000
1737550321.232,0.488,5.371,-2.930,999.512,0.000
1737550321.236,-52.734,0.000,-2.441,712.891,0.000
1737550321.240,-154.785,-16.602,-15.625,-475.098,0.000
1737550321.244,-183.594,-15.137,-31.738,-1000.000,0.000
1737550321.247,-110.352,-11.719,-24.902,-283.691,0.000
1737550321.251,6.348,-11.719,-4.395,999.512,0.000
1737550321.255,-6.836,-8.301,0.000,824.219,0.000
1737550321.259,-115.234,-10.742,-14.160,-326.660,0.000
1737550321.263,-159.668,-8.301,-13.672,-1000.000,0.000
1737550321.267,-76.172,-8.301,-10.742,-464.355,0.000
1737550321.271,44.922,-17.578,-10.742,902.832,0.000
1737550321.275,36.621,-17.578,-16.113,824.707,0.000
1737550321.279,-43.457,-9.277,-25.391,-370.117,0.000
1737550321.283,-111.816,-14.648,-20.996,-1000.000,0.000
1737550321.286,-50.293,-10.254,-22.949,-638.184,0.000
1737550321.290,39.062,-0.977,-31.250,645.996,0.000
1737550321.294,71.289,-9.766,-21.973,999.512,0.000
1737550321.298,21.973,-18.555,-17.578,4.395,0.000
1737550321.302,-59.082,-26.367,-15.625,-1000.000,0.000
1737550321.306,-97.168,-22.949,-14.160,-818.359,0.000
1737550321.310,12.207,-7.812,-12.695,454.102,0.000
1737550321.314,116.211,-2.441,-15.137,999.512,0.000
1737550321.318,20.996,-15.625,-21.973,-49.805,0.000
1737550321.322,-65.430,-19.043,-22.949,-1000.000,0.000
1737550321.326,-50.293,-14.648,-26.855,-904.785,0.000
1737550321.329,42.969,-14.648,-22.949,257.324,0.000
1737550321.333,116.211,-15.625,-20.508,999.512,0.000
1737550321.337,39.551,-20.020,-26.855,186.523,0.000
1737550321.341,-95.215,-20.996,-19.043,-976.562,0.000
1737550321.345,-134.766,-25.879,-11.719,-980.469,0.000
1737550321.349,23.438,-13.672,-18.066,164.062,0.000
1737550321.353,153.809,-5.859,-16.602,999.512,0.000
1737550321.357,45.898,-15.137,-10.254,561.035,0.000
1737550321.361,-54.199,-20.020,-16.113,-640.625,0.000
1737550321.365,-101.562,-24.414,-22.461,-1000.000,0.000
1737550321.369,10.742,-13.184,-20.996,27.344,0.000
1737550321.372,111.816,-5.371,-23.926,999.512,0.000
1737550321.376,62.500,-10.742,-25.879,677.246,0.000
1737550321.380,-67.383,-19.531,-22.949,-479.004,0.000
1737550321.384,-130.371,-21.484,-24.414,-1000.000,0.000
1737550321.388,-19.531,-16.602,-17.090,-119.141,0.000
1737550321.392,79.102,-10.742,-5.371,999.512,0.000
1737550321.396,99.121,0.000,-12.695,864.746,0.000
1737550321.400,-3.906,-0.977,-14.648,-214.844,0.000
1737550321.404,-135.742,-8.789,-11.230,-1000.000,0.000
1737550321.408,-11.719,-11.230,-26.855,-149.414,0.000
1737550321.411,103.516,-16.602,-33.691,999.512,0.000
1737550321.415,46.387,-12.695,-19.043,833.496,0.000
1737550321.419,-51.270,-18.066,-5.371,-246.094,0.000
1737550321.423,-103.516,-24.414,-8.789,-1000.000,0.000
1737550321.427,2.930,-14.160,-21.484,-344.238,0.000
1737550321.431,92.285,-9.277,-25.879,964.355,0.000
1737550321.435,63.477,-18.555,-22.949,950.195,0.000
1737550321.439,-26.855,-20.508,-20.508,-109.863,0.000
1737550321.443,-163.086,-30.762,-20.996,-1000.000,0.000
1737550321.447,-55.176,-32.715,-25.391,-529.785,0.000
1737550321.451,143.066,-16.602,-26.367,799.805,0.000
1737550321.454,104.492,-26.855,-21.973,999.512,0.000
1737550321.458,0.000,-30.273,-24.414,-24.414,0.000
1737550321.462,-79.102,-22.461,-24.414,-1000.000,0.000
1737550321.466,-89.844,-24.902,-13.184,-750.488,0.000
1737550321.470,71.289,-15.625,-13.184,559.082,0.000
1737550321.474,135.742,-11.230,-20.020,999.512,0.000
1737550321.478,7.324,-17.578,-16.113,-54.688,0.000
1737550321.482,-75.684,-18.555,-11.230,-1000.000,0.000
1737550321.486,-40.527,-17.578,-16.602,-657.715,0.000
1737550321.490,64.941,-17.578,-19.043,621.582,0.000
1737550321.494,77.637,-16.602,-14.648,999.512,0.000
1737550321.497,0.488,-20.508,-16.602,250.488,0.000
1737550321.501,-87.891,-29.297,-19.531,-965.820,0.000
1737550321.505,-102.539,-21.973,-18.066,-996.582,0.000
1737550321.509,59.570,-12.207,-24.902,161.621,0.000
1737550321.513,133.301,-16.113,-28.809,999.512,0.000
1737550321.517,47.363,-21.484,-25.879,268.555,0.000
1737550321.521,-64.941,-19.043,-25.879,-942.871,0.000
1737550321.525,-142.090,-24.902,-14.648,-1000.000,0.000
1737550321.529,2.930,-28.320,-3.906,-25.879,0.000
1737550321.533,136.230,-17.090,-5.371,999.512,0.000
1737550321.536,85.938,-19.043,-9.766,436.035,0.000
1737550321.540,-53.223,-27.832,-12.207,-840.820,0.000
1737550321.544,-114.746,-25.879,-12.695,-1000.000,0.000
1737550321.548,37.598,-20.996,-13.184,11.719,0.000
1737550321.552,145.996,-20.508,-17.578,999.512,0.000
1737550321.556,57.617,-21.484,-17.578,359.863,0.000
1737550321.560,-47.852,-22.949,-26.855,-854.004,0.000
1737550321.564,-87.891,-29.785,-41.504,-1000.000,0.000
1737550321.568,0.000,-23.926,-31.250,-292.480,0.000
1737550321.572,105.469,-15.137,-21.484,999.512,0.000
1737550321.576,56.641,-21.973,-16.602,669.922,0.000
1737550321.579,-16.113,-32.715,-10.254,-563.965,0.000
1737550321.583,-65.918,-29.297,-13.672,-1000.000,0.000
1737550321.587,-11.719,-15.137,-14.160,-380.859,0.000
1737550321.591,145.996,-6.348,-12.207,977.051,0.000
1737550321.595,113.770,-16.113,-17.578,798.828,0.000
1737550321.599,-13.672,-19.043,-33.691,-410.645,0.000
1737550321.603,-39.062,-23.926,-25.879,-1000.000,0.000
1737550321.607,15.137,-21.484,-14.160,-516.602,0.000
1737550321.611,105.469,-12.207,-20.020,860.352,0.000
1737550321.615,133.301,-19.531,-28.320,868.652,0.000
1737550321.618,33.203,-20.996,-33.203,-362.305,0.000
1737550321.622,-82.031,-26.855,-21.973,-1000.000,0.000
1737550321.626,-63.477,-31.250,-16.602,-720.703,0.000
1737550321.630,45.898,-20.996,-23.926,569.336,0.000
1737550321.634,142.090,-15.625,-35.645,999.512,0.000
1737550321.638,64.941,-10.742,-30.273,-146.484,0.000
1737550321.642,-64.453,-19.531,-22.949,-1000.000,0.000
1737550321.646,-11.719,-20.996,-19.531,-851.562,0.000
1737550321.650,98.145,-11.719,-15.137,366.211,0.000
1737550321.654,112.305,-17.578,-14.648,999.512,0.000
1737550321.658,32.227,-20.508,-20.996,-10.254,0.000
1737550321.661,-55.664,-20.508,-25.391,-1000.000,0.000
1737550321.665,-35.645,-23.438,-16.113,-916.992,0.000
1737550321.669,83.984,-24.414,-20.020,281.250,0.000
1737550321.673,83.496,-20.996,-24.902,999.512,0.000
1737550321.677,-11.230,-17.090,-27.832,-9.766,0.000
1737550321.681,-28.809,-8.789,-31.738,-1000.000,0.000
1737550321.685,-23.438,-3.418,-25.391,-983.398,0.000
1737550321.689,54.688,-4.395,-12.207,86.914,0.000
1737550321.693,126.465,-1.953,-3.906,999.512,0.000
1737550321.697,50.781,-6.836,-12.695,283.203,0.000
1737550321.701,-53.223,-21.973,-22.949,-937.012,0.000
1737550321.704,-69.336,-25.879,-26.855,-1000.000,0.000
1737550321.708,22.461,-24.414,-16.602,-41.504,0.000
1737550321.712,115.723,-20.996,-11.719,999.512,0.000
1737550321.716,45.898,-7.812,-14.160,423.828,0.000
1737550321.720,-57.129,-10.254,-10.742,-822.266,0.000
1737550321.724,-77.148,-23.438,-16.113,-1000.000,0.000
1737550321.728,24.902,-21.973,-26.855,-182.129,0.000
1737550321.732,112.305,-10.254,-20.996,999.512,0.000
1737550321.736,73.730,-2.930,-14.160,700.195,0.000
1737550321.740,-13.672,-8.789,-29.785,-495.605,0.000
1737550321.743,-111.328,-20.020,-32.227,-1000.000,0.000
1737550321.747,5.371,-18.066,-15.625,-255.371,0.000
1737550321.751,140.137,-13.672,-15.625,999.512,0.000
1737550321.755,104.980,-12.207,-22.949,810.059,0.000
1737550321.759,5.371,-18.555,-22.949,-336.914,0.000
1737550321.763,-92.285,-24.414,-17.578,-1000.000,0.000
1737550321.767,-30.273,-20.020,-9.277,-364.258,0.000
1737550321.771,87.402,-18.066,-9.277,969.238,0.000
1737550321.775,88.379,-15.137,-19.043,875.488,0.000
1737550321.779,-7.324,-15.137,-11.719,-259.277,0.000
1737550321.783,-70.312,-13.672,-9.277,-1000.000,0.000
1737550321.786,-36.133,-20.020,-16.602,-581.543,0.000
1737550321.790,77.637,-24.414,-20.996,745.117,0.000
1737550321.794,123.047,-6.348,-20.020,999.512,0.000
1737550321.798,36.621,0.000,-11.230,-129.883,0.000
1737550321.802,-44.922,-12.695,-9.277,-1000.000,0.000
1737550321.806,2.930,-18.066,-5.859,-675.293,0.000
1737550321.810,116.211,-6.348,-7.324,607.422,0.000
1737550321.814,138.184,0.488,-8.301,999.512,0.000
1737550321.818,46.875,-7.324,-16.602,114.258,0.000
1737550321.822,-51.270,-19.043,-21.484,-1000.000,0.000
1737550321.825,-16.602,-13.672,-17.090,-748.535,0.000
1737550321.829,111.816,-8.789,-28.320,538.086,0.000
1737550321.833,138.184,-11.230,-31.738,999.512,0.000
1737550321.837,93.262,-5.859,-31.250,360.840,0.000
1737550321.841,17.090,-6.348,-27.344,-848.633,0.000
1737550321.845,-8.301,-8.789,-7.812,-929.199,0.000
1737550321.849,97.656,-6.348,-4.395,310.059,0.000
1737550321.853,151.855,-10.742,-6.836,999.512,0.000
1737550321.857,98.633,-16.602,-10.254,471.191,0.000
1737550321.861,19.043,-21.484,-18.066,-768.555,0.000
1737550321.865,11.230,-16.602,-22.461,-1000.000,0.000
1737550321.868,98.145,-16.602,-25.879,138.672,0.000
1737550321.872,161.621,-17.578,-27.344,999.512,0.000
1737550321.876,136.719,-7.812,-21.484,678.223,0.000
1737550321.880,28.320,-16.602,-15.137,-484.375,0.000
1737550321.884,-34.180,-27.344,-17.090,-1000.000,0.000
1737550321.888,69.336,-22.461,-21.973,-100.586,0.000
1737550321.892,172.363,-13.672,-24.414,999.512,0.000
1737550321.896,149.414,-10.742,-22.949,689.453,0.000
1737550321.900,26.367,-20.508,-24.414,-479.004,0.000
1737550321.904,-44.922,-29.297,-24.414,-1000.000,0.000
1737550321.908,47.363,-22.461,-20.020,-215.820,0.000
1737550321.911,147.461,-23.438,-15.625,999.512,0.000
1737550321.915,101.562,-31.738,-17.090,782.227,0.000
1737550321.919,-23.438,-28.320,-26.855,-351.562,0.000
1737550321.923,-66.895,-25.879,-21.484,-1000.000,0.000
1737550321.927,26.855,-21.484,-7.324,-325.195,0.000
1737550321.931,107.422,-17.578,-4.883,999.512,0.000
1737550321.935,103.516,-17.578,-11.719,852.051,0.000
1737550321.939,14.648,-21.973,-20.996,-303.223,0.000
1737550321.943,-66.895,-32.715,-17.090,-1000.000,0.000
1737550321.947,-0.977,-29.785,-8.301,-537.109,0.000
1737550321.950,119.141,-9.766,-13.184,820.801,0.000
1737550321.954,113.770,-18.066,-19.043,915.527,0.000
1737550321.958,8.301,-34.668,-23.438,-265.625,0.000
1737550321.962,-66.406,-23.438,-17.578,-1000.000,0.000
1737550321.966,-26.367,-7.324,-14.160,-536.621,0.000
1737550321.970,88.867,-0.977,-13.184,758.789,0.000
1737550321.974,112.793,-10.254,-10.742,999.512,0.000
1737550321.978,25.879,-20.508,-19.531,145.020,0.000
1737550321.982,-64.941,-21.973,-21.973,-1000.000,0.000
1737550321.986,-51.758,-25.391,-15.625,-813.965,0.000
1737550321.990,48.828,-24.902,-20.020,461.426,0.000
1737550321.993,89.844,-14.648,-26.855,999.512,0.000
1737550321.997,17.090,-14.648,-17.578,77.637,0.000
1737550322.001,-74.219,-22.949,-16.602,-1000.000,0.000
1737550322.005,-76.172,-23.438,-20.996,-958.008,0.000
1737550322.009,39.062,-15.137,-20.508,180.664,0.000
1737550322.013,110.352,-5.859,-15.625,999.512,0.000
1737550322.017,35.645,-11.719,-10.742,273.926,0.000
1737550322.021,-81.055,-25.879,-20.508,-960.449,0.000
1737550322.025,-96.191,-24.902,-22.461,-1000.000,0.000
1737550322.029,2.441,-19.531,-9.277,28.320,0.000
1737550322.033,83.496,-25.391,-15.137,999.512,0.000
1737550322.036,31.250,-24.902,-18.555,392.090,0.000
1737550322.040,-90.820,-17.090,-14.160,-850.586,0.000
1737550322.044,-113.281,-16.113,-20.508,-1000.000,0.000
1737550322.048,-6.348,-14.160,-22.949,-84.473,0.000
1737550322.052,89.844,-13.672,-12.695,999.512,0.000
1737550322.056,52.246,-15.137,-8.301,679.688,0.000
1737550322.060,-51.270,-17.578,-16.602,-487.305,0.000
1737550322.064,-118.164,-20.996,-16.602,-1000.000,0.000
1737550322.068,-48.340,-20.020,-14.648,-181.641,0.000
1737550322.072,50.781,-17.090,-25.879,999.512,0.000
1737550322.075,22.461,-16.113,-26.367,674.316,0.000
1737550322.079,-70.801,-28.320,-24.902,-524.414,0.000
1737550322.083,-132.324,-46.875,-29.785,-1000.000,0.000
1737550322.087,-67.871,-28.320,-22.461,-410.645,0.000
1737550322.091,37.598,-9.766,-20.020,946.777,0.000
1737550322.095,55.176,-12.695,-24.902,820.312,0.000
1737550322.099,-41.016,-18.555,-24.414,-381.836,0.000
1737550322.103,-123.535,-20.020,-15.625,-1000.000,0.000
1737550322.107,-42.480,-9.277,-11.230,-273.438,0.000
1737550322.111,54.688,-2.930,-10.254,999.512,0.000
1737550322.115,37.598,-10.254,-17.090,814.453,0.000
1737550322.118,-51.270,-20.996,-27.832,-314.941,0.000
1737550322.122,-142.090,-30.273,-28.320,-1000.000,0.000
1737550322.126,-87.891,-19.043,-25.879,-501.465,0.000
1737550322.130,32.227,-7.324,-16.113,819.336,0.000
1737550322.134,49.316,-7.812,-12.207,999.512,0.000
1737550322.138,-34.180,-14.160,-12.207,-62.500,0.000
1737550322.142,-150.391,-26.367,-15.625,-1000.000,0.000
1737550322.146,-139.160,-25.879,-18.066,-772.461,0.000
1737550322.150,-11.230,-15.137,-10.742,463.867,0.000
1737550322.154,42.480,-4.883,-5.371,999.512,0.000
1737550322.158,-37.598,-12.695,-14.160,161.133,0.000
1737550322.161,-116.699,-29.297,-21.484,-1000.000,0.000
1737550322.165,-117.676,-24.902,-17.090,-935.059,0.000
1737550322.169,-33.691,-9.277,-15.625,245.605,0.000
1737550322.173,47.363,-1.465,-18.555,999.512,0.000
1737550322.177,-35.645,-10.254,-18.066,240.234,0.000
1737550322.181,-139.160,-17.578,-20.508,-970.703,0.000
1737550322.185,-133.301,-12.207,-20.020,-986.328,0.000
1737550322.189,-41.992,-11.230,-11.230,166.992,0.000
1737550322.193,35.156,-17.090,-8.301,999.512,0.000
1737550322.197,1.465,-14.648,-13.672,555.176,0.000
1737550322.200,-98.633,-16.113,-12.695,-666.016,0.000
1737550322.204,-144.043,-25.879,-11.719,-1000.000,0.000
1737550322.208,-59.570,-27.344,-18.066,-23.926,0.000
1737550322.212,25.391,-19.043,-32.227,999.512,0.000
1737550322.216,-39.062,-20.996,-34.180,520.020,0.000
1737550322.220,-150.391,-24.414,-23.926,-714.844,0.000
1737550322.224,-169.434,-17.578,-14.648,-1000.000,0.000
1737550322.228,-59.082,-14.160,-5.859,-49.316,0.000
1737550322.232,42.969,-10.742,-3.906,999.512,0.000
1737550322.236,19.531,-6.348,-11.230,822.754,0.000
1737550322.240,-71.289,-10.742,-13.184,-262.207,0.000
1737550322.243,-144.531,-26.367,-17.578,-1000.000,0.000
1737550322.247,-79.590,-21.484,-26.367,-191.895,0.000
1737550322.251,20.508,-8.789,-25.391,999.512,0.000
1737550322.255,-21.973,-16.113,-22.949,436.035,0.000
1737550322.259,-109.863,-19.043,-30.762,-809.570,0.000
1737550322.263,-138.184,-19.531,-24.414,-1000.000,0.000
1737550322.267,-99.609,-20.020,-12.207,-499.512,0.000
1737550322.271,6.836,-11.719,-15.625,820.312,0.000
1737550322.275,24.414,-8.789,-25.879,951.660,0.000
1737550322.279,-101.562,-20.996,-25.391,-201.660,0.000
1737550322.282,-195.801,-31.738,-23.926,-1000.000,0.000
1737550322.286,-126.465,-34.180,-27.344,-577.148,0.000
1737550322.290,21.973,-17.090,-22.461,737.793,0.000
1737550322.294,47.852,-5.371,-20.020,999.512,0.000
1737550322.298,-61.035,-12.695,-25.879,12.695,0.000
1737550322.302,-166.016,-25.391,-32.227,-1000.000,0.000
1737550322.306,-122.559,-24.902,-28.809,-778.320,0.000
1737550322.310,2.930,-16.602,-10.742,502.930,0.000
1737550322.314,40.527,-15.625,0.488,999.512,0.000
1737550322.318,-62.012,-19.043,-10.742,-34.180,0.000
1737550322.322,-157.715,-24.902,-23.438,-1000.000,0.000
1737550322.325,-122.070,-29.785,-26.855,-821.777,0.000
1737550322.329,10.254,-15.625,-22.461,386.719,0.000
1737550322.333,59.570,-3.418,-20.508,999.512,0.000
1737550322.337,-31.250,-7.324,-20.508,298.828,0.000
1737550322.341,-132.812,-12.207,-18.555,-936.523,0.000
1737550322.345,-138.184,-20.996,-8.789,-937.988,0.000
1737550322.349,-38.086,-22.949,-10.254,258.789,0.000
1737550322.353,27.344,-17.578,-12.695,999.512,0.000
1737550322.357,-20.996,-16.602,-7.324,550.781,0.000
1737550322.361,-133.301,-26.855,-23.926,-707.031,0.000
1737550322.365,-163.086,-39.062,-36.621,-1000.000,0.000
1737550322.368,-45.898,-24.414,-31.250,82.520,0.000
1737550322.372,25.391,-8.789,-29.297,999.512,0.000
1737550322.376,-18.066,-12.695,-22.949,634.277,0.000
1737550322.380,-107.910,-18.066,-14.648,-586.426,0.000
1737550322.384,-158.691,-20.020,-12.695,-1000.000,0.000
1737550322.388,-48.340,-17.578,-18.555,95.215,0.000
1737550322.392,49.805,-9.766,-20.996,999.512,0.000
1737550322.396,15.137,-11.719,-13.672,723.633,0.000
1737550322.400,-113.770,-20.508,-24.902,-397.461,0.000
1737550322.404,-207.031,-20.020,-35.645,-1000.000,0.000
1737550322.407,-83.984,-18.555,-20.020,-189.453,0.000
1737550322.411,43.945,-11.719,-13.672,999.512,0.000
1737550322.415,22.949,-11.719,-19.531,896.973,0.000
1737550322.419,-69.336,-20.508,-24.902,-139.648,0.000
1737550322.423,-183.105,-27.832,-24.414,-1000.000,0.000
1737550322.427,-97.168,-32.715,-28.320,-346.191,0.000
1737550322.431,7.812,-27.344,-39.551,968.262,0.000
1737550322.435,6.348,-20.020,-29.297,948.730,0.000
1737550322.439,-65.430,-20.508,-25.391,-91.309,0.000
1737550322.443,-173.340,-25.391,-24.414,-1000.000,0.000
1737550322.447,-113.281,-20.020,-11.230,-479.980,0.000
1737550322.450,16.602,-9.277,-4.883,860.352,0.000
1737550322.454,28.809,-2.441,-14.160,997.070,0.000
1737550322.458,-68.848,-1.465,-17.578,-54.199,0.000
1737550322.462,-139.648,-17.578,-15.137,-1000.000,0.000
1737550322.466,-101.074,-29.297,-18.555,-529.785,0.000
1737550322.470,10.254,-5.859,-24.414,792.969,0.000
1737550322.474,15.625,0.977,-29.785,999.512,0.000
1737550322.478,-79.102,-15.137,-13.184,137.695,0.000
1737550322.482,-141.113,-11.230,-1.465,-1000.000,0.000
1737550322.486,-120.605,-2.441,-11.719,-756.348,0.000
1737550322.490,-34.180,-11.719,-17.090,539.062,0.000
1737550322.493,1.953,-18.066,-25.391,999.512,0.000
1737550322.497,-66.895,-19.531,-29.785,141.113,0.000
1737550322.501,-154.785,-23.438,-25.879,-1000.000,0.000
1737550322.505,-153.809,-28.320,-23.926,-854.004,0.000
1737550322.509,-39.551,-18.555,-28.809,390.137,0.000
1737550322.513,23.438,-10.254,-28.809,999.512,0.000
1737550322.517,-64.453,-20.020,-16.113,322.754,0.000
1737550322.521,-157.715,-20.996,-16.113,-874.512,0.000
1737550322.525,-149.414,-15.137,-18.066,-1000.000,0.000
1737550322.529,-50.293,-17.578,-14.160,129.395,0.000
1737550322.532,29.297,-17.578,-9.277,999.512,0.000
1737550322.536,-35.156,-19.531,-14.648,374.512,0.000
1737550322.540,-123.047,-19.043,-29.785,-856.934,0.000
1737550322.544,-137.207,-9.766,-30.762,-1000.000,0.000
1737550322.548,-42.969,-3.906,-23.438,-27.832,0.000
1737550322.552,38.086,-6.348,-17.578,999.512,0.000
1737550322.556,-19.531,-12.207,-11.230,583.008,0.000
1737550322.560,-104.980,-12.695,-16.113,-583.496,0.000
1737550322.564,-149.414,-9.766,-18.066,-1000.000,0.000
1737550322.568,-66.895,-8.789,-16.113,-175.293,0.000
1737550322.572,20.508,-12.207,-14.648,999.512,0.000
1737550322.575,-25.879,-8.301,-11.719,689.453,0.000
