timestamps,TP9,AF7,AF8,TP10,Right AUX
1737551724.886,-1.465,-45.410,-28.809,117.188,0.000
1737551724.890,-23.926,-16.113,-19.043,-60.059,0.000
1737551724.894,-36.621,9.766,-5.859,-198.242,0.000
1737551724.898,-22.461,-0.977,-14.648,-512.207,0.000
1737551724.902,-11.230,-3.906,-16.113,42.480,0.000
1737551724.906,-6.836,1.953,-14.160,324.707,0.000
1737551724.910,-10.254,-8.301,-7.324,5.371,0.000
1737551724.913,-10.254,-40.039,-9.277,-284.180,0.000
1737551724.917,-17.578,-41.992,-30.762,-524.902,0.000
1737551724.921,-22.949,-5.371,-26.855,23.926,0.000
1737551724.925,-19.043,5.371,-14.648,289.551,0.000
1737551724.929,-38.086,2.441,-16.113,16.602,0.000
1737551724.933,-45.410,-4.395,-19.043,-239.258,0.000
1737551724.937,-34.668,-14.648,-22.949,-574.219,0.000
1737551724.941,-28.320,-33.691,-32.715,-55.664,0.000
1737551724.945,-20.508,-41.992,-28.809,321.289,0.000
1737551724.949,-19.043,-33.203,-17.578,2.441,0.000
1737551724.953,-33.203,-13.184,-12.695,-105.957,0.000
1737551724.956,-56.641,-9.277,-17.090,-403.809,0.000
1737551724.960,-52.734,-17.090,-15.137,-149.414,0.000
1737551724.964,-33.691,-18.555,0.977,268.555,0.000
1737551724.968,-23.438,-22.461,0.000,60.547,0.000
1737551724.972,-25.879,-31.250,-19.043,-104.004,0.000
1737551724.976,-35.645,-16.113,-28.320,-445.312,0.000
1737551724.980,-31.738,-7.812,-25.879,-189.941,0.000
1737551724.984,-22.949,-19.043,-21.484,345.703,0.000
1737551724.988,-20.020,-11.719,-14.160,184.082,0.000
1737551724.992,-17.090,-8.789,-15.625,-86.914,0.000
1737551724.995,-36.133,-17.090,-18.066,-396.973,0.000
1737551724.999,-42.480,-19.043,-16.113,-230.469,0.000
1737551725.003,-7.324,-17.578,-27.344,319.336,0.000
1737551725.007,-7.324,-43.945,-18.066,123.047,0.000
1737551725.011,-31.250,-47.852,-3.418,-77.148,0.000
1737551725.015,-24.902,-14.160,-21.484,-265.137,0.000
1737551725.019,-25.879,1.465,-15.625,-346.680,0.000
1737551725.023,-25.391,1.953,-2.441,172.852,0.000
1737551725.027,-31.250,-4.395,-12.695,147.461,0.000
1737551725.031,-35.156,-17.090,-10.742,-44.434,0.000
1737551725.035,-29.297,-21.484,-14.160,-307.129,0.000
1737551725.038,-22.461,-36.621,-25.879,-452.637,0.000
1737551725.042,-8.789,-49.805,-27.832,250.977,0.000
1737551725.046,4.883,-40.527,-33.691,329.102,0.000
1737551725.050,-3.906,-10.742,-45.410,-2.930,0.000
1737551725.054,-11.230,2.930,-32.715,-314.941,0.000
1737551725.058,-31.738,-6.348,-9.277,-482.910,0.000
1737551725.062,-34.668,-9.766,-2.930,146.973,0.000
1737551725.066,-5.371,-15.625,-9.766,250.488,0.000
1737551725.070,0.977,-23.438,-13.184,-17.578,0.000
1737551725.074,-25.879,-21.973,-13.184,-204.102,0.000
1737551725.078,-51.758,-45.410,-20.020,-483.887,0.000
1737551725.081,-45.410,-45.898,-32.715,4.883,0.000
1737551725.085,-31.738,-21.484,-45.410,301.758,0.000
1737551725.089,-15.625,-15.625,-29.297,44.434,0.000
1737551725.093,-16.113,-4.395,-9.277,-127.930,0.000
1737551725.097,-37.109,-7.324,-1.465,-409.668,0.000
1737551725.101,-32.715,-2.930,-2.930,38.574,0.000
1737551725.105,-10.742,0.977,-5.859,283.691,0.000
1737551725.109,-12.695,-8.789,-5.371,-109.863,0.000
1737551725.113,-12.207,-17.578,-7.324,-190.918,0.000
1737551725.117,-8.301,-23.438,-28.320,-403.809,0.000
1737551725.120,0.000,-10.742,-34.668,-116.211,0.000
1737551725.124,-6.348,-2.930,-13.672,297.852,0.000
1737551725.128,-13.672,-15.137,-10.742,84.961,0.000
1737551725.132,-16.602,-19.043,-14.160,-113.770,0.000
1737551725.136,-38.086,-15.625,-15.137,-443.359,0.000
1737551725.140,-32.227,-15.625,-17.090,-132.812,0.000
1737551725.144,-22.461,-22.949,-14.160,367.676,0.000
1737551725.148,-39.551,-26.855,-12.207,41.504,0.000
1737551725.152,-25.879,-20.020,-32.227,-136.230,0.000
1737551725.156,-15.137,-21.484,-50.781,-424.316,0.000
1737551725.160,-22.461,-20.996,-25.391,-259.277,0.000
1737551725.163,-18.555,-18.555,-13.184,304.688,0.000
1737551725.167,-36.133,-16.113,-23.438,76.660,0.000
1737551725.171,-35.156,-18.066,-21.484,-29.297,0.000
1737551725.175,-31.738,-22.949,-20.996,-290.527,0.000
1737551725.179,-20.508,-20.020,-29.785,-460.938,0.000
1737551725.183,-1.953,-19.043,-23.926,222.168,0.000
1737551725.187,-10.254,-23.438,-22.949,270.996,0.000
1737551725.191,-21.973,-25.879,-23.438,-109.863,0.000
1737551725.195,-37.109,-39.551,-17.090,-379.883,0.000
1737551725.199,-46.875,-30.273,-11.230,-371.094,0.000
1737551725.202,-28.809,-2.441,0.000,180.664,0.000
1737551725.206,-10.742,3.418,-0.977,223.145,0.000
1737551725.210,-3.906,-10.742,-18.066,-57.617,0.000
1737551725.214,-9.766,-15.137,-23.438,-291.016,0.000
1737551725.218,-34.180,-6.348,-24.414,-328.613,0.000
1737551725.222,-42.969,-26.367,-28.809,75.684,0.000
1737551725.226,-17.578,-38.086,-28.809,122.070,0.000
1737551725.230,1.465,-18.555,-21.484,-39.551,0.000
1737551725.234,-23.438,-15.625,-4.883,-165.039,0.000
1737551725.238,-57.129,-20.020,2.930,-405.762,0.000
1737551725.242,-66.406,-7.324,-10.254,-15.625,0.000
1737551725.245,-46.875,4.883,-14.160,270.996,0.000
1737551725.249,-36.133,-9.277,-14.160,-24.902,0.000
1737551725.253,-33.691,-20.508,-26.367,-276.855,0.000
1737551725.257,-35.156,-25.391,-24.414,-457.031,0.000
1737551725.261,-33.203,-30.762,-17.578,10.742,0.000
1737551725.265,-11.719,-22.949,-21.973,311.035,0.000
1737551725.269,-20.996,-10.254,-11.230,-8.789,0.000
1737551725.273,-27.344,-4.883,-4.395,-156.250,0.000
1737551725.277,-21.484,-25.391,-7.324,-408.691,0.000
1737551725.281,-14.648,-27.344,-10.254,-31.738,0.000
1737551725.285,-14.648,-9.277,-22.461,314.453,0.000
1737551725.288,-13.184,-16.602,-17.090,47.852,0.000
1737551725.292,-17.090,-21.484,-13.672,-122.070,0.000
1737551725.296,-21.973,-23.438,-13.672,-424.316,0.000
1737551725.300,-9.766,-26.855,-7.324,-130.371,0.000
1737551725.304,0.977,-26.855,-17.578,305.176,0.000
1737551725.308,4.395,-7.812,-17.090,183.594,0.000
1737551725.312,7.324,11.230,-3.906,-67.871,0.000
1737551725.316,-20.020,-2.930,-5.371,-490.723,0.000
1737551725.320,-22.949,-25.879,-11.719,-305.176,0.000
1737551725.324,-6.836,-14.648,-6.348,310.059,0.000
1737551725.327,-29.785,-0.977,-15.137,200.195,0.000
1737551725.331,-31.250,-10.742,-24.414,-44.922,0.000
1737551725.335,-23.926,-17.578,-23.438,-392.578,0.000
1737551725.339,-29.785,-23.926,-18.555,-352.051,0.000
1737551725.343,-16.113,-20.996,-18.555,246.094,0.000
1737551725.347,-2.930,-21.484,-37.598,156.250,0.000
1737551725.351,-10.742,-23.438,-32.227,-99.121,0.000
1737551725.355,-20.508,-20.508,-8.789,-336.914,0.000
1737551725.359,-33.203,-9.766,3.906,-327.637,0.000
1737551725.363,-41.504,-5.371,-1.953,197.754,0.000
1737551725.367,-42.480,-5.371,-22.949,178.223,0.000
1737551725.370,-29.297,-4.395,-19.043,-35.645,0.000
1737551725.374,-30.273,-3.906,-15.625,-202.637,0.000
1737551725.378,-33.691,-13.184,-20.020,-378.906,0.000
1737551725.382,-6.348,-20.508,-16.113,122.070,0.000
1737551725.386,11.719,-9.277,-10.742,296.387,0.000
1737551725.390,4.883,-22.949,-4.395,-17.090,0.000
1737551725.394,-7.324,-28.320,-16.113,-294.434,0.000
1737551725.398,-27.832,-29.785,-11.230,-444.824,0.000
1737551725.402,-22.949,-12.207,-4.395,104.980,0.000
1737551725.406,14.648,13.184,-4.395,368.164,0.000
1737551725.410,0.977,1.953,-12.207,-36.133,0.000
1737551725.413,-12.695,-18.066,-13.672,-307.617,0.000
1737551725.417,-17.578,-22.949,-19.043,-418.945,0.000
1737551725.421,-39.551,-13.672,-28.809,90.332,0.000
1737551725.425,-38.574,-13.184,-17.578,313.477,0.000
1737551725.429,-25.879,-18.555,-5.859,-27.344,0.000
1737551725.433,-14.160,-24.902,-2.441,-111.328,0.000
1737551725.437,-21.973,-20.508,-4.883,-386.230,0.000
1737551725.441,-13.184,-3.906,-13.672,-89.355,0.000
1737551725.445,0.977,-9.277,-19.043,357.422,0.000
1737551725.449,3.906,-11.230,-31.738,170.410,0.000
1737551725.452,14.648,-8.301,-30.273,-131.348,0.000
1737551725.456,-4.395,-10.742,-34.180,-471.680,0.000
1737551725.460,-19.531,-13.672,-41.016,-122.559,0.000
1737551725.464,-7.812,-19.531,-6.348,342.773,0.000
1737551725.468,3.906,-8.789,11.230,194.824,0.000
1737551725.472,19.043,-7.812,3.906,-33.691,0.000
1737551725.476,7.324,-4.395,-2.930,-459.961,0.000
1737551725.480,-43.457,-2.930,-11.719,-268.555,0.000
1737551725.484,-40.527,-24.414,-16.602,312.012,0.000
1737551725.488,-27.344,-25.391,-22.949,172.363,0.000
1737551725.492,-36.133,-17.578,-37.598,-34.668,0.000
1737551725.495,-46.875,-20.020,-38.574,-342.285,0.000
1737551725.499,-48.828,-14.648,-14.160,-269.531,0.000
1737551725.503,-17.578,-20.020,3.906,329.102,0.000
1737551725.507,-2.441,-18.555,-9.277,185.059,0.000
1737551725.511,-7.324,-22.949,-24.414,-95.703,0.000
1737551725.515,-13.184,-11.719,-27.832,-271.484,0.000
1737551725.519,-8.301,-6.836,-30.273,-343.750,0.000
1737551725.523,-18.066,-19.531,-27.832,180.176,0.000
1737551725.527,-27.344,-20.020,-28.809,271.973,0.000
1737551725.531,-27.344,-27.832,-32.715,-8.301,0.000
1737551725.534,-35.645,-21.484,-29.785,-226.562,0.000
1737551725.538,-34.668,-9.766,-25.879,-325.684,0.000
1737551725.542,-22.949,-23.926,-25.879,149.414,0.000
1737551725.546,0.000,-26.855,-12.695,255.371,0.000
1737551725.550,22.461,-16.602,-6.348,24.414,0.000
1737551725.554,-17.578,-22.461,-6.348,-246.582,0.000
1737551725.558,-86.914,-23.926,-20.508,-423.340,0.000
1737551725.562,-62.988,-21.973,-27.344,184.570,0.000
1737551725.566,-39.062,-27.344,-26.367,327.148,0.000
1737551725.570,-62.988,-34.180,-33.691,-72.266,0.000
1737551725.574,-50.781,-24.414,-24.902,-218.750,0.000
1737551725.577,-22.461,-16.113,-10.742,-323.730,0.000
1737551725.581,-12.207,-19.043,-12.695,52.246,0.000
1737551725.585,-2.441,-22.461,-27.832,316.895,0.000
1737551725.589,0.488,-16.602,-34.180,46.875,0.000
1737551725.593,-12.695,-12.695,-16.602,-126.465,0.000
1737551725.597,-31.250,-13.672,-10.254,-343.262,0.000
1737551725.601,-20.996,-14.160,-18.555,-31.738,0.000
1737551725.605,13.184,-2.930,-22.949,350.586,0.000
1737551725.609,6.348,-8.789,-17.578,154.785,0.000
1737551725.613,-23.438,-8.301,-13.184,-126.465,0.000
1737551725.617,-38.574,1.953,-10.742,-411.133,0.000
1737551725.620,-31.250,-11.230,-13.184,-21.973,0.000
1737551725.624,-17.578,-35.645,-20.508,374.023,0.000
1737551725.628,-18.066,-24.902,-23.438,114.746,0.000
1737551725.632,-8.789,-5.859,-21.973,-72.754,0.000
1737551725.636,-31.738,-11.719,-23.438,-410.156,0.000
1737551725.640,-39.062,-23.926,-20.508,-292.480,0.000
1737551725.644,-14.648,-34.180,-22.949,239.746,0.000
1737551725.648,-35.645,-16.602,-19.043,179.688,0.000
1737551725.652,-45.898,1.465,-2.441,58.594,0.000
1737551725.656,-32.715,-11.719,-4.395,-257.812,0.000
1737551725.659,-25.391,-14.160,-20.508,-263.672,0.000
1737551725.663,-6.348,-2.441,-20.996,198.242,0.000
1737551725.667,-1.953,-0.488,-14.648,209.473,0.000
1737551725.671,1.465,-6.836,-7.324,32.715,0.000
1737551725.675,1.953,-3.906,-12.695,-240.234,0.000
1737551725.679,-17.578,-6.348,-36.621,-317.383,0.000
1737551725.683,-13.184,-5.859,-17.090,264.648,0.000
1737551725.687,1.465,-5.371,3.906,233.398,0.000
1737551725.691,13.672,-8.789,-13.184,-79.590,0.000
1737551725.695,2.441,-7.324,-13.184,-336.426,0.000
1737551725.699,-15.137,-12.207,-9.766,-375.977,0.000
1737551725.702,-3.418,-5.859,-15.137,258.789,0.000
1737551725.706,-4.883,-6.836,-19.043,275.879,0.000
1737551725.710,-29.785,-22.461,-25.879,-87.402,0.000
1737551725.714,-46.387,-29.297,-26.367,-249.512,0.000
1737551725.718,-49.316,-23.438,-18.555,-330.566,0.000
1737551725.722,-33.203,-22.949,-15.625,223.145,0.000
1737551725.726,-13.184,-25.879,-5.371,250.977,0.000
1737551725.730,-24.414,-28.320,-10.254,-52.246,0.000
1737551725.734,-32.227,-12.207,-20.508,-178.711,0.000
1737551725.738,-26.367,2.930,-20.508,-396.484,0.000
1737551725.742,-33.691,-8.789,-9.766,58.105,0.000
1737551725.745,-18.066,-16.602,-11.719,335.938,0.000
1737551725.749,-7.324,-25.391,-19.531,102.051,0.000
1737551725.753,-26.855,-24.414,-11.719,-155.762,0.000
1737551725.757,-24.902,-14.648,-9.766,-456.543,0.000
1737551725.761,-25.391,-12.207,-4.883,-8.789,0.000
1737551725.765,-28.320,3.906,-2.930,324.219,0.000
1737551725.769,0.000,2.930,-24.414,142.578,0.000
1737551725.773,7.812,-19.043,-22.949,-65.430,0.000
1737551725.777,-16.113,-18.555,-15.137,-430.664,0.000
1737551725.781,-25.391,-6.348,-20.996,-76.660,0.000
1737551725.784,-44.434,-10.254,-16.602,321.289,0.000
1737551725.788,-50.293,-18.555,-11.230,143.555,0.000
1737551725.792,-33.691,-32.227,-10.254,-40.527,0.000
1737551725.796,-32.227,-20.020,-19.043,-314.453,0.000
1737551725.800,-15.625,5.859,-17.578,-144.531,0.000
1737551725.804,0.488,3.906,-4.883,210.449,0.000
1737551725.808,-6.836,-9.277,-6.836,185.059,0.000
1737551725.812,-14.160,-10.742,-14.648,-4.395,0.000
1737551725.816,-13.672,-9.766,-16.602,-403.809,0.000
1737551725.820,-7.812,-26.367,-23.926,-276.855,0.000
1737551725.824,-12.695,-25.391,-26.855,320.312,0.000
1737551725.827,-11.719,-21.484,-21.973,207.031,0.000
1737551725.831,-18.555,-35.156,-34.180,-98.633,0.000
1737551725.835,-42.480,-24.902,-27.832,-312.012,0.000
1737551725.839,-35.156,-4.883,-13.184,-227.051,0.000
1737551725.843,7.812,-5.859,-26.367,321.289,0.000
1737551725.847,8.789,-14.160,-21.484,190.430,0.000
1737551725.851,-18.555,-20.508,-6.836,-89.844,0.000
1737551725.855,-17.090,-16.113,-16.113,-246.582,0.000
1737551725.859,-21.973,-24.414,-19.043,-376.465,0.000
1737551725.863,-17.578,-35.645,-5.859,197.754,0.000
1737551725.866,-16.602,-17.578,-12.207,307.129,0.000
1737551725.870,-38.086,-11.719,-17.578,-30.762,0.000
1737551725.874,-29.297,-14.648,-16.602,-231.445,0.000
1737551725.878,-17.090,-17.090,-22.461,-326.660,0.000
1737551725.882,-4.883,-23.438,-25.391,149.902,0.000
1737551725.886,4.883,-14.648,-25.879,256.836,0.000
1737551725.890,-11.230,-1.465,-27.832,84.473,0.000
1737551725.894,-12.695,-13.672,-33.203,-125.488,0.000
1737551725.898,-16.602,-26.367,-21.484,-446.777,0.000
1737551725.902,-21.973,-31.250,-7.812,82.031,0.000
1737551725.906,-17.578,-28.809,-4.395,354.492,0.000
1737551725.909,-22.461,-9.766,-18.066,-2.930,0.000
1737551725.913,-28.809,-5.859,-24.414,-140.137,0.000
1737551725.917,-41.016,-5.859,-15.137,-409.180,0.000
1737551725.921,-33.203,2.930,-8.301,23.438,0.000
1737551725.925,-27.832,-5.859,-6.836,360.840,0.000
1737551725.929,-28.809,-18.555,-25.879,-9.277,0.000
1737551725.933,-9.277,-7.812,-25.391,-90.332,0.000
1737551725.937,-16.602,-12.207,-9.766,-315.918,0.000
1737551725.941,-26.855,-13.184,-3.418,-68.848,0.000
1737551725.945,-24.902,-5.859,0.488,275.879,0.000
1737551725.949,-49.316,-14.648,-0.977,107.422,0.000
1737551725.952,-38.086,-20.996,-10.254,-112.793,0.000
1737551725.956,-23.926,-23.926,-20.020,-367.188,0.000
1737551725.960,-22.461,-17.090,-20.996,14.648,0.000
1737551725.964,-7.324,-30.273,-20.996,379.883,0.000
1737551725.968,-31.250,-41.504,-13.672,59.082,0.000
1737551725.972,-53.223,-21.973,-13.184,-146.484,0.000
1737551725.976,-40.527,-13.672,-20.508,-407.715,0.000
1737551725.980,-27.832,-20.996,-28.809,-186.523,0.000
1737551725.984,-17.578,-21.973,-31.250,404.785,0.000
1737551725.988,-11.719,-18.555,-24.414,187.988,0.000
1737551725.991,9.277,-12.207,-21.484,-105.469,0.000
1737551725.995,8.301,-5.859,-19.043,-347.656,0.000
1737551725.999,-3.418,-19.531,-19.531,-303.711,0.000
1737551726.003,-24.414,-28.320,-16.113,314.453,0.000
1737551726.007,-53.711,-24.902,-1.465,261.230,0.000
1737551726.011,-60.547,-14.160,-4.883,-22.461,0.000
1737551726.015,-33.691,-12.207,-8.789,-261.719,0.000
1737551726.019,-29.785,-15.137,-18.555,-296.875,0.000
1737551726.023,-48.340,-5.371,-23.926,182.129,0.000
1737551726.027,-32.715,-9.277,-15.625,227.539,0.000
1737551726.031,-21.484,-19.531,0.977,168.945,0.000
1737551726.034,-40.039,-20.020,1.465,-171.387,0.000
1737551726.038,-41.504,-26.367,-14.160,-520.996,0.000
1737551726.042,-19.531,-17.090,-18.066,106.934,0.000
1737551726.046,-6.348,-7.812,-14.160,323.242,0.000
1737551726.050,-15.137,-15.137,-18.066,44.922,0.000
1737551726.054,-22.461,-24.902,-23.926,-215.332,0.000
1737551726.058,-10.742,-28.320,-28.320,-343.262,0.000
1737551726.062,25.391,-22.461,-29.785,83.984,0.000
1737551726.066,29.297,-19.531,-13.672,372.559,0.000
1737551726.070,-18.066,-20.508,-9.277,75.684,0.000
1737551726.074,-42.969,-15.137,-10.254,-256.348,0.000
1737551726.077,-41.016,-17.090,-4.395,-374.512,0.000
1737551726.081,-38.574,-17.578,-11.230,45.410,0.000
1737551726.085,-42.969,-15.625,-22.461,251.953,0.000
1737551726.089,-44.922,-13.672,-23.926,49.316,0.000
1737551726.093,-27.344,-16.602,-23.438,-105.957,0.000
1737551726.097,-23.926,-28.809,-33.203,-442.871,0.000
1737551726.101,-28.809,-27.344,-28.809,-141.113,0.000
1737551726.105,-20.508,-26.855,-9.766,308.105,0.000
1737551726.109,-15.625,-38.086,-8.789,103.516,0.000
1737551726.113,-20.996,-38.574,-18.555,-88.379,0.000
1737551726.116,-39.062,-29.785,-18.555,-386.230,0.000
1737551726.120,-32.227,-12.695,-13.672,-145.020,0.000
1737551726.124,-0.977,-7.324,-9.766,391.602,0.000
1737551726.128,4.395,-6.348,-23.438,131.836,0.000
1737551726.132,-23.438,-12.695,-29.297,-94.727,0.000
1737551726.136,-26.855,-23.926,-26.855,-341.309,0.000
1737551726.140,-16.113,-20.020,-26.367,-219.727,0.000
1737551726.144,1.465,-21.484,-19.043,314.941,0.000
1737551726.148,6.348,-21.973,-10.742,236.816,0.000
1737551726.152,3.906,-18.555,-15.137,-30.762,0.000
1737551726.156,8.301,-27.832,-16.602,-345.215,0.000
1737551726.159,46.875,-32.227,-17.090,-187.988,0.000
1737551726.163,67.871,-21.484,-29.297,294.922,0.000
1737551726.167,31.738,-22.949,-22.461,181.152,0.000
1737551726.171,-48.340,-15.625,-4.395,55.664,0.000
1737551726.175,-108.398,-13.672,-10.742,-333.008,0.000
1737551726.179,-90.820,-15.625,-13.672,-417.969,0.000
1737551726.183,-53.223,-11.719,-4.883,331.055,0.000
1737551726.187,-58.594,-16.602,-4.883,218.750,0.000
1737551726.191,-56.152,-13.672,-5.371,-124.512,0.000
1737551726.195,-33.691,-19.531,-16.602,-344.727,0.000
1737551726.199,-11.719,-31.738,-38.574,-377.930,0.000
1737551726.202,-9.766,-17.578,-23.438,202.148,0.000
1737551726.206,-22.461,-1.465,-1.953,258.789,0.000
1737551726.210,-15.625,-1.465,-13.184,25.879,0.000
1737551726.214,-5.371,0.488,-20.508,-208.496,0.000
1737551726.218,-5.859,-12.207,-13.184,-356.445,0.000
1737551726.222,-11.230,-33.691,-12.695,126.953,0.000
1737551726.226,9.277,-13.184,-11.230,235.352,0.000
1737551726.230,12.695,4.883,-15.137,18.066,0.000
1737551726.234,4.395,2.930,-18.066,-149.414,0.000
1737551726.238,22.949,-3.418,-11.719,-411.133,0.000
1737551726.241,42.480,-15.625,-1.465,38.086,0.000
1737551726.245,52.246,-18.066,-4.883,379.883,0.000
1737551726.249,29.297,-12.207,-17.090,156.738,0.000
1737551726.253,-30.273,-16.113,-15.137,-112.305,0.000
1737551726.257,-116.211,-14.160,-17.578,-415.527,0.000
1737551726.261,-117.188,-7.812,-19.531,-72.266,0.000
1737551726.265,-62.988,-5.371,-17.578,373.047,0.000
1737551726.269,-49.316,-13.672,-13.672,183.594,0.000
1737551726.273,-46.387,-32.715,-27.832,-154.297,0.000
1737551726.277,-53.223,-31.250,-33.691,-493.652,0.000
1737551726.281,-46.387,-25.391,-6.348,-83.496,0.000
1737551726.284,-34.180,-17.090,-3.906,377.441,0.000
1737551726.288,-41.992,-10.742,-27.344,93.750,0.000
1737551726.292,-26.367,-20.020,-25.391,-61.035,0.000
1737551726.296,-14.648,-17.090,-13.184,-325.684,0.000
1737551726.300,-28.809,-14.648,-12.207,-223.633,0.000
1737551726.304,-13.672,-3.906,-15.625,361.328,0.000
1737551726.308,-2.930,0.488,-18.066,182.617,0.000
1737551726.312,-8.789,-15.625,-28.320,-57.129,0.000
1737551726.316,-15.137,-20.996,-20.996,-278.320,0.000
1737551726.320,-13.184,-22.949,-14.160,-309.570,0.000
1737551726.323,0.488,-19.043,-16.113,279.297,0.000
1737551726.327,-13.672,-12.695,-15.137,260.742,0.000
1737551726.331,-8.789,-23.438,-5.371,7.324,0.000
1737551726.335,22.461,-36.133,-6.348,-242.188,0.000
1737551726.339,0.000,-25.879,-13.672,-282.227,0.000
1737551726.343,-10.254,-10.742,-16.602,240.723,0.000
1737551726.347,-14.160,-13.672,-22.949,274.902,0.000
1737551726.351,-64.941,-7.812,-28.809,5.859,0.000
1737551726.355,-63.965,12.207,-29.785,-261.230,0.000
1737551726.359,-39.551,3.418,-49.316,-316.406,0.000
1737551726.363,-47.363,4.883,-67.383,198.730,0.000
1737551726.366,-58.105,4.395,-42.969,207.031,0.000
1737551726.370,-40.039,-14.648,-27.832,-55.664,0.000
1737551726.374,-16.113,-4.883,-37.109,-224.609,0.000
1737551726.378,-25.879,11.230,-49.805,-403.809,0.000
1737551726.382,-28.320,4.883,-57.129,118.652,0.000
1737551726.386,-28.809,-5.371,-46.387,319.824,0.000
1737551726.390,-19.531,7.324,-41.992,119.629,0.000
1737551726.394,-11.230,16.113,-51.270,-57.129,0.000
1737551726.398,-9.277,10.742,-57.617,-342.285,0.000
1737551726.402,5.859,-1.465,-42.480,63.965,0.000
1737551726.406,28.809,-0.488,-26.855,350.586,0.000
1737551726.409,39.551,-1.953,-39.062,63.965,0.000
1737551726.413,41.992,-0.977,-41.504,-147.461,0.000
1737551726.417,32.227,8.301,-35.156,-352.051,0.000
1737551726.421,21.973,-11.719,-41.016,-15.137,0.000
1737551726.425,-15.137,-32.715,-30.273,327.637,0.000
1737551726.429,-61.523,-10.742,-12.207,126.465,0.000
1737551726.433,-56.641,2.441,-22.461,-110.352,0.000
1737551726.437,-23.926,-22.461,-27.344,-314.453,0.000
1737551726.441,-22.461,-23.438,-26.855,16.602,0.000
1737551726.445,-35.645,-0.488,-33.691,346.191,0.000
1737551726.448,-30.273,0.000,-15.625,154.297,0.000
1737551726.452,5.371,-2.930,-7.324,19.531,0.000
1737551726.456,-3.418,-17.090,-26.855,-356.445,0.000
1737551726.460,-14.648,-25.391,-29.785,-220.703,0.000
1737551726.464,5.859,-14.648,-13.672,312.500,0.000
1737551726.468,-5.371,-7.324,-25.391,185.547,0.000
1737551726.472,-20.996,-14.648,-23.926,-43.457,0.000
1737551726.476,-13.672,-13.184,-12.207,-266.602,0.000
1737551726.480,-5.859,-10.254,-15.625,-193.359,0.000
1737551726.484,11.719,-20.508,-23.926,291.504,0.000
1737551726.488,7.812,-22.461,-23.438,241.699,0.000
1737551726.491,-18.066,-27.832,-19.043,-28.320,0.000
1737551726.495,-19.531,-25.879,-18.066,-287.598,0.000
1737551726.499,-7.812,-14.648,-27.832,-208.008,0.000
1737551726.503,7.324,-17.578,-29.785,284.668,0.000
1737551726.507,22.949,-18.555,-9.766,201.660,0.000
1737551726.511,31.738,-1.953,-4.883,34.180,0.000
1737551726.515,-12.207,-8.301,-7.812,-208.008,0.000
1737551726.519,-59.082,-13.672,-10.742,-317.383,0.000
1737551726.523,-53.223,-5.859,-19.531,225.586,0.000
1737551726.527,-30.762,-4.395,-7.812,374.512,0.000
1737551726.531,-10.742,-14.648,-6.348,88.379,0.000
1737551726.534,-6.348,-27.832,-20.996,-251.465,0.000
1737551726.538,-3.906,-25.879,-27.344,-370.605,0.000
1737551726.542,-3.906,-14.160,-20.508,189.941,0.000
1737551726.546,-6.836,-3.418,-8.789,369.629,0.000
1737551726.550,-12.695,-19.531,-18.066,28.809,0.000
1737551726.554,-23.926,-28.809,-20.996,-264.648,0.000
1737551726.558,-17.578,-19.043,-15.625,-351.562,0.000
1737551726.562,-13.184,-11.719,-9.766,115.234,0.000
1737551726.566,-10.254,-7.324,-14.160,341.797,0.000
1737551726.570,4.883,-10.254,-26.367,132.812,0.000
1737551726.573,12.695,-11.230,-27.832,-103.027,0.000
1737551726.577,7.324,-20.020,-13.672,-295.898,0.000
1737551726.581,-1.953,-15.625,-18.066,169.922,0.000
1737551726.585,7.812,-11.719,-41.992,464.355,0.000
1737551726.589,15.625,-19.043,-26.367,252.930,0.000
1737551726.593,-20.508,-11.719,2.930,134.277,0.000
1737551726.597,-42.969,-11.230,4.395,-190.918,0.000
1737551726.601,-33.691,-8.301,5.371,74.707,0.000
1737551726.605,-31.250,-3.418,4.395,537.109,0.000
1737551726.609,-38.574,-0.977,-2.930,329.102,0.000
1737551726.613,-36.133,-5.859,-10.254,49.316,0.000
1737551726.616,-36.133,-15.625,-11.230,-254.883,0.000
1737551726.620,-15.137,-13.184,-17.578,-42.969,0.000
1737551726.624,9.766,-11.230,-21.484,394.043,0.000
1737551726.628,2.441,-14.160,-21.484,189.941,0.000
1737551726.632,-15.625,-15.137,-22.949,-93.262,0.000
1737551726.636,-28.809,-22.461,-20.508,-330.566,0.000
1737551726.640,-14.160,-30.762,-26.367,-83.984,0.000
1737551726.644,5.371,-22.461,-10.742,453.613,0.000
1737551726.648,-11.230,-12.207,-15.137,182.129,0.000
1737551726.652,-21.973,-14.160,-27.832,-101.562,0.000
1737551726.655,-41.016,-12.695,-15.137,-311.035,0.000
1737551726.659,-53.711,-16.602,-9.766,-238.770,0.000
1737551726.663,-16.602,-21.973,-11.230,349.121,0.000
1737551726.667,-18.555,-22.949,-24.414,206.543,0.000
1737551726.671,-51.270,-17.090,-29.297,-65.918,0.000
1737551726.675,-44.434,-4.883,-21.484,-290.039,0.000
1737551726.679,-27.344,-15.137,-27.832,-318.359,0.000
1737551726.683,-11.719,-28.320,-33.203,359.863,0.000
1737551726.687,-6.348,-18.555,-32.227,349.609,0.000
1737551726.691,-13.672,-10.742,-15.137,-79.102,0.000
1737551726.695,-25.879,-15.625,-2.930,-313.965,0.000
1737551726.698,-23.438,-18.555,-9.766,-338.867,0.000
1737551726.702,-15.625,-1.953,-8.789,214.355,0.000
1737551726.706,-12.695,-6.348,-7.812,297.852,0.000
1737551726.710,-0.488,-26.367,-26.367,-28.809,0.000
1737551726.714,21.973,-24.902,-52.246,-218.750,0.000
1737551726.718,19.043,-32.227,-45.898,-350.098,0.000
1737551726.722,5.859,-19.531,-10.742,161.621,0.000
1737551726.726,-16.602,-12.207,10.742,334.473,0.000
1737551726.730,-24.414,-15.625,8.789,30.762,0.000
1737551726.734,-11.719,0.977,11.719,-55.176,0.000
1737551726.738,-43.457,-5.371,-1.953,-375.000,0.000
1737551726.741,-56.152,-22.949,-21.484,-51.270,0.000
1737551726.745,-42.969,-29.297,-25.391,321.777,0.000
1737551726.749,-39.062,-19.043,-18.555,91.309,0.000
1737551726.753,-8.301,-2.441,-9.766,-99.121,0.000
1737551726.757,-4.395,-1.465,-17.578,-407.227,0.000
1737551726.761,-0.977,-10.254,-20.020,-67.383,0.000
1737551726.765,-24.414,-19.043,-18.066,337.402,0.000
1737551726.769,-45.898,-20.996,-14.160,57.129,0.000
1737551726.773,-44.922,-28.320,1.465,-73.730,0.000
1737551726.777,-60.059,-37.109,7.324,-337.402,0.000
1737551726.780,-50.781,-39.062,0.000,-113.281,0.000
1737551726.784,-37.109,-59.082,-10.742,294.922,0.000
1737551726.788,-68.359,-62.500,-12.207,69.336,0.000
1737551726.792,-67.871,-54.688,10.254,-70.312,0.000
1737551726.796,-61.523,-55.664,16.602,-392.090,0.000
1737551726.800,-61.035,-38.574,8.789,-233.887,0.000
1737551726.804,-24.902,-33.203,7.324,439.941,0.000
1737551726.808,-10.742,-40.527,4.883,264.648,0.000
1737551726.812,-19.043,-35.645,-9.277,-130.371,0.000
1737551726.816,-13.184,-40.527,-14.648,-371.582,0.000
1737551726.820,-27.832,-45.410,6.836,-274.902,0.000
1737551726.823,-63.477,-39.551,13.184,295.898,0.000
1737551726.827,-73.242,-36.621,0.488,229.492,0.000
1737551726.831,-67.383,-50.293,-1.953,-134.277,0.000
1737551726.835,-74.219,-54.199,-4.883,-371.582,0.000
1737551726.839,-76.172,-44.922,-27.832,-310.059,0.000
1737551726.843,-52.246,-43.457,-25.879,212.402,0.000
1737551726.847,-51.270,-26.855,-3.418,250.977,0.000
1737551726.851,-53.711,-11.719,1.465,26.855,0.000
1737551726.855,-25.879,-22.949,2.441,-291.504,0.000
1737551726.859,-20.508,-36.133,-6.836,-381.348,0.000
1737551726.863,-31.250,-28.320,-15.137,189.941,0.000
1737551726.866,-29.785,-18.066,-21.484,282.715,0.000
1737551726.870,-21.973,-12.695,-15.137,26.367,0.000
1737551726.874,-19.043,-13.672,-18.555,-148.926,0.000
1737551726.878,-13.184,-18.555,-30.273,-315.430,0.000
1737551726.882,0.977,-25.879,-26.855,138.672,0.000
1737551726.886,-1.465,-30.273,-16.602,431.152,0.000
1737551726.890,-5.859,-15.625,-3.906,96.680,0.000
1737551726.894,-11.230,-17.578,-15.625,-217.285,0.000
1737551726.898,-11.230,-20.508,-28.809,-379.395,0.000
1737551726.902,2.930,-9.766,-11.230,104.980,0.000
1737551726.905,17.090,-5.859,2.930,448.730,0.000
1737551726.909,12.695,-12.207,-8.789,125.000,0.000
1737551726.913,-13.672,-25.879,-19.043,-104.004,0.000
1737551726.917,-17.578,-41.016,-28.320,-365.234,0.000
1737551726.921,-27.832,-28.320,-32.227,37.598,0.000
1737551726.925,-58.105,-7.324,-24.902,394.531,0.000
1737551726.929,-43.457,-0.977,-10.742,98.633,0.000
1737551726.933,-30.273,-9.277,0.977,23.438,0.000
1737551726.937,-56.641,-20.508,-8.789,-408.203,0.000
1737551726.941,-39.062,-26.855,-14.160,-206.055,0.000
1737551726.945,-17.578,-24.902,-7.324,366.699,0.000
1737551726.948,-11.230,-18.555,-3.418,182.129,0.000
1737551726.952,-12.695,-19.531,-19.531,-100.586,0.000
1737551726.956,-28.809,-33.691,-31.250,-337.402,0.000
1737551726.960,-18.066,-22.949,-12.695,-129.883,0.000
1737551726.964,-25.391,-3.906,0.488,359.863,0.000
1737551726.968,-35.645,-6.348,-4.395,194.824,0.000
1737551726.972,-28.809,-12.207,-7.812,-66.406,0.000
1737551726.976,-40.039,-25.879,-6.348,-388.184,0.000
1737551726.980,-52.246,-30.273,-5.371,-327.148,0.000
1737551726.984,-32.227,-26.367,-10.742,236.328,0.000
1737551726.987,-25.879,-27.832,-0.977,192.383,0.000
1737551726.991,-32.227,-19.531,8.789,13.672,0.000
1737551726.995,-32.715,-35.156,-3.906,-353.516,0.000
1737551726.999,-46.875,-54.199,-14.648,-413.574,0.000
1737551727.003,-40.039,-21.973,-12.695,271.973,0.000
1737551727.007,-34.180,2.441,-5.859,269.531,0.000
1737551727.011,-48.828,-7.812,-6.348,-52.734,0.000
1737551727.015,-69.824,-8.301,-12.207,-202.148,0.000
1737551727.019,-65.430,-15.137,-13.184,-307.617,0.000
1737551727.023,-48.828,-27.344,-11.719,176.758,0.000
1737551727.027,-48.828,-19.043,-17.578,265.137,0.000
1737551727.030,-48.340,-21.973,-19.043,23.926,0.000
1737551727.034,-36.621,-44.922,-11.230,-250.000,0.000
1737551727.038,-35.645,-36.133,-3.418,-400.391,0.000
1737551727.042,-35.156,1.953,-3.906,208.008,0.000
1737551727.046,-29.297,3.418,-11.719,355.957,0.000
1737551727.050,-11.719,-12.695,-11.230,39.551,0.000
1737551727.054,-16.113,-22.949,-13.184,-279.297,0.000
1737551727.058,-32.715,-34.668,-8.789,-444.336,0.000
1737551727.062,-28.809,-20.996,-13.672,169.922,0.000
1737551727.066,-31.738,-5.371,-36.621,301.270,0.000
1737551727.070,-22.949,-19.531,-32.227,-2.441,0.000
1737551727.073,-6.348,-23.438,-17.578,-105.469,0.000
1737551727.077,0.000,-14.648,-8.301,-410.645,0.000
1737551727.081,-15.137,-17.090,-2.441,-101.074,0.000
1737551727.085,-54.199,-23.438,-9.277,271.973,0.000
1737551727.089,-57.617,-15.137,-22.461,126.953,0.000
1737551727.093,-41.992,-17.090,-30.273,-86.914,0.000
1737551727.097,-40.039,-12.695,-21.484,-401.367,0.000
1737551727.101,-36.133,-3.418,-20.508,-146.973,0.000
1737551727.105,-13.672,-7.812,-16.602,362.305,0.000
1737551727.109,-1.953,-5.859,-20.020,229.004,0.000
1737551727.112,4.395,-5.371,-27.832,-114.746,0.000
1737551727.116,-4.883,-11.230,-7.324,-451.172,0.000
1737551727.120,-8.301,-21.484,-7.324,-148.926,0.000
1737551727.124,10.742,-20.020,-19.531,372.559,0.000
1737551727.128,-2.441,-12.695,-18.555,185.059,0.000
1737551727.132,-28.320,-15.625,-21.484,-44.922,0.000
1737551727.136,-35.645,-19.043,-20.508,-331.055,0.000
1737551727.140,-13.184,-15.137,-11.719,-156.250,0.000
1737551727.144,-9.766,-6.836,-8.301,359.375,0.000
1737551727.148,-7.324,-10.742,-11.719,161.133,0.000
1737551727.152,-0.488,-30.762,-23.926,-66.406,0.000
1737551727.155,-2.441,-28.320,-30.762,-245.117,0.000
1737551727.159,-6.348,-2.930,-17.090,-305.664,0.000
1737551727.163,-12.207,-0.977,-10.742,208.496,0.000
1737551727.167,-18.555,-14.648,-11.719,223.633,0.000
1737551727.171,-11.230,-19.043,-2.930,-0.488,0.000
1737551727.175,0.488,-14.160,-5.859,-255.371,0.000
1737551727.179,3.906,-14.160,-11.719,-302.734,0.000
1737551727.183,15.137,-24.414,-8.789,293.945,0.000
1737551727.187,26.367,-29.297,-17.578,252.930,0.000
1737551727.191,16.602,-20.020,-20.508,42.480,0.000
1737551727.195,13.184,-14.160,-20.508,-136.719,0.000
1737551727.198,1.953,-28.320,-24.902,-416.016,0.000
1737551727.202,6.348,-16.602,-25.879,177.734,0.000
1737551727.206,24.414,-0.977,-12.207,309.570,0.000
1737551727.210,4.395,-4.883,-17.090,-44.434,0.000
1737551727.214,-26.855,-6.348,-22.949,-151.855,0.000
1737551727.218,-21.973,-12.207,-4.883,-336.914,0.000
1737551727.222,21.973,-18.066,-4.883,93.262,0.000
1737551727.226,27.832,-24.414,-17.578,317.383,0.000
1737551727.230,-21.973,-24.414,-20.996,80.078,0.000
1737551727.234,-34.180,-29.785,-30.762,-150.879,0.000
1737551727.237,-44.434,-25.879,-32.715,-441.895,0.000
1737551727.241,-51.270,-0.488,-11.719,81.055,0.000
1737551727.245,-29.297,-2.930,-4.395,393.066,0.000
1737551727.249,-23.438,-16.602,-4.883,117.676,0.000
1737551727.253,-16.113,-15.625,-3.906,-62.012,0.000
1737551727.257,2.441,-16.602,-8.789,-406.250,0.000
1737551727.261,-11.230,-12.207,-8.301,-55.664,0.000
1737551727.265,-15.137,-15.137,-10.254,385.254,0.000
1737551727.269,-17.090,-27.832,-20.508,107.422,0.000
1737551727.273,-14.160,-21.484,-24.902,-84.961,0.000
1737551727.277,-16.602,-8.789,-15.137,-299.805,0.000
1737551727.280,-11.230,-18.066,-11.719,-99.121,0.000
1737551727.284,-1.953,-26.855,-18.066,320.312,0.000
1737551727.288,-20.020,-13.672,-20.996,130.859,0.000
1737551727.292,-47.852,-18.555,-21.973,-81.055,0.000
1737551727.296,-46.875,-25.391,-17.090,-234.863,0.000
1737551727.300,-32.715,-20.508,-21.484,-185.059,0.000
1737551727.304,-20.996,-21.484,-21.484,217.285,0.000
1737551727.308,-15.625,-23.438,-15.625,209.961,0.000
1737551727.312,-15.625,-27.344,-14.160,11.719,0.000
1737551727.316,-10.254,-19.531,-20.508,-279.785,0.000
1737551727.319,8.789,-13.184,-18.066,-225.586,0.000
1737551727.323,-1.465,-17.578,-17.090,305.664,0.000
1737551727.327,-19.531,-24.902,-27.344,230.469,0.000
1737551727.331,3.906,-28.809,-12.695,100.098,0.000
1737551727.335,17.090,-24.902,-1.953,-137.207,0.000
1737551727.339,5.859,-19.531,-8.301,-350.098,0.000
1737551727.343,16.602,-12.207,-11.719,235.840,0.000
1737551727.347,14.160,-5.371,-13.184,223.145,0.000
1737551727.351,14.648,-2.441,-17.090,-25.879,0.000
1737551727.355,8.301,-23.926,-12.207,-210.938,0.000
1737551727.359,-41.016,-23.926,-9.766,-386.230,0.000
1737551727.362,-62.012,-12.695,-18.066,179.688,0.000
1737551727.366,-62.988,-19.531,-15.137,301.270,0.000
1737551727.370,-64.941,-32.715,-12.695,29.297,0.000
1737551727.374,-48.340,-35.645,-21.484,-229.980,0.000
1737551727.378,-34.180,-23.438,-23.926,-390.625,0.000
1737551727.382,-29.297,-11.230,-15.137,72.754,0.000
1737551727.386,-23.438,-5.859,-5.371,317.871,0.000
1737551727.390,-8.789,-2.930,-2.441,136.719,0.000
1737551727.394,12.207,-5.371,-3.906,-77.148,0.000
1737551727.398,-2.441,-20.508,-22.949,-430.176,0.000
1737551727.402,-13.184,-15.137,-28.320,-0.977,0.000
1737551727.405,-17.578,-15.625,-10.742,366.211,0.000
1737551727.409,-25.391,-12.207,-2.441,107.422,0.000
1737551727.413,-9.277,-17.578,-16.113,-76.172,0.000
1737551727.417,-12.695,-15.625,-30.273,-369.629,0.000
1737551727.421,-16.113,-6.836,-18.066,12.207,0.000
1737551727.425,-8.301,-9.277,-4.395,403.320,0.000
1737551727.429,0.488,-8.301,-10.254,118.652,0.000
1737551727.433,1.465,-9.766,-13.672,5.371,0.000
1737551727.437,-19.531,-6.348,-15.137,-284.668,0.000
1737551727.441,-15.137,-11.719,-27.832,-186.035,0.000
1737551727.444,-5.859,-14.648,-26.367,277.832,0.000
1737551727.448,-3.906,-13.184,-8.789,167.480,0.000
1737551727.452,-8.789,-20.508,-8.789,-23.438,0.000
1737551727.456,-46.875,-24.414,-11.719,-351.074,0.000
1737551727.460,-64.453,-27.832,-6.348,-216.797,0.000
1737551727.464,-58.105,-22.461,-17.578,304.688,0.000
1737551727.468,-41.992,-20.508,-22.949,236.816,0.000
1737551727.472,-31.250,-19.531,-18.066,10.742,0.000
1737551727.476,-34.668,-5.371,-21.973,-290.039,0.000
1737551727.480,-27.832,-2.930,-19.043,-251.465,0.000
1737551727.484,-11.230,-17.578,-11.719,246.094,0.000
1737551727.487,-9.277,-25.391,-13.672,209.473,0.000
1737551727.491,-12.207,-20.020,-17.578,-23.926,0.000
1737551727.495,-18.066,-23.438,-21.973,-276.855,0.000
1737551727.499,-32.227,-21.973,-29.297,-284.668,0.000
1737551727.503,-14.160,-22.461,-34.180,300.781,0.000
1737551727.507,-5.371,-25.391,-22.949,337.891,0.000
1737551727.511,-3.906,-19.043,-0.977,36.621,0.000
1737551727.515,4.395,-10.254,3.418,-274.414,0.000
1737551727.519,5.371,-9.766,-1.953,-309.570,0.000
1737551727.523,-13.672,-19.043,-0.977,236.328,0.000
1737551727.527,-26.367,-16.113,-5.859,336.426,0.000
1737551727.530,-7.324,-6.836,-11.719,187.988,0.000
1737551727.534,-24.902,-14.160,-28.320,-97.168,0.000
1737551727.538,-50.781,-37.109,-36.621,-449.219,0.000
1737551727.542,-18.555,-41.992,-17.090,139.648,0.000
1737551727.546,4.883,-27.344,-12.695,395.996,0.000
1737551727.550,-28.320,-17.090,-14.648,54.688,0.000
1737551727.554,-39.062,-8.301,1.953,-166.504,0.000
1737551727.558,-30.273,-11.230,-5.371,-415.039,0.000
1737551727.562,-3.906,-20.508,-17.090,102.539,0.000
1737551727.566,17.090,-16.113,-4.395,439.453,0.000
1737551727.569,-5.859,-12.695,-5.859,75.684,0.000
1737551727.573,-4.883,-13.672,-30.762,-88.867,0.000
1737551727.577,-12.695,-15.625,-23.438,-265.137,0.000
1737551727.581,-10.254,-12.695,-1.465,-28.809,0.000
1737551727.585,4.883,-2.930,-6.348,248.535,0.000
1737551727.589,-14.160,-15.625,-8.301,105.469,0.000
1737551727.593,-14.160,-27.344,-5.371,-97.656,0.000
1737551727.597,-25.879,-15.625,-5.371,-335.449,0.000
1737551727.601,-42.969,-14.160,-11.719,6.836,0.000
1737551727.605,-41.504,-14.648,-12.207,248.047,0.000
1737551727.609,-60.547,-10.742,-14.160,96.680,0.000
1737551727.612,-66.406,-21.484,-19.043,20.020,0.000
1737551727.616,-60.059,-30.273,-26.855,-389.648,0.000
1737551727.620,-56.641,-19.531,-14.648,-208.008,0.000
1737551727.624,-26.855,-15.625,4.883,426.758,0.000
1737551727.628,-3.906,-11.719,-9.277,198.730,0.000
1737551727.632,-20.508,-14.160,-19.531,-101.562,0.000
1737551727.636,-50.781,-21.484,-16.113,-339.844,0.000
1737551727.640,-40.039,-13.672,-21.973,-197.266,0.000
1737551727.644,-6.836,-7.812,-23.438,347.656,0.000
1737551727.648,3.906,-10.254,-31.738,217.773,0.000
1737551727.652,-4.395,-22.461,-20.508,-7.812,0.000
1737551727.655,-30.762,-25.879,0.000,-329.102,0.000
1737551727.659,-31.250,-21.484,-0.488,-317.383,0.000
1737551727.663,-22.461,-21.973,-11.719,293.945,0.000
1737551727.667,-21.484,-15.625,-25.391,206.543,0.000
1737551727.671,-15.625,-14.160,-20.996,3.418,0.000
1737551727.675,-13.672,-16.113,-13.184,-231.445,0.000
1737551727.679,-30.762,-11.719,-17.578,-356.934,0.000
1737551727.683,-36.621,-18.555,-23.926,266.113,0.000
1737551727.687,-44.922,-24.902,-20.996,363.281,0.000
1737551727.691,-52.734,-32.227,-4.883,14.160,0.000
1737551727.694,-54.199,-40.527,-13.672,-237.305,0.000
1737551727.698,-61.035,-22.461,-22.461,-372.559,0.000
1737551727.702,-56.641,-8.789,-10.742,162.109,0.000
1737551727.706,-32.715,-6.836,-8.301,297.852,0.000
1737551727.710,-28.320,-9.766,-12.695,-26.367,0.000
1737551727.714,-17.090,-24.902,-8.301,-183.594,0.000
1737551727.718,-10.742,-34.180,-10.254,-305.664,0.000
1737551727.722,-29.297,-20.996,-13.672,130.371,0.000
1737551727.726,-35.156,-14.160,-12.695,302.246,0.000
1737551727.730,-12.695,-23.926,-17.578,73.730,0.000
1737551727.734,-5.371,-21.973,-15.137,-62.012,0.000
1737551727.737,-28.320,-20.508,-22.461,-303.711,0.000
1737551727.741,-21.484,-21.484,-32.715,28.809,0.000
1737551727.745,-0.488,-19.531,-17.578,397.461,0.000
1737551727.749,0.977,-22.949,-2.441,131.348,0.000
1737551727.753,3.906,-22.949,-9.766,-29.297,0.000
1737551727.757,3.418,-8.789,-25.391,-342.773,0.000
1737551727.761,15.137,-5.859,-27.344,-51.270,0.000
1737551727.765,27.832,-11.719,-12.207,500.488,0.000
1737551727.769,-0.488,-13.672,-10.254,138.672,0.000
1737551727.773,-50.781,-26.855,-17.578,-178.711,0.000
1737551727.776,-101.562,-26.855,-13.672,-433.105,0.000
1737551727.780,-95.215,-20.020,-24.902,-146.484,0.000
1737551727.784,-60.547,-22.949,-28.320,422.852,0.000
1737551727.788,-39.062,-23.926,-26.855,190.918,0.000
1737551727.792,-25.879,-24.902,-29.297,-29.297,0.000
1737551727.796,-36.621,-18.555,-10.742,-333.008,0.000
1737551727.800,-45.898,-10.254,-5.859,-262.207,0.000
1737551727.804,-22.949,-4.395,-5.859,400.391,0.000
1737551727.808,9.277,-7.812,-0.488,344.727,0.000
1737551727.812,4.395,-7.324,-4.395,46.875,0.000
1737551727.816,-19.531,-9.277,-13.184,-369.629,0.000
1737551727.819,-6.348,-30.762,-15.625,-405.273,0.000
1737551727.823,5.859,-29.297,-23.438,322.266,0.000
1737551727.827,-0.977,-12.207,-18.555,318.848,0.000
1737551727.831,-2.441,-10.254,-7.324,22.461,0.000
1737551727.835,-1.465,-27.344,-4.395,-219.727,0.000
1737551727.839,4.883,-22.949,-2.441,-266.113,0.000
1737551727.843,2.930,-17.090,-11.230,278.809,0.000
1737551727.847,4.883,-18.555,-20.508,322.266,0.000
1737551727.851,13.184,-18.555,-20.996,6.836,0.000
1737551727.855,-4.883,-27.344,-3.418,-277.832,0.000
1737551727.859,-48.340,-14.160,-1.953,-320.312,0.000
1737551727.862,-85.938,-6.836,1.465,260.742,0.000
1737551727.866,-69.336,-16.113,4.883,264.160,0.000
1737551727.870,-34.180,-20.020,-4.883,-2.441,0.000
1737551727.874,-25.391,-14.160,-4.883,-34.180,0.000
1737551727.878,-28.320,-17.090,-17.578,-292.480,0.000
1737551727.882,-5.859,-14.160,-35.645,48.828,0.000
1737551727.886,-5.859,-12.695,-11.230,382.812,0.000
1737551727.890,-27.832,-26.367,0.488,133.789,0.000
1737551727.894,-28.320,-35.645,-0.977,-136.230,0.000
1737551727.898,-34.180,-34.668,0.000,-376.953,0.000
1737551727.901,-23.926,-22.949,-10.742,106.445,0.000
1737551727.905,0.488,-4.395,-19.043,512.207,0.000
1737551727.909,-2.930,3.906,-8.789,217.773,0.000
1737551727.913,-10.254,-2.441,-8.789,-104.004,0.000
1737551727.917,-15.625,-10.254,-15.625,-364.258,0.000
1737551727.921,-34.668,-14.160,-17.090,-15.137,0.000
1737551727.925,-29.785,-14.160,-17.578,448.730,0.000
1737551727.929,-40.527,-19.043,-5.859,237.793,0.000
1737551727.933,-34.180,-13.184,-6.348,-73.242,0.000
1737551727.937,-14.160,-18.066,-11.230,-382.812,0.000
1737551727.941,-18.555,-10.742,-10.742,-83.008,0.000
1737551727.944,-20.508,1.465,-19.043,401.367,0.000
1737551727.948,-22.461,-16.602,-18.555,152.344,0.000
1737551727.952,-22.461,-27.344,-25.879,25.391,0.000
1737551727.956,-20.996,-22.949,-35.156,-334.473,0.000
1737551727.960,-12.695,-11.230,-9.766,-281.738,0.000
1737551727.964,-9.277,0.000,-0.488,390.625,0.000
1737551727.968,-22.949,-4.395,-17.578,251.465,0.000
1737551727.972,-27.344,-20.508,-17.090,-60.059,0.000
1737551727.976,-19.531,-31.250,-23.438,-328.613,0.000
1737551727.980,-7.812,-22.949,-19.531,-262.207,0.000
1737551727.984,5.859,-0.488,-5.371,369.629,0.000
1737551727.987,3.418,-1.953,-7.324,327.148,0.000
1737551727.991,1.953,-14.160,-14.648,14.160,0.000
1737551727.995,2.930,-24.414,-14.648,-258.301,0.000
1737551727.999,-21.484,-21.484,-10.742,-220.703,0.000
1737551728.003,-28.320,-3.906,-8.301,342.285,0.000
1737551728.007,-30.762,4.883,-1.465,318.848,0.000
1737551728.011,-32.227,-7.812,-2.930,8.789,0.000
1737551728.015,-33.203,-20.996,-15.625,-248.535,0.000
1737551728.019,-28.809,-23.438,-19.531,-326.172,0.000
1737551728.023,-8.789,-21.973,-14.648,332.031,0.000
1737551728.026,-2.930,-18.555,-22.949,348.633,0.000
1737551728.030,-16.602,-26.367,-30.762,5.371,0.000
1737551728.034,-21.973,-28.809,-28.809,-24.414,0.000
1737551728.038,-28.809,-29.785,-22.461,-305.176,0.000
1737551728.042,-24.414,-29.785,-7.324,60.547,0.000
1737551728.046,-31.250,-13.672,0.000,419.434,0.000
1737551728.050,-33.691,-5.859,-6.348,129.883,0.000
1737551728.054,-13.184,-24.902,-6.348,-145.020,0.000
1737551728.058,-41.992,-30.762,-8.789,-371.094,0.000
1737551728.062,-64.453,-24.902,-13.184,38.086,0.000
1737551728.066,-37.109,-23.926,-12.207,369.141,0.000
1737551728.069,-14.648,-17.090,-21.484,133.301,0.000
1737551728.073,-11.719,-13.672,-22.949,-146.484,0.000
1737551728.077,-33.203,-17.090,-18.555,-365.234,0.000
1737551728.081,-36.621,-18.066,-18.555,83.984,0.000
1737551728.085,-37.109,-18.066,-9.277,353.027,0.000
1737551728.089,-39.062,-17.578,-8.789,109.375,0.000
1737551728.093,-21.973,-10.742,-20.996,-26.367,0.000
1737551728.097,-28.809,-7.812,-14.160,-322.754,0.000
1737551728.101,-25.879,-25.879,-15.625,-117.188,0.000
1737551728.105,2.930,-36.621,-17.578,361.816,0.000
1737551728.108,-16.113,-19.531,-25.879,187.012,0.000
1737551728.112,-17.578,-3.418,-44.922,-35.156,0.000
1737551728.116,-7.812,-14.160,-36.133,-375.977,0.000
1737551728.120,-14.160,-19.531,-8.789,-141.113,0.000
1737551728.124,-24.414,-16.602,0.488,408.691,0.000
1737551728.128,-51.758,-24.414,-2.441,219.727,0.000
1737551728.132,-45.410,-15.137,-9.766,8.301,0.000
1737551728.136,-44.434,-13.672,-7.812,-264.160,0.000
1737551728.140,-31.738,-22.949,-6.348,-151.367,0.000
1737551728.144,-12.695,-23.438,-21.484,347.168,0.000
1737551728.148,-17.090,-13.184,-42.480,229.980,0.000
1737551728.151,-16.602,-11.719,-34.180,76.172,0.000
1737551728.155,-22.461,-22.949,-16.602,-266.602,0.000
1737551728.159,-21.973,-25.391,-13.672,-364.746,0.000
1737551728.163,-7.324,-12.207,-5.859,252.930,0.000
1737551728.167,-16.113,-15.137,-0.977,301.758,0.000
1737551728.171,-5.371,-22.949,-7.812,65.430,0.000
1737551728.175,20.508,-20.996,-26.855,-218.262,0.000
1737551728.179,24.902,-22.949,-37.109,-227.051,0.000
1737551728.183,2.930,-14.648,-34.180,263.672,0.000
1737551728.187,-5.859,-12.207,-13.672,248.047,0.000
1737551728.191,-13.184,-6.348,8.789,86.426,0.000
1737551728.194,-29.785,-8.301,-3.906,-234.375,0.000
1737551728.198,-49.316,-21.973,-22.461,-526.367,0.000
1737551728.202,-33.203,-20.508,-11.719,127.930,0.000
1737551728.206,-25.879,-16.113,-2.441,349.609,0.000
1737551728.210,-39.062,-23.926,-13.184,97.656,0.000
1737551728.214,-35.156,-29.785,-15.625,-103.027,0.000
1737551728.218,-41.016,-14.648,-20.020,-405.273,0.000
1737551728.222,-23.438,-6.348,-20.020,103.516,0.000
1737551728.226,-7.324,-15.137,-18.555,407.715,0.000
1737551728.230,-5.859,-26.855,-25.879,94.238,0.000
1737551728.233,-26.855,-23.438,-25.879,-76.660,0.000
1737551728.237,-38.086,-15.625,-13.672,-416.504,0.000
1737551728.241,-25.879,-23.438,-13.184,-41.504,0.000
1737551728.245,-15.625,-19.043,-11.719,451.172,0.000
1737551728.249,-3.418,-11.230,-25.391,193.359,0.000
1737551728.253,-22.461,-11.719,-29.297,-58.105,0.000
1737551728.257,-33.203,-13.672,-3.906,-423.340,0.000
1737551728.261,-7.812,-20.020,-2.930,-103.027,0.000
1737551728.265,3.906,-17.090,-14.160,416.992,0.000
1737551728.269,8.301,-15.137,-21.973,101.074,0.000
1737551728.273,7.812,-17.578,-13.184,-108.887,0.000
1737551728.276,-32.227,-9.766,-1.465,-351.562,0.000
1737551728.280,-68.848,-7.812,-1.953,-102.051,0.000
1737551728.284,-54.688,-14.648,-3.418,399.414,0.000
1737551728.288,-25.879,-27.832,-7.324,106.934,0.000
1737551728.292,-22.461,-25.879,-12.207,13.672,0.000
1737551728.296,-50.293,-10.742,-15.137,-278.320,0.000
1737551728.300,-58.105,-9.277,-17.090,-299.805,0.000
1737551728.304,-44.922,-18.555,-15.137,290.527,0.000
1737551728.308,-32.227,-29.297,-17.578,262.695,0.000
1737551728.312,-28.320,-22.461,-18.555,-27.344,0.000
1737551728.316,-35.645,-24.414,-19.043,-451.172,0.000
1737551728.319,-40.527,-19.043,-11.230,-362.793,0.000
1737551728.323,-24.414,-2.441,-9.766,343.262,0.000
1737551728.327,0.488,-7.324,-25.879,349.609,0.000
1737551728.331,-5.859,-21.484,-14.160,-0.977,0.000
1737551728.335,-33.203,-20.996,-11.230,-323.242,0.000
1737551728.339,-28.809,-14.160,-11.719,-372.070,0.000
1737551728.343,-8.301,-11.719,-7.812,278.809,0.000
1737551728.347,-14.648,-16.602,-14.160,335.938,0.000
1737551728.351,-18.066,-21.973,-19.531,1.953,0.000
1737551728.355,6.836,-26.855,-12.695,-237.793,0.000
1737551728.358,12.695,-27.344,-20.508,-426.758,0.000
1737551728.362,22.461,-19.043,-33.203,134.766,0.000
1737551728.366,27.832,-4.395,-23.438,401.855,0.000
1737551728.370,-23.438,-13.184,-18.066,105.957,0.000
1737551728.374,-59.570,-20.996,-11.230,-107.910,0.000
1737551728.378,-67.383,-18.555,-9.277,-472.656,0.000
1737551728.382,-74.219,-18.066,-11.719,-37.598,0.000
1737551728.386,-53.711,-7.812,-6.836,395.996,0.000
1737551728.390,-46.387,-8.301,-17.578,83.008,0.000
1737551728.394,-55.664,-16.602,-23.926,-91.797,0.000
1737551728.398,-46.875,-20.996,-16.113,-312.988,0.000
1737551728.401,-25.879,-14.648,-11.719,18.555,0.000
1737551728.405,-19.531,-14.648,-14.648,376.465,0.000
1737551728.409,-28.320,-26.367,-24.902,68.848,0.000
1737551728.413,-22.949,-25.879,-22.461,-166.992,0.000
1737551728.417,-20.020,-26.855,-21.484,-437.988,0.000
1737551728.421,-18.555,-12.207,-8.789,6.348,0.000
1737551728.425,1.465,-2.441,-1.465,486.328,0.000
1737551728.429,7.324,-13.672,-13.184,147.461,0.000
1737551728.433,-11.230,-15.137,-25.391,-109.375,0.000
1737551728.437,-14.160,-18.066,-31.738,-388.672,0.000
1737551728.440,-10.742,-12.695,-30.273,-168.457,0.000
1737551728.444,-9.277,0.977,-16.602,388.672,0.000
1737551728.448,5.371,-10.742,-2.441,194.824,0.000
1737551728.452,4.395,-25.879,-4.883,-23.438,0.000
1737551728.456,-18.066,-34.180,-17.090,-352.051,0.000
1737551728.460,-20.996,-34.180,-20.020,-223.633,0.000
1737551728.464,-17.090,-9.766,-20.020,405.762,0.000
1737551728.468,-31.250,2.441,-21.973,290.527,0.000
1737551728.472,-23.438,-3.418,-12.207,-98.145,0.000
1737551728.476,-26.367,-24.414,-13.184,-479.980,0.000
1737551728.480,-28.320,-30.273,-28.320,-225.586,0.000
1737551728.483,-0.977,-7.324,-18.555,355.957,0.000
1737551728.487,-11.230,-8.301,-4.395,65.918,0.000
1737551728.491,-12.695,-22.461,-4.883,-109.863,0.000
1737551728.495,-6.348,-24.414,-7.324,-223.145,0.000
1737551728.499,-25.391,-18.555,-11.230,-349.121,0.000
1737551728.503,-25.391,-9.766,-8.789,220.215,0.000
1737551728.507,-20.508,-13.184,-4.395,316.895,0.000
1737551728.511,-27.344,-16.113,-17.090,-21.484,0.000
1737551728.515,-17.578,-20.508,-31.738,-237.793,0.000
1737551728.519,-26.367,-35.156,-21.484,-403.809,0.000
1737551728.523,-9.277,-30.273,-21.484,117.188,0.000
1737551728.526,-5.859,-16.602,-17.578,288.574,0.000
1737551728.530,-19.043,-14.648,-8.789,-47.363,0.000
1737551728.534,7.324,-20.996,-19.531,-187.988,0.000
1737551728.538,15.625,-26.367,-19.043,-355.469,0.000
1737551728.542,12.695,-21.973,-15.137,46.387,0.000
1737551728.546,-25.391,-22.461,-20.996,327.148,0.000
1737551728.550,-44.434,-17.090,-21.484,94.238,0.000
1737551728.554,-3.418,-9.766,-32.227,-181.152,0.000
1737551728.558,4.883,-16.602,-29.785,-407.715,0.000
1737551728.562,-25.879,-36.133,2.441,130.859,0.000
1737551728.565,-44.434,-34.668,-8.789,312.500,0.000
1737551728.569,-41.504,-11.719,-21.973,38.574,0.000
1737551728.573,-53.223,-24.902,-5.859,-89.355,0.000
1737551728.577,-41.504,-24.414,-20.508,-413.086,0.000
1737551728.581,-27.832,-12.207,-19.043,-66.406,0.000
1737551728.585,-2.930,-19.043,-9.277,363.281,0.000
1737551728.589,-2.930,-12.207,-21.484,211.914,0.000
1737551728.593,-42.480,-15.137,-25.879,126.465,0.000
1737551728.597,-46.387,-20.020,-40.039,-87.891,0.000
1737551728.601,-23.438,-24.902,-38.574,175.293,0.000
1737551728.605,-22.949,-25.879,-20.996,742.188,0.000
1737551728.608,-37.109,-24.902,-13.184,613.770,0.000
1737551728.612,-46.387,-34.180,-10.742,283.203,0.000
1737551728.616,-46.875,-27.832,-14.160,26.367,0.000
1737551728.620,-19.531,-25.391,-16.113,317.383,0.000
1737551728.624,0.977,-22.949,-18.066,892.090,0.000
1737551728.628,-21.973,-18.066,-23.926,723.633,0.000
1737551728.632,-57.129,-21.973,-18.555,454.102,0.000
1737551728.636,-69.824,-18.066,-25.391,187.012,0.000
1737551728.640,-57.129,-9.766,-33.203,162.109,0.000
1737551728.644,-18.555,-16.113,-28.809,721.191,0.000
1737551728.648,-1.465,-25.391,-22.461,530.273,0.000
1737551728.651,-9.766,-30.762,-30.273,118.652,0.000
1737551728.655,-38.574,-32.715,-17.090,-3.418,0.000
1737551728.659,-80.566,-28.809,-17.090,-214.355,0.000
1737551728.663,-57.617,-20.996,-30.273,225.098,0.000
1737551728.667,-15.625,-19.043,-13.672,343.262,0.000
1737551728.671,-11.230,-23.926,-10.742,-3.418,0.000
1737551728.675,-23.438,-14.160,-13.672,-303.223,0.000
1737551728.679,-49.805,-3.906,-8.301,-480.957,0.000
1737551728.683,-92.285,-13.672,-15.625,46.387,0.000
1737551728.687,-59.082,-26.855,-6.348,203.125,0.000
1737551728.690,-21.484,-20.996,4.395,-226.562,0.000
1737551728.694,-30.273,-18.066,-5.859,-590.332,0.000
1737551728.698,-16.113,-22.949,-14.648,-851.074,0.000
1737551728.702,-26.855,-23.926,-18.555,-280.273,0.000
1737551728.706,-24.902,-17.578,-26.367,-27.344,0.000
1737551728.710,-49.316,-26.367,-28.809,-398.438,0.000
1737551728.714,-85.938,-33.691,-9.277,-547.363,0.000
1737551728.718,-54.199,-37.598,0.488,-805.176,0.000
1737551728.722,-32.715,-30.273,-3.418,-279.785,0.000
1737551728.726,0.488,-10.742,-12.695,208.008,0.000
1737551728.730,-4.395,-15.137,-16.113,-50.293,0.000
1737551728.733,-20.996,-25.879,-10.742,-265.625,0.000
1737551728.737,-20.020,-26.367,-5.859,-559.570,0.000
1737551728.741,-47.363,-22.949,-12.207,-148.438,0.000
1737551728.745,-48.340,-12.695,-3.906,487.305,0.000
1737551728.749,-48.828,-11.719,5.371,386.230,0.000
1737551728.753,-20.020,-10.254,-17.090,222.656,0.000
1737551728.757,24.414,-4.395,-34.668,-152.832,0.000
1737551728.761,32.227,-3.906,-20.020,155.762,0.000
1737551728.765,28.320,-5.859,2.441,760.742,0.000
1737551728.769,11.719,-1.465,3.418,566.406,0.000
1737551728.773,24.902,-1.953,-7.812,226.074,0.000
1737551728.776,46.387,-13.672,-6.836,-121.094,0.000
1737551728.780,-3.418,-26.855,-2.441,-1.953,0.000
1737551728.784,11.719,-27.832,-18.066,560.547,0.000
1737551728.788,3.418,-12.695,-15.625,446.777,0.000
1737551728.792,-33.691,-1.465,-8.789,56.641,0.000
1737551728.796,-33.203,3.906,-8.301,-293.457,0.000
1737551728.800,-17.578,4.395,-2.441,-162.598,0.000
1737551728.804,-34.668,1.953,-2.441,295.410,0.000
1737551728.808,-42.480,0.977,-13.184,113.770,0.000
1737551728.812,-28.809,-9.766,-20.020,-64.941,0.000
1737551728.815,-11.230,-16.602,-21.484,-373.535,0.000
1737551728.819,-10.254,-20.508,-28.320,-491.211,0.000
1737551728.823,-38.574,-26.367,-21.973,97.168,0.000
1737551728.827,-46.387,-22.949,-26.367,93.262,0.000
1737551728.831,-39.062,-31.250,-17.578,-248.535,0.000
1737551728.835,-6.348,-33.203,-14.160,-438.477,0.000
1737551728.839,-15.137,-10.742,-29.785,-494.141,0.000
1737551728.843,-27.832,-5.371,-42.969,-33.691,0.000
1737551728.847,-13.184,-8.301,-34.668,45.410,0.000
1737551728.851,-31.250,-20.996,-10.254,-252.930,0.000
1737551728.855,-50.781,-31.250,-18.066,-491.699,0.000
1737551728.858,-40.527,-22.949,-31.738,-622.070,0.000
1737551728.862,-27.832,-16.113,-17.090,-62.012,0.000
1737551728.866,-37.109,-23.438,-13.184,99.121,0.000
1737551728.870,-45.898,-28.809,-32.227,-226.074,0.000
1737551728.874,-69.824,-23.926,-41.016,-338.867,0.000
1737551728.878,-75.195,-25.391,-32.227,-545.898,0.000
1737551728.882,-37.109,-20.996,-12.207,-112.305,0.000
1737551728.886,-19.531,-11.230,-8.301,47.363,0.000
1737551728.890,-46.387,-7.324,-17.090,-275.879,0.000
1737551728.894,-53.223,-25.879,-2.930,-548.828,0.000
1737551728.897,-23.438,-27.344,-13.184,-834.961,0.000
1737551728.901,-3.906,-16.113,-37.109,-221.680,0.000
1737551728.905,-23.926,-17.090,-24.414,175.293,0.000
1737551728.909,-62.988,-20.020,-18.555,-108.398,0.000
1737551728.913,-46.875,-16.602,-23.438,-280.273,0.000
1737551728.917,-29.785,-14.160,-23.926,-548.828,0.000
1737551728.921,-15.137,-18.555,-34.180,-94.727,0.000
1737551728.925,0.488,-19.043,-20.020,550.293,0.000
1737551728.929,-30.273,-21.973,-8.301,259.277,0.000
1737551728.933,-41.016,-23.438,-20.020,43.457,0.000
1737551728.937,0.000,-29.785,-26.855,-83.984,0.000
1737551728.940,1.465,-33.203,-23.926,171.387,0.000
1737551728.944,-13.184,-23.926,-17.578,730.957,0.000
1737551728.948,15.625,-19.043,-19.531,548.828,0.000
1737551728.952,0.488,-15.625,-23.438,402.344,0.000
1737551728.956,-20.508,-15.137,-15.137,95.215,0.000
1737551728.960,-6.348,-14.648,-5.859,174.805,0.000
1737551728.964,-3.906,-19.043,-14.160,837.402,0.000
1737551728.968,-4.395,-31.250,-13.184,736.328,0.000
1737551728.972,-16.113,-26.855,-10.742,449.219,0.000
1737551728.976,-31.738,-13.184,-12.207,151.855,0.000
1737551728.980,-43.945,-21.484,-16.602,129.883,0.000
1737551728.983,-30.273,-18.066,-16.602,821.777,0.000
1737551728.987,-8.789,-19.043,-4.883,892.090,0.000
1737551728.991,-6.836,-24.902,-9.766,383.789,0.000
1737551728.995,-6.836,-21.973,-20.996,77.148,0.000
1737551728.999,-12.695,-18.066,-20.996,56.641,0.000
1737551729.003,-20.020,-19.531,-24.902,459.473,0.000
1737551729.007,-26.855,-28.320,-17.090,481.445,0.000
1737551729.011,-31.738,-25.879,-3.906,264.160,0.000
1737551729.015,-31.738,-23.926,-17.578,27.344,0.000
1737551729.019,12.695,-34.668,-31.738,-223.633,0.000
1737551729.022,27.832,-44.922,-16.602,307.617,0.000
1737551729.026,-19.043,-25.391,-5.859,462.402,0.000
1737551729.030,-19.043,2.930,-9.766,141.602,0.000
1737551729.034,13.184,10.254,-7.812,-88.379,0.000
1737551729.038,9.766,0.977,-17.578,-447.754,0.000
1737551729.042,-6.836,-3.906,-29.297,13.184,0.000
1737551729.046,-20.020,-11.230,-14.160,337.891,0.000
1737551729.050,-11.719,-20.996,1.465,60.547,0.000
1737551729.054,-0.488,-16.113,-1.953,-106.934,0.000
1737551729.058,-0.488,-20.508,-16.113,-451.172,0.000
1737551729.062,-3.906,-23.926,-22.461,-94.727,0.000
1737551729.065,-17.578,-24.414,-0.977,400.879,0.000
1737551729.069,-21.484,-24.414,6.836,80.566,0.000
1737551729.073,-24.414,-7.324,-8.301,-209.473,0.000
1737551729.077,-39.062,-15.137,-27.344,-518.066,0.000
1737551729.081,-39.551,-33.691,-20.508,-226.562,0.000
1737551729.085,-37.109,-23.438,-17.090,259.766,0.000
1737551729.089,-20.020,-13.672,-27.832,36.133,0.000
1737551729.093,-6.836,-19.043,-20.508,-147.949,0.000
1737551729.097,-30.273,-20.020,-10.742,-408.203,0.000
1737551729.101,-57.129,-17.090,-12.695,-278.320,0.000
1737551729.105,-41.504,-12.207,-26.855,359.863,0.000
1737551729.108,-37.109,-27.832,-38.086,125.000,0.000
1737551729.112,-51.270,-43.457,-32.227,-154.297,0.000
1737551729.116,-67.383,-27.344,-28.320,-483.887,0.000
1737551729.120,-62.012,-12.695,-18.066,-375.977,0.000
1737551729.124,-40.527,-3.418,-1.465,341.309,0.000
1737551729.128,-38.574,-4.883,-2.930,163.086,0.000
1737551729.132,-34.668,-22.461,-20.508,-166.504,0.000
1737551729.136,-50.293,-17.090,-16.602,-349.609,0.000
1737551729.140,-46.875,-9.766,-16.113,-397.949,0.000
1737551729.144,6.836,-15.625,-13.184,166.992,0.000
1737551729.147,14.160,-7.324,-12.695,319.336,0.000
1737551729.151,-9.766,-12.207,-16.602,35.156,0.000
1737551729.155,-29.297,-16.602,-31.250,-375.977,0.000
1737551729.159,-35.645,-12.695,-47.363,-340.820,0.000
1737551729.163,-31.250,-23.438,-13.672,298.340,0.000
1737551729.167,-17.578,-37.598,7.324,334.961,0.000
1737551729.171,-14.160,-23.926,1.953,120.605,0.000
1737551729.175,-8.301,-8.301,-8.789,-158.203,0.000
1737551729.179,6.348,-3.418,-19.531,-380.371,0.000
1737551729.183,15.137,-8.789,-14.648,303.711,0.000
1737551729.187,16.113,-9.277,-8.789,441.406,0.000
1737551729.190,19.043,-2.930,-19.531,69.824,0.000
1737551729.194,22.949,-2.441,-21.484,-199.707,0.000
1737551729.198,17.578,-7.324,-12.695,-419.922,0.000
1737551729.202,11.719,-11.230,-9.766,135.742,0.000
1737551729.206,14.160,-10.742,-6.348,431.641,0.000
1737551729.210,34.180,-8.301,-0.488,139.160,0.000
1737551729.214,14.648,-0.977,-0.488,-114.746,0.000
1737551729.218,-1.465,-1.465,-12.695,-342.773,0.000
1737551729.222,15.625,-6.836,-17.578,89.355,0.000
1737551729.226,-4.395,-8.789,-14.160,376.953,0.000
1737551729.229,-23.438,-12.207,-13.672,129.395,0.000
1737551729.233,14.160,-19.531,-37.109,-12.207,0.000
1737551729.237,21.973,-10.742,-26.367,-305.176,0.000
1737551729.241,-24.414,-5.859,8.301,80.566,0.000
1737551729.245,-48.828,-13.184,-2.441,482.910,0.000
1737551729.249,-49.316,-11.230,-24.414,237.305,0.000
1737551729.253,-27.832,-10.742,-18.066,40.527,0.000
1737551729.257,-38.086,-14.648,-14.160,-356.445,0.000
1737551729.261,-70.312,-13.672,-28.320,-103.027,0.000
1737551729.265,-67.383,-8.789,-40.039,401.367,0.000
1737551729.269,-60.547,-8.301,-31.250,130.859,0.000
1737551729.272,-51.270,-24.414,-10.742,-105.469,0.000
1737551729.276,-35.645,-28.320,-4.883,-418.457,0.000
1737551729.280,-65.430,-26.855,0.488,-282.227,0.000
1737551729.284,-83.008,-36.133,-4.883,366.699,0.000
1737551729.288,-70.312,-27.832,-15.625,178.223,0.000
1737551729.292,-53.711,-7.812,-25.879,-116.211,0.000
1737551729.296,-24.902,2.441,-32.715,-462.891,0.000
1737551729.300,-12.207,5.371,-26.855,-385.742,0.000
1737551729.304,-29.785,-7.812,-21.973,204.102,0.000
1737551729.308,-37.598,-21.484,-17.090,151.855,0.000
1737551729.312,-7.812,-8.301,-9.766,-23.926,0.000
1737551729.315,3.906,-5.371,-7.812,-368.652,0.000
1737551729.319,-28.320,-9.277,-0.488,-537.109,0.000
1737551729.323,-21.973,-16.602,5.859,147.461,0.000
1737551729.327,-25.879,-23.926,3.418,218.262,0.000
1737551729.331,-22.461,-13.672,-5.859,-21.973,0.000
1737551729.335,-0.488,-11.230,-20.996,-309.570,0.000
1737551729.339,-26.367,-12.695,-36.133,-417.969,0.000
1737551729.343,-47.852,-10.254,-12.207,58.594,0.000
1737551729.347,-39.551,-21.973,6.836,110.352,0.000
1737551729.351,-69.336,-33.203,2.930,39.551,0.000
1737551729.354,-42.480,-32.715,-5.859,-108.398,0.000
1737551729.358,-2.441,-22.949,-13.184,-241.699,0.000
1737551729.362,-23.926,-20.508,-15.137,275.391,0.000
1737551729.366,-24.414,-29.297,-6.348,479.004,0.000
1737551729.370,-39.551,-24.902,-2.441,299.316,0.000
1737551729.374,-33.691,-9.277,-16.113,75.684,0.000
1737551729.378,-15.137,-0.977,-20.020,-135.742,0.000
1737551729.382,8.789,-12.207,-12.695,360.352,0.000
1737551729.386,12.207,-20.996,-23.926,716.309,0.000
1737551729.390,-3.906,-14.160,-20.020,424.805,0.000
1737551729.394,-22.949,-20.508,-4.883,158.691,0.000
1737551729.397,-65.918,-23.438,-20.508,-64.453,0.000
1737551729.401,-55.176,-19.043,-28.809,279.297,0.000
1737551729.405,-43.457,-26.855,-30.273,640.625,0.000
1737551729.409,-41.992,-24.414,-25.391,380.371,0.000
1737551729.413,-50.781,-12.207,-3.906,71.289,0.000
1737551729.417,-48.340,-2.930,-1.465,-293.945,0.000
1737551729.421,-26.367,-4.883,-7.812,6.348,0.000
1737551729.425,-37.598,-11.230,-15.625,515.137,0.000
1737551729.429,-44.922,-6.836,-34.668,243.164,0.000
1737551729.433,-42.480,-4.883,-29.785,-54.199,0.000
1737551729.437,-41.016,-15.137,-15.137,-371.094,0.000
1737551729.440,-52.246,-24.414,-9.277,-194.336,0.000
1737551729.444,-46.875,-20.996,-6.348,354.492,0.000
1737551729.448,-22.949,-20.020,-13.184,144.043,0.000
1737551729.452,15.625,-17.090,-19.531,-55.176,0.000
1737551729.456,23.926,-14.160,-30.762,-397.461,0.000
1737551729.460,4.883,-24.902,-19.531,-390.625,0.000
1737551729.464,-2.930,-20.508,-6.836,192.871,0.000
1737551729.468,-8.789,-7.812,-16.113,51.758,0.000
1737551729.472,-11.230,-3.906,-15.625,-172.852,0.000
1737551729.476,-7.324,-13.184,-8.789,-433.105,0.000
1737551729.479,-16.113,-17.578,-7.324,-504.883,0.000
1737551729.483,-19.531,-11.719,-18.555,47.363,0.000
1737551729.487,-44.922,-16.113,-10.254,66.406,0.000
1737551729.491,-50.781,-22.461,-8.789,-115.723,0.000
1737551729.495,-29.785,-15.137,-22.461,-385.742,0.000
1737551729.499,-16.113,-9.277,-22.461,-616.211,0.000
1737551729.503,4.883,-12.695,-21.973,-85.449,0.000
1737551729.507,-2.441,-15.137,-15.137,-7.812,0.000
1737551729.511,-23.438,-10.742,-5.371,-217.773,0.000
1737551729.515,-26.367,-8.789,-2.441,-476.074,0.000
1737551729.519,-17.578,-16.113,-14.160,-789.062,0.000
1737551729.522,-12.207,-11.719,-19.531,-127.930,0.000
1737551729.526,6.836,-9.277,-25.879,68.359,0.000
1737551729.530,10.742,-18.555,-35.645,-266.602,0.000
1737551729.534,-14.160,-21.973,-20.996,-423.828,0.000
1737551729.538,-37.598,-26.367,-9.766,-724.121,0.000
1737551729.542,-25.879,-25.391,-2.930,-203.125,0.000
1737551729.546,-2.441,-26.855,0.977,234.863,0.000
1737551729.550,-27.832,-23.438,-20.996,-158.203,0.000
1737551729.554,-20.996,-9.277,-25.391,-381.348,0.000
1737551729.558,-6.348,-10.254,-22.949,-511.719,0.000
1737551729.561,-19.043,-13.184,-22.949,-111.328,0.000
1737551729.565,-26.367,-10.742,-18.555,195.312,0.000
1737551729.569,-22.949,-19.043,-25.391,-62.988,0.000
1737551729.573,-18.066,-22.461,-28.809,-262.207,0.000
1737551729.577,-5.371,-21.484,-21.973,-567.871,0.000
1737551729.581,6.836,-23.438,-5.371,-229.492,0.000
1737551729.585,-0.977,-12.207,5.859,274.902,0.000
1737551729.589,6.348,-17.578,-4.883,81.055,0.000
1737551729.593,22.949,-20.996,-24.414,-123.535,0.000
1737551729.597,8.301,-12.207,-24.414,-499.512,0.000
1737551729.601,17.090,-6.348,-21.484,-265.625,0.000
1737551729.604,29.785,-10.254,-21.973,327.148,0.000
1737551729.608,24.902,-18.555,-15.625,136.719,0.000
1737551729.612,31.738,-7.324,-23.438,-93.262,0.000
1737551729.616,29.785,-4.395,-21.973,-417.969,0.000
1737551729.620,3.906,-25.391,-12.207,-396.484,0.000
1737551729.624,-7.812,-23.438,-10.254,271.484,0.000
1737551729.628,-28.809,-0.977,-11.230,210.449,0.000
1737551729.632,-2.441,-5.371,-15.137,-126.953,0.000
1737551729.636,14.648,-9.277,-18.066,-307.129,0.000
1737551729.640,-2.441,-14.648,-20.508,-349.609,0.000
1737551729.644,-18.066,-15.625,-16.113,104.492,0.000
1737551729.647,-40.039,-21.484,-7.324,119.629,0.000
1737551729.651,-32.715,-17.578,-18.555,-124.512,0.000
1737551729.655,-18.555,-7.812,-28.809,-427.246,0.000
1737551729.659,-17.578,-24.414,-15.625,-486.816,0.000
1737551729.663,-24.414,-35.156,-23.926,114.258,0.000
1737551729.667,-33.203,-15.137,-29.297,178.223,0.000
1737551729.671,-56.641,-13.672,-18.066,-94.727,0.000
1737551729.675,-51.758,-25.391,-18.555,-390.625,0.000
1737551729.679,-68.848,-12.695,-26.855,-597.656,0.000
1737551729.683,-64.453,-8.301,-27.832,34.668,0.000
1737551729.686,-13.672,-25.391,-27.344,214.844,0.000
1737551729.690,13.184,-29.297,-22.949,-81.543,0.000
1737551729.694,-15.625,-29.785,-18.066,-380.371,0.000
1737551729.698,-66.406,-19.531,-25.879,-598.145,0.000
1737551729.702,-72.266,-15.137,-22.949,-26.855,0.000
1737551729.706,-62.988,-15.137,-23.926,217.285,0.000
1737551729.710,-48.340,-13.672,-30.762,-145.996,0.000
1737551729.714,-43.945,-23.926,-14.160,-240.234,0.000
1737551729.718,-92.285,-31.738,-4.883,-545.898,0.000
1737551729.722,-86.426,-27.344,-24.414,-163.086,0.000
1737551729.726,-14.648,-10.254,-43.945,273.926,0.000
1737551729.729,-16.602,-20.508,-46.387,-84.473,0.000
1737551729.733,-73.242,-22.461,-18.066,-150.879,0.000
1737551729.737,-102.051,-19.531,-1.953,-540.039,0.000
1737551729.741,-82.520,-23.926,-11.230,-261.230,0.000
1737551729.745,-76.660,-20.996,-13.672,298.828,0.000
1737551729.749,-67.383,-24.414,-18.066,13.672,0.000
1737551729.753,-38.574,-25.391,-35.156,-204.102,0.000
1737551729.757,-61.035,-18.555,-40.039,-570.801,0.000
1737551729.761,-71.777,-12.695,-15.137,-242.676,0.000
1737551729.765,-54.688,-24.414,-7.812,383.789,0.000
1737551729.769,-47.852,-19.531,-29.785,160.156,0.000
1737551729.772,-33.691,-17.578,-23.926,24.902,0.000
1737551729.776,-48.340,-25.391,-3.906,-325.195,0.000
1737551729.780,-48.828,-13.184,2.930,-288.574,0.000
1737551729.784,-24.414,-20.996,-2.930,312.988,0.000
1737551729.788,-25.391,-40.039,-20.020,208.984,0.000
1737551729.792,-29.785,-33.691,-24.902,7.324,0.000
1737551729.796,-20.020,-11.230,-31.250,-294.922,0.000
1737551729.800,9.766,1.953,-34.668,-208.008,0.000
1737551729.804,-4.395,-3.906,-12.207,456.055,0.000
1737551729.808,-20.996,-26.367,-2.930,381.836,0.000
1737551729.811,12.207,-36.133,-18.066,55.176,0.000
1737551729.815,-3.418,-27.832,-9.766,-191.406,0.000
1737551729.819,-63.965,-21.973,-6.836,-247.070,0.000
1737551729.823,-64.453,-4.883,-8.789,404.785,0.000
1737551729.827,-55.664,-5.371,-2.441,495.605,0.000
1737551729.831,-42.480,-24.902,-1.953,143.555,0.000
1737551729.835,-25.391,-25.879,-7.812,-142.578,0.000
1737551729.839,-45.898,-13.672,-14.648,-277.832,0.000
1737551729.843,-35.645,1.953,-8.789,371.582,0.000
1737551729.847,-30.762,-1.465,-21.973,463.379,0.000
1737551729.851,-33.691,2.930,-38.086,122.559,0.000
1737551729.854,-30.762,13.184,-36.133,-100.586,0.000
1737551729.858,-40.039,8.789,-39.062,-449.219,0.000
1737551729.862,-25.879,-0.488,-39.551,117.188,0.000
1737551729.866,-14.160,4.883,-42.969,462.891,0.000
1737551729.870,14.648,20.996,-52.246,208.008,0.000
1737551729.874,17.090,16.113,-49.316,-44.434,0.000
1737551729.878,0.488,13.672,-38.574,-440.430,0.000
1737551729.882,21.484,20.020,-36.621,-0.488,0.000
1737551729.886,20.996,13.184,-43.945,377.930,0.000
1737551729.890,17.090,6.836,-37.598,83.984,0.000
1737551729.893,0.488,3.418,-35.645,-116.699,0.000
1737551729.897,-27.832,6.348,-45.898,-328.613,0.000
1737551729.901,-32.715,5.371,-49.805,-10.254,0.000
1737551729.905,-13.184,-7.812,-45.898,280.762,0.000
1737551729.909,7.812,-11.719,-36.133,101.562,0.000
1737551729.913,-17.578,-4.395,-36.133,14.648,0.000
1737551729.917,-33.691,-0.977,-31.250,-375.000,0.000
1737551729.921,-10.254,10.254,-22.949,-128.906,0.000
1737551729.925,22.949,9.277,-25.391,403.320,0.000
1737551729.929,19.531,0.488,-31.250,195.312,0.000
1737551729.933,-4.395,-6.348,-37.598,-74.707,0.000
1737551729.936,-23.926,-16.602,-43.945,-457.520,0.000
1737551729.940,-16.602,-8.301,-29.297,-171.875,0.000
1737551729.944,-4.883,0.977,-8.789,420.410,0.000
1737551729.948,-12.695,-9.766,-8.789,132.812,0.000
1737551729.952,-7.812,-27.344,-27.832,-120.605,0.000
1737551729.956,-11.719,-23.438,-41.016,-399.902,0.000
1737551729.960,-9.766,2.441,-22.461,-357.910,0.000
1737551729.964,4.395,14.160,-6.348,298.828,0.000
1737551729.968,5.859,11.230,-16.602,244.629,0.000
1737551729.972,1.465,4.395,-26.367,-14.160,0.000
1737551729.976,-2.930,-5.859,-27.832,-395.020,0.000
1737551729.979,4.883,-13.672,-25.879,-419.434,0.000
1737551729.983,44.434,-9.766,-15.625,264.160,0.000
1737551729.987,53.711,-15.137,-38.574,231.445,0.000
1737551729.991,7.812,-12.207,-43.945,81.055,0.000
1737551729.995,-4.883,3.906,-11.719,-210.449,0.000
1737551729.999,10.254,-6.836,-6.836,-454.590,0.000
1737551730.003,18.066,-19.043,-14.648,189.453,0.000
1737551730.007,12.695,-17.578,-13.184,254.395,0.000
1737551730.011,6.348,-8.301,-19.531,-34.180,0.000
1737551730.015,-29.785,-6.348,-21.973,-211.914,0.000
1737551730.018,-41.992,-12.207,-13.672,-385.742,0.000
1737551730.022,-13.672,-17.090,-12.207,51.270,0.000
1737551730.026,0.977,-18.555,-11.230,336.914,0.000
1737551730.030,43.945,-11.719,-12.695,152.832,0.000
1737551730.034,31.250,-29.785,-19.043,-224.609,0.000
1737551730.038,-32.715,-26.855,-24.902,-482.910,0.000
1737551730.042,-25.879,-0.488,-14.160,65.430,0.000
1737551730.046,-5.859,2.930,-15.137,416.016,0.000
1737551730.050,-2.930,0.000,-14.648,106.445,0.000
1737551730.054,-0.977,-4.883,0.488,-97.656,0.000
1737551730.058,-7.812,-3.906,4.395,-382.812,0.000
1737551730.061,-19.043,-5.859,-2.441,41.016,0.000
1737551730.065,-29.785,-18.066,-12.695,440.430,0.000
1737551730.069,-28.320,-7.324,-2.930,73.242,0.000
1737551730.073,-28.320,-0.977,-3.418,-147.461,0.000
1737551730.077,-74.219,-9.766,-20.020,-446.777,0.000
1737551730.081,-96.191,0.488,-9.277,-167.969,0.000
1737551730.085,-93.750,6.348,-5.859,365.234,0.000
1737551730.089,-110.840,3.906,-17.090,55.664,0.000
1737551730.093,-118.164,18.555,-14.160,-188.477,0.000
1737551730.097,-131.836,23.926,-9.277,-486.328,0.000
1737551730.101,-155.273,22.461,-17.090,-348.633,0.000
1737551730.104,-141.602,36.621,-20.996,285.156,0.000
1737551730.108,-161.133,35.645,-18.066,182.617,0.000
1737551730.112,-226.074,24.414,-17.578,-174.805,0.000
1737551730.116,-272.461,22.461,-16.113,-553.223,0.000
1737551730.120,-253.906,26.367,-34.668,-384.766,0.000
1737551730.124,-204.590,38.086,-35.156,308.594,0.000
1737551730.128,-241.211,18.066,-13.184,97.168,0.000
1737551730.132,-263.184,23.926,-9.766,-265.625,0.000
1737551730.136,-260.742,57.129,-7.324,-503.906,0.000
1737551730.140,-245.117,52.734,-5.371,-413.574,0.000
1737551730.143,-203.613,33.691,-9.766,255.371,0.000
1737551730.147,-178.711,26.367,-20.508,268.066,0.000
1737551730.151,-158.691,18.555,-21.973,-11.230,0.000
1737551730.155,-165.527,16.602,-23.438,-215.820,0.000
1737551730.159,-157.715,8.789,-24.414,-342.773,0.000
1737551730.163,-127.441,-10.742,-9.766,252.441,0.000
1737551730.167,-98.633,-25.391,-3.418,432.129,0.000
1737551730.171,-63.477,-25.879,-5.859,132.324,0.000
1737551730.175,-16.602,-14.648,-23.438,-90.332,0.000
1737551730.179,2.441,-20.996,-17.578,-287.109,0.000
1737551730.183,14.648,-31.250,-2.930,231.445,0.000
1737551730.186,27.344,-25.879,-8.789,590.332,0.000
1737551730.190,-4.883,-24.414,-4.883,264.160,0.000
1737551730.194,-9.277,-38.574,-11.230,-44.922,0.000
1737551730.198,17.090,-56.641,-34.668,-265.625,0.000
1737551730.202,39.062,-35.645,-39.551,229.980,0.000
1737551730.206,59.570,-20.508,-41.016,484.375,0.000
1737551730.210,62.500,-32.227,-22.461,153.320,0.000
1737551730.214,88.867,-27.832,-4.883,133.301,0.000
1737551730.218,102.539,-25.879,-19.043,-83.984,0.000
1737551730.222,52.246,-22.949,-13.672,357.422,0.000
1737551730.225,34.668,-20.508,-13.672,845.703,0.000
1737551730.229,70.801,-31.250,-11.719,632.324,0.000
1737551730.233,86.914,-26.367,-7.812,513.184,0.000
1737551730.237,84.473,-26.367,-21.484,153.809,0.000
1737551730.241,112.793,-40.039,-25.879,470.703,0.000
1737551730.245,125.000,-31.738,-14.160,958.496,0.000
1737551730.249,123.535,-18.066,-24.902,748.047,0.000
1737551730.253,115.723,-24.902,-30.762,510.254,0.000
1737551730.257,99.121,-35.156,-24.902,108.887,0.000
1737551730.261,89.844,-34.180,-14.648,245.605,0.000
1737551730.265,105.469,-21.973,0.000,772.461,0.000
1737551730.268,110.352,-23.926,4.883,540.039,0.000
1737551730.272,87.891,-31.250,1.465,232.910,0.000
1737551730.276,65.430,-43.457,-5.859,-101.562,0.000
1737551730.280,49.316,-41.992,-4.395,29.785,0.000
1737551730.284,54.199,-24.414,-5.859,609.375,0.000
1737551730.288,94.727,-25.391,-18.555,399.414,0.000
1737551730.292,79.590,-36.621,-21.484,144.531,0.000
1737551730.296,48.340,-38.086,-19.531,-38.086,0.000
1737551730.300,54.199,-38.086,-22.949,-124.512,0.000
1737551730.304,49.805,-32.227,-26.855,352.539,0.000
1737551730.308,54.199,-29.297,-22.461,383.301,0.000
1737551730.311,58.105,-33.203,-9.766,97.168,0.000
1737551730.315,37.109,-27.344,-17.578,-194.336,0.000
1737551730.319,34.180,-26.367,-30.762,-433.105,0.000
1737551730.323,33.203,-32.715,-24.414,-178.711,0.000
1737551730.327,31.250,-21.484,-19.043,-309.570,0.000
1737551730.331,29.785,-22.461,-30.273,-565.430,0.000
1737551730.335,26.855,-28.809,-24.414,-1.953,0.000
1737551730.339,18.555,-22.949,-17.090,181.641,0.000
1737551730.343,26.367,-13.184,-20.996,-46.875,0.000
1737551730.347,18.066,-21.973,-20.996,-298.340,0.000
1737551730.350,19.043,-35.156,-28.809,-609.863,0.000
1737551730.354,43.457,-19.043,-21.973,-20.020,0.000
1737551730.358,10.742,-8.789,-8.301,299.805,0.000
1737551730.362,-11.719,-15.625,-9.277,22.461,0.000
1737551730.366,-21.484,-16.602,-16.113,-326.172,0.000
1737551730.370,-15.625,-29.297,-16.113,-632.812,0.000
1737551730.374,13.672,-32.227,-11.719,-126.953,0.000
1737551730.378,22.461,-13.672,-14.160,162.598,0.000
1737551730.382,16.602,-10.254,-13.184,-71.777,0.000
1737551730.386,18.066,-24.902,-25.879,-302.734,0.000
1737551730.390,8.789,-30.273,-32.227,-585.449,0.000
1737551730.393,5.859,-24.414,-24.414,-274.902,0.000
1737551730.397,-14.160,-20.508,-21.973,93.750,0.000
1737551730.401,-31.250,-17.578,-10.254,-36.133,0.000
1737551730.405,-20.508,-16.602,-6.348,-191.406,0.000
1737551730.409,-20.996,-22.461,-16.113,-605.469,0.000
1737551730.413,-17.090,-22.949,-28.320,-387.695,0.000
1737551730.417,16.602,-18.066,-34.180,235.352,0.000
1737551730.421,20.996,-14.648,-32.227,46.387,0.000
1737551730.425,-4.395,-21.484,-17.090,-249.023,0.000
1737551730.429,-59.570,-28.809,-18.066,-575.684,0.000
1737551730.433,-67.383,-23.438,-29.297,-263.672,0.000
1737551730.436,-47.852,-26.855,-11.230,367.188,0.000
1737551730.440,-47.852,-46.875,-2.930,88.379,0.000
1737551730.444,-43.945,-50.781,-6.348,-214.355,0.000
1737551730.448,-53.223,-39.551,11.230,-506.348,0.000
1737551730.452,-96.191,-50.293,20.996,-479.492,0.000
1737551730.456,-96.680,-55.664,17.578,204.102,0.000
1737551730.460,-96.680,-53.223,18.066,160.156,0.000
1737551730.464,-86.914,-58.105,19.531,-108.398,0.000
1737551730.468,-74.707,-57.129,9.766,-301.270,0.000
1737551730.472,-83.984,-60.059,9.277,-351.074,0.000
1737551730.475,-44.434,-53.711,11.719,274.902,0.000
1737551730.479,-11.230,-42.480,8.301,357.422,0.000
1737551730.483,-21.973,-50.293,10.254,117.188,0.000
1737551730.487,-35.156,-40.527,8.789,-169.434,0.000
1737551730.491,-24.902,-31.250,-1.953,-376.953,0.000
1737551730.495,0.000,-38.086,-11.230,199.219,0.000
1737551730.499,8.301,-24.902,-7.324,442.383,0.000
1737551730.503,25.879,-19.531,4.395,243.652,0.000
1737551730.507,26.367,-40.039,3.418,-64.941,0.000
1737551730.511,-18.555,-41.504,-3.418,-369.141,0.000
1737551730.515,-19.531,-25.391,7.324,170.410,0.000
1737551730.518,8.789,-20.508,20.020,485.840,0.000
1737551730.522,29.785,-22.949,18.066,202.637,0.000
1737551730.526,51.270,-20.508,13.184,18.555,0.000
1737551730.530,32.227,-29.785,-2.441,-426.270,0.000
1737551730.534,36.133,-31.738,-23.926,62.500,0.000
1737551730.538,63.477,-28.809,-10.254,608.398,0.000
1737551730.542,34.180,-25.879,-4.883,214.844,0.000
1737551730.546,-0.977,-7.324,-9.277,-47.363,0.000
1737551730.550,2.930,-0.488,-9.766,-427.734,0.000
1737551730.554,29.785,-16.602,-4.395,-70.312,0.000
1737551730.558,30.762,-21.484,0.977,507.324,0.000
1737551730.561,16.113,-12.695,-17.090,198.730,0.000
1737551730.565,26.367,-8.301,-24.414,-49.805,0.000
1737551730.569,32.715,-4.883,-7.812,-379.883,0.000
1737551730.573,-29.785,-16.602,0.977,-144.531,0.000
1737551730.577,-34.668,-18.066,-7.324,523.926,0.000
1737551730.581,0.000,-19.043,-14.160,299.805,0.000
1737551730.585,-23.926,-27.832,-10.254,-104.004,0.000
1737551730.589,-47.363,-22.461,-14.648,-439.453,0.000
1737551730.593,-41.504,1.953,-15.625,-178.223,0.000
1737551730.597,-13.184,2.930,-7.812,339.844,0.000
1737551730.600,1.953,-15.137,-10.742,161.133,0.000
1737551730.604,-6.348,-20.020,-15.625,19.043,0.000
1737551730.608,-23.438,-16.602,-15.137,-413.086,0.000
1737551730.612,-32.227,-12.695,-18.066,-405.762,0.000
1737551730.616,-18.555,-10.742,-25.391,337.402,0.000
1737551730.620,-6.836,-15.137,-16.113,257.812,0.000
1737551730.624,-29.297,-14.648,-5.371,-23.926,0.000
1737551730.628,-26.855,-14.648,-23.438,-330.566,0.000
1737551730.632,-17.578,-21.484,-31.250,-461.426,0.000
1737551730.636,-36.621,-28.320,-22.461,217.285,0.000
1737551730.640,-30.762,-28.320,-13.184,370.605,0.000
1737551730.643,-10.742,-16.602,-1.465,27.832,0.000
1737551730.647,-11.230,-19.043,-17.090,-243.164,0.000
1737551730.651,-7.324,-23.438,-27.832,-235.352,0.000
1737551730.655,-5.859,-22.949,-25.391,243.164,0.000
1737551730.659,-37.598,-20.508,-20.020,313.965,0.000
1737551730.663,-64.941,-8.789,-20.020,139.160,0.000
1737551730.667,-63.965,-15.625,-35.156,-126.465,0.000
1737551730.671,-65.430,-21.973,-50.293,-327.148,0.000
1737551730.675,-67.383,-16.602,-37.109,237.793,0.000
1737551730.679,-52.734,-20.996,-11.230,448.730,0.000
1737551730.682,-61.523,-18.066,-4.883,201.660,0.000
1737551730.686,-95.703,-12.695,-15.137,-54.199,0.000
1737551730.690,-85.938,-37.598,-16.602,-372.559,0.000
1737551730.694,-44.434,-35.156,-14.648,117.676,0.000
1737551730.698,-20.996,-7.812,-16.113,563.477,0.000
1737551730.702,-47.852,-3.418,-13.184,342.773,0.000
1737551730.706,-60.059,-10.254,-12.207,132.324,0.000
1737551730.710,-51.270,-7.812,-17.090,-163.574,0.000
1737551730.714,-36.133,-20.508,-20.996,216.309,0.000
1737551730.718,-14.648,-28.320,-15.137,796.875,0.000
1737551730.722,-23.926,-19.043,-23.926,549.316,0.000
1737551730.725,-24.902,-18.066,-36.133,223.633,0.000
1737551730.729,-19.043,-12.207,-43.457,104.004,0.000
1737551730.733,-19.043,-14.160,-23.438,509.277,0.000
1737551730.737,-9.277,-24.414,5.859,933.105,0.000
1737551730.741,-10.254,-21.484,7.324,995.117,0.000
1737551730.745,23.438,-17.578,-0.488,913.574,0.000
1737551730.749,32.715,-19.531,-1.465,436.523,0.000
1737551730.753,-4.395,-18.066,-1.465,646.484,0.000
1737551730.757,-0.488,-18.555,-14.648,999.512,0.000
1737551730.761,2.441,-9.766,-20.508,945.312,0.000
1737551730.765,-6.348,6.348,-16.602,997.070,0.000
1737551730.768,-7.812,-3.418,-18.066,660.645,0.000
1737551730.772,-7.324,-17.578,-24.902,498.535,0.000
1737551730.776,-11.230,-9.277,-24.414,914.551,0.000
1737551730.780,-27.344,-12.695,-18.555,792.480,0.000
1737551730.784,-27.832,-8.789,-20.996,434.082,0.000
1737551730.788,-40.039,-14.648,-34.668,-2.930,0.000
1737551730.792,-26.367,-20.020,-25.391,-65.430,0.000
1737551730.796,22.461,-5.371,-4.883,533.691,0.000
1737551730.800,0.977,-7.812,-3.906,435.059,0.000
1737551730.804,-7.324,-14.160,-2.930,71.289,0.000
1737551730.807,-7.324,-15.137,-9.766,-272.949,0.000
1737551730.811,-30.762,-13.184,-13.672,-437.500,0.000
1737551730.815,11.230,-25.879,-24.414,99.121,0.000
1737551730.819,40.039,-26.367,-20.996,53.711,0.000
1737551730.823,26.367,-6.836,3.418,-255.371,0.000
1737551730.827,5.859,-2.930,-4.395,-627.441,0.000
1737551730.831,-3.906,-6.348,-24.902,-971.680,0.000
1737551730.835,37.598,-1.953,-9.766,-411.133,0.000
1737551730.839,41.016,-17.090,13.672,-231.934,0.000
1737551730.843,-35.156,-26.367,4.883,-571.777,0.000
1737551730.847,-40.527,-10.254,-20.020,-801.270,0.000
1737551730.850,-16.602,-15.625,-15.137,-1000.000,0.000
1737551730.854,-0.488,-17.090,-2.930,-766.602,0.000
1737551730.858,3.906,-4.883,-0.488,-403.320,0.000
1737551730.862,-24.902,-7.324,-2.441,-709.961,0.000
1737551730.866,-55.176,-18.066,-14.160,-986.328,0.000
1737551730.870,-39.062,-20.508,-14.160,-1000.000,0.000
1737551730.874,-12.207,-17.578,-8.301,-938.965,0.000
1737551730.878,-29.297,-13.672,-2.930,-582.520,0.000
1737551730.882,-30.273,-13.672,-8.789,-656.738,0.000
1737551730.886,-9.766,-18.066,-20.020,-917.969,0.000
1737551730.890,-20.508,-22.461,-15.625,-1000.000,0.000
1737551730.893,-36.133,-24.414,-12.695,-793.457,0.000
1737551730.897,-28.320,-22.461,-15.625,-251.953,0.000
1737551730.901,-15.625,-15.625,-16.113,-333.984,0.000
1737551730.905,-14.648,-8.301,-14.648,-578.125,0.000
1737551730.909,-17.090,-15.625,-20.020,-883.301,0.000
1737551730.913,1.953,-15.625,-24.414,-525.391,0.000
1737551730.917,0.977,-12.207,-21.973,115.234,0.000
1737551730.921,-26.855,-15.625,-16.113,-40.527,0.000
1737551730.925,-55.664,-20.508,-16.113,-242.676,0.000
1737551730.929,-56.641,-21.973,-23.926,-532.227,0.000
1737551730.932,-38.574,-19.043,-30.273,-434.570,0.000
1737551730.936,-31.738,-12.207,-19.531,321.777,0.000
1737551730.940,-125.488,-15.625,-15.137,149.902,0.000
1737551730.944,-195.312,-20.996,-15.625,-173.340,0.000
1737551730.948,-154.785,-22.949,-7.812,-296.875,0.000
1737551730.952,-155.762,-14.160,-8.789,-194.336,0.000
1737551730.956,-170.410,-5.371,-7.324,328.125,0.000
1737551730.960,-167.969,-5.859,-9.277,121.094,0.000
1737551730.964,-180.176,-3.906,-10.254,-35.645,0.000
1737551730.968,-197.754,0.488,-7.812,-196.777,0.000
1737551730.972,-209.961,3.906,-16.113,-316.406,0.000
1737551730.975,-203.125,3.418,-17.578,402.832,0.000
1737551730.979,-187.012,-3.418,-4.395,594.727,0.000
1737551730.983,-186.523,0.488,-16.113,223.145,0.000
1737551730.987,-173.828,0.000,-41.504,-48.828,0.000
1737551730.991,-157.227,-2.441,-12.207,-42.480,0.000
1737551730.995,-187.500,2.930,17.578,578.125,0.000
1737551730.999,-196.289,-2.930,17.578,746.094,0.000
1737551731.003,-160.156,-10.742,20.508,420.898,0.000
1737551731.007,-127.441,-2.441,13.672,194.824,0.000
1737551731.011,-87.891,6.348,1.465,-25.879,0.000
1737551731.015,-54.199,0.000,-0.977,546.875,0.000
1737551731.018,-96.191,-18.066,-2.930,944.824,0.000
1737551731.022,-137.207,-27.832,-4.395,576.660,0.000
1737551731.026,-82.031,-22.949,-11.719,342.773,0.000
1737551731.030,-29.297,-20.020,-20.020,120.605,0.000
1737551731.034,-12.207,-20.996,-7.324,466.797,0.000
1737551731.038,-32.227,-13.184,-9.277,826.660,0.000
1737551731.042,-48.340,-12.207,-20.020,541.992,0.000
1737551731.046,-25.879,-8.789,-12.207,380.371,0.000
1737551731.050,4.883,-17.578,-4.395,194.336,0.000
1737551731.054,15.137,-27.344,-4.883,452.637,0.000
1737551731.057,14.160,-30.762,-12.695,866.699,0.000
1737551731.061,-5.859,-33.203,-13.184,659.180,0.000
1737551731.065,17.578,-18.555,-12.695,418.945,0.000
1737551731.069,47.852,-18.555,-13.672,113.770,0.000
1737551731.073,56.152,-24.902,-14.648,457.520,0.000
1737551731.077,45.898,-24.902,-18.066,900.391,0.000
1737551731.081,52.734,-26.855,-20.508,705.078,0.000
1737551731.085,95.703,-24.414,-28.809,510.742,0.000
1737551731.089,114.746,-20.020,-45.410,120.605,0.000
1737551731.093,35.645,-27.832,-48.828,256.836,0.000
1737551731.097,-18.066,-25.879,-28.320,895.508,0.000
1737551731.100,-4.883,-18.555,-20.996,799.805,0.000
1737551731.104,0.977,-25.879,-29.785,499.023,0.000
1737551731.108,-1.465,-22.949,-31.250,204.590,0.000
1737551731.112,-0.488,-17.090,-37.109,298.828,0.000
1737551731.116,5.371,-22.949,-36.621,875.488,0.000
1737551731.120,27.344,-22.949,-36.621,777.832,0.000
1737551731.124,37.109,-25.391,-43.457,461.914,0.000
1737551731.128,38.086,-19.043,-28.320,258.789,0.000
1737551731.132,30.273,-11.719,-17.578,99.121,0.000
1737551731.136,19.531,-19.531,-16.113,638.184,0.000
1737551731.139,37.109,-18.066,-21.484,878.418,0.000
1737551731.143,11.719,-21.973,-21.973,533.691,0.000
1737551731.147,8.301,-26.855,-21.973,152.344,0.000
1737551731.151,31.250,-29.297,-29.785,134.766,0.000
1737551731.155,47.852,-27.832,-33.203,675.293,0.000
1737551731.159,49.316,-20.508,-27.832,742.188,0.000
1737551731.163,37.598,-10.742,-17.090,498.047,0.000
1737551731.167,27.344,-15.137,-15.625,256.836,0.000
1737551731.171,10.254,-20.996,-20.020,-44.434,0.000
1737551731.175,6.836,-16.113,-16.602,469.238,0.000
1737551731.179,8.789,-16.113,-13.184,733.887,0.000
1737551731.182,30.762,-13.672,-17.090,437.012,0.000
1737551731.186,36.133,-14.160,-21.973,212.891,0.000
1737551731.190,30.273,-26.367,-27.344,-167.480,0.000
1737551731.194,21.484,-24.902,-34.180,252.441,0.000
1737551731.198,9.277,-5.859,-31.738,666.992,0.000
1737551731.202,-3.906,-7.324,-32.227,369.141,0.000
1737551731.206,-1.465,-14.648,-40.527,54.199,0.000
1737551731.210,3.906,-17.578,-15.625,-305.176,0.000
1737551731.214,-27.832,-17.090,0.977,106.445,0.000
1737551731.218,-38.086,-14.160,-9.766,506.836,0.000
1737551731.222,-22.949,-13.672,-10.742,206.543,0.000
1737551731.225,0.000,-12.695,-14.648,-83.008,0.000
1737551731.229,-3.418,-19.043,-18.555,-532.715,0.000
1737551731.233,-35.645,-20.020,-12.695,-136.719,0.000
1737551731.237,2.930,-13.672,-12.207,362.305,0.000
1737551731.241,84.961,-8.301,-24.414,43.945,0.000
1737551731.245,74.707,-16.602,-27.344,-177.734,0.000
1737551731.249,4.395,-25.879,-25.391,-447.266,0.000
1737551731.253,-49.805,-24.414,-33.203,-309.570,0.000
1737551731.257,-29.297,-15.625,-20.020,249.023,0.000
1737551731.261,-13.672,-23.926,-11.719,88.379,0.000
1737551731.264,-20.508,-36.133,-12.695,-173.828,0.000
1737551731.268,-30.273,-18.066,-12.207,-461.914,0.000
1737551731.272,-38.086,-11.230,-17.578,-521.973,0.000
1737551731.276,-14.648,-20.020,-12.207,55.664,0.000
1737551731.280,-21.484,-13.672,-8.789,173.828,0.000
1737551731.284,-26.855,-4.395,-13.672,-97.168,0.000
1737551731.288,5.859,-1.953,-18.066,-541.016,0.000
1737551731.292,-0.977,-8.301,-31.250,-588.867,0.000
1737551731.296,14.160,-6.836,-28.809,59.570,0.000
1737551731.300,11.230,-4.883,-29.785,119.629,0.000
1737551731.304,-27.832,-12.207,-32.227,-145.996,0.000
1737551731.307,-19.043,-20.996,-25.879,-420.898,0.000
1737551731.311,-27.832,-22.949,-22.949,-532.715,0.000
1737551731.315,-36.133,-9.766,-15.137,63.965,0.000
1737551731.319,-34.180,-2.441,-17.090,179.199,0.000
1737551731.323,-20.020,-12.695,-28.320,-112.305,0.000
1737551731.327,-10.742,-24.414,-27.832,-315.918,0.000
1737551731.331,-34.668,-26.367,-23.438,-527.832,0.000
1737551731.335,-76.172,-26.367,-30.762,-75.684,0.000
1737551731.339,-103.516,-22.949,-28.320,201.172,0.000
1737551731.343,-70.312,-9.277,-20.996,-96.191,0.000
1737551731.347,3.418,-8.301,-25.879,-390.625,0.000
1737551731.350,-2.930,-22.461,-29.785,-590.820,0.000
1737551731.354,-42.480,-22.461,-26.855,-60.547,0.000
1737551731.358,-57.617,-13.672,-20.508,305.664,0.000
1737551731.362,-43.457,-14.648,-12.695,48.828,0.000
1737551731.366,-64.453,-16.113,-8.789,-287.109,0.000
1737551731.370,-100.586,-18.066,-17.578,-644.531,0.000
1737551731.374,-54.199,-21.973,-20.996,-114.258,0.000
1737551731.378,-29.785,-20.508,-24.902,272.461,0.000
1737551731.382,-20.996,-20.996,-29.297,-99.609,0.000
1737551731.386,-19.531,-15.137,-30.762,-224.121,0.000
1737551731.389,-35.645,-15.625,-24.902,-517.090,0.000
1737551731.393,-2.441,-18.555,-14.160,-285.156,0.000
1737551731.397,-32.227,-10.742,-18.066,264.160,0.000
1737551731.401,-56.641,-10.254,-23.926,48.340,0.000
1737551731.405,-22.461,-19.531,-21.973,-151.855,0.000
1737551731.409,4.883,-12.695,-25.879,-349.121,0.000
1737551731.413,40.527,-4.395,-21.973,-159.668,0.000
1737551731.417,21.973,-9.766,-15.625,382.324,0.000
1737551731.421,-36.621,-12.695,-9.766,394.531,0.000
1737551731.425,-59.570,-9.277,-12.207,98.633,0.000
1737551731.429,-30.273,-8.301,-26.855,-342.773,0.000
1737551731.432,0.000,-8.301,-17.578,-104.492,0.000
1737551731.436,12.207,-2.930,-6.836,494.141,0.000
1737551731.440,27.832,-6.348,-2.930,468.262,0.000
1737551731.444,37.598,-0.488,-5.859,278.809,0.000
1737551731.448,13.184,-5.371,-14.648,-96.191,0.000
1737551731.452,4.395,-11.719,-5.859,-39.062,0.000
1737551731.456,28.809,-4.883,1.953,596.680,0.000
1737551731.460,29.297,-7.324,2.441,506.348,0.000
1737551731.464,-2.930,-15.137,-6.348,274.902,0.000
1737551731.468,-44.434,-18.555,-12.207,159.668,0.000
1737551731.472,-20.508,-14.160,-10.254,71.777,0.000
1737551731.475,5.371,-12.207,-4.883,526.367,0.000
1737551731.479,18.066,-5.859,-4.395,621.094,0.000
1737551731.483,4.883,-3.906,-15.625,361.328,0.000
1737551731.487,-9.766,-7.812,-10.742,91.309,0.000
1737551731.491,6.348,-6.836,-14.160,-81.543,0.000
1737551731.495,16.602,-17.090,-29.297,441.895,0.000
1737551731.499,17.090,-18.555,-21.973,673.828,0.000
1737551731.503,13.672,-9.766,-4.395,462.402,0.000
1737551731.507,15.137,-20.020,-3.906,286.133,0.000
1737551731.511,-32.715,-18.555,-15.137,45.410,0.000
1737551731.514,-49.805,-9.766,-11.719,422.852,0.000
1737551731.518,-34.180,-13.184,-2.930,694.824,0.000
1737551731.522,-52.734,-19.043,-8.789,354.492,0.000
1737551731.526,-65.918,-14.648,-11.719,129.395,0.000
1737551731.530,-55.664,-16.602,-21.484,-160.645,0.000
1737551731.534,-34.668,-22.461,-32.715,221.680,0.000
1737551731.538,-36.133,-17.578,-27.344,573.730,0.000
1737551731.542,-58.105,-17.090,-15.137,301.758,0.000
1737551731.546,-42.480,-18.066,-4.395,16.113,0.000
1737551731.550,-32.715,-19.531,-7.812,-323.242,0.000
1737551731.554,-21.484,-23.438,-20.996,23.926,0.000
1737551731.557,-5.859,-15.625,-20.020,412.598,0.000
1737551731.561,-4.395,-13.672,-16.602,205.078,0.000
1737551731.565,-7.324,-15.625,-18.555,14.160,0.000
1737551731.569,-22.949,-14.648,-8.301,-403.809,0.000
1737551731.573,-6.348,-12.207,-6.348,-281.738,0.000
1737551731.577,10.254,-10.742,-13.184,335.938,0.000
1737551731.581,-9.277,-9.766,-7.812,169.922,0.000
1737551731.585,-25.391,-13.184,-8.301,-125.488,0.000
1737551731.589,-33.691,-18.555,-17.578,-424.316,0.000
1737551731.593,-32.227,-16.113,-18.555,-455.078,0.000
1737551731.597,-22.949,-16.602,-12.695,153.320,0.000
1737551731.600,-17.578,-16.602,-15.625,187.012,0.000
1737551731.604,-61.035,-12.695,-15.137,-139.160,0.000
1737551731.608,-103.516,-10.742,-12.695,-417.480,0.000
1737551731.612,-99.609,-16.113,-12.695,-419.922,0.000
1737551731.616,-78.613,-14.160,-10.254,57.617,0.000
1737551731.620,-73.730,-6.348,-13.672,66.895,0.000
1737551731.624,-102.539,-9.277,-8.789,-108.887,0.000
1737551731.628,-117.188,-17.578,-8.301,-542.480,0.000
1737551731.632,-159.668,-8.789,-13.672,-678.223,0.000
1737551731.636,-200.684,6.348,-12.207,-10.742,0.000
1737551731.639,-168.457,14.160,-17.090,-19.531,0.000
1737551731.643,-156.738,23.926,-20.996,-327.148,0.000
1737551731.647,-186.523,31.738,-23.926,-534.180,0.000
1737551731.651,-209.961,31.738,-37.109,-641.113,0.000
1737551731.655,-207.031,46.875,-45.898,-158.691,0.000
1737551731.659,-217.773,57.129,-50.781,-137.207,0.000
1737551731.663,-227.539,62.988,-59.082,-413.574,0.000
1737551731.667,-232.422,77.637,-67.871,-649.414,0.000
1737551731.671,-259.277,88.379,-63.965,-797.363,0.000
1737551731.675,-274.902,88.867,-64.453,-284.180,0.000
1737551731.679,-245.605,80.566,-66.895,-170.410,0.000
1737551731.682,-232.422,58.594,-51.758,-384.277,0.000
1737551731.686,-247.070,54.688,-57.617,-593.750,0.000
1737551731.690,-234.375,67.871,-61.523,-879.395,0.000
1737551731.694,-215.820,74.707,-56.641,-395.996,0.000
1737551731.698,-196.289,72.266,-57.617,14.648,0.000
1737551731.702,-148.926,62.012,-60.547,-186.523,0.000
1737551731.706,-119.141,48.828,-63.965,-458.984,0.000
1737551731.710,-117.676,40.527,-66.895,-831.055,0.000
1737551731.714,-83.008,30.762,-64.941,-382.812,0.000
1737551731.718,-59.570,19.531,-51.758,169.922,0.000
1737551731.721,-52.246,7.324,-50.781,-120.605,0.000
1737551731.725,-22.461,-6.836,-50.781,-333.984,0.000
1737551731.729,-3.418,-17.578,-32.715,-591.797,0.000
1737551731.733,4.395,-27.832,-25.391,-383.301,0.000
1737551731.737,67.383,-21.973,-32.715,226.562,0.000
1737551731.741,110.352,-12.695,-38.086,50.781,0.000
1737551731.745,73.242,-27.344,-36.133,-262.207,0.000
1737551731.749,59.082,-27.832,-29.297,-455.566,0.000
1737551731.753,61.523,-24.414,-29.785,-294.434,0.000
1737551731.757,65.430,-30.273,-25.879,195.801,0.000
1737551731.761,62.012,-36.621,-20.508,125.000,0.000
1737551731.764,101.074,-48.340,-25.391,-62.012,0.000
1737551731.768,86.914,-61.523,-35.645,-427.246,0.000
1737551731.772,71.777,-53.711,-35.645,-374.023,0.000
1737551731.776,98.145,-39.062,-21.973,305.176,0.000
1737551731.780,88.867,-41.992,-20.020,225.586,0.000
1737551731.784,67.871,-59.082,-17.090,-69.824,0.000
1737551731.788,67.871,-67.383,-6.348,-316.895,0.000
1737551731.792,84.473,-48.340,-20.508,-355.469,0.000
1737551731.796,58.594,-32.227,-21.973,306.641,0.000
1737551731.800,69.336,-39.551,-20.508,359.375,0.000
1737551731.804,116.699,-42.969,-35.156,-109.863,0.000
1737551731.807,72.266,-43.945,-26.855,-369.629,0.000
1737551731.811,34.668,-49.316,-19.531,-399.414,0.000
1737551731.815,57.617,-46.875,-21.973,149.414,0.000
1737551731.819,50.781,-45.898,-22.949,268.066,0.000
1737551731.823,54.199,-51.270,-23.438,-2.441,0.000
1737551731.827,68.359,-53.223,-32.715,-281.738,0.000
1737551731.831,27.344,-40.527,-32.227,-449.219,0.000
1737551731.835,21.484,-35.156,-19.531,178.711,0.000
1737551731.839,76.172,-36.621,-11.230,346.191,0.000
1737551731.843,115.723,-32.227,-1.465,62.988,0.000
1737551731.846,124.512,-32.227,-1.465,-127.930,0.000
1737551731.850,77.148,-47.852,-2.930,-445.312,0.000
1737551731.854,30.273,-49.805,-1.953,94.238,0.000
1737551731.858,7.324,-43.945,-9.766,382.812,0.000
1737551731.862,22.461,-44.922,-27.832,50.781,0.000
1737551731.866,116.211,-41.016,-35.156,-145.508,0.000
1737551731.870,89.844,-31.250,-15.625,-398.438,0.000
1737551731.874,-7.324,-24.414,-11.719,-29.297,0.000
1737551731.878,-6.836,-24.902,-20.996,366.211,0.000
1737551731.882,-9.277,-41.504,-6.836,83.008,0.000
1737551731.886,-39.062,-47.852,-5.371,-155.273,0.000
1737551731.889,-31.250,-41.992,-8.789,-379.883,0.000
1737551731.893,-4.395,-39.062,-11.230,-183.594,0.000
1737551731.897,21.484,-33.203,-17.578,196.289,0.000
1737551731.901,9.766,-21.484,-14.160,19.531,0.000
1737551731.905,-17.090,-18.066,-9.766,-149.414,0.000
1737551731.909,-2.930,-19.043,-11.719,-355.469,0.000
1737551731.913,2.441,-16.602,-17.578,-150.879,0.000
1737551731.917,8.789,-21.484,-22.949,268.555,0.000
1737551731.921,20.508,-28.320,-30.273,85.449,0.000
1737551731.925,14.160,-29.785,-22.949,-70.312,0.000
1737551731.929,-5.371,-25.391,-13.672,-321.777,0.000
1737551731.932,25.879,-12.695,-14.648,-261.719,0.000
1737551731.936,48.340,-10.254,-15.137,371.094,0.000
1737551731.940,26.855,-28.320,-23.438,232.910,0.000
1737551731.944,15.137,-31.738,-17.578,-52.246,0.000
1737551731.948,-33.203,-18.555,-14.160,-319.824,0.000
1737551731.952,-76.660,-19.531,-23.438,-378.418,0.000
1737551731.956,-80.078,-23.438,-25.391,281.250,0.000
1737551731.960,-37.598,-28.320,-15.137,254.883,0.000
1737551731.964,-31.738,-27.832,-8.789,-83.496,0.000
1737551731.968,-35.156,-12.695,-18.066,-203.613,0.000
1737551731.971,-9.766,-12.695,-18.555,-340.820,0.000
1737551731.975,14.160,-20.020,-9.766,243.652,0.000
1737551731.979,5.859,-9.277,-11.230,457.520,0.000
1737551731.983,-13.672,-4.883,-12.695,163.086,0.000
1737551731.987,-11.719,-22.949,-17.090,-97.168,0.000
1737551731.991,-26.855,-33.203,-15.625,-292.969,0.000
1737551731.995,-35.645,-17.578,-18.066,277.832,0.000
1737551731.999,20.996,-14.160,-31.738,512.695,0.000
1737551732.003,26.855,-25.391,-28.809,252.930,0.000
1737551732.007,-22.461,-28.809,-5.859,123.047,0.000
1737551732.011,-14.648,-18.555,-8.789,-46.875,0.000
1737551732.014,-17.090,-9.277,-15.137,395.020,0.000
1737551732.018,-50.293,-8.789,-4.883,715.332,0.000
1737551732.022,-40.039,-13.184,-2.441,551.270,0.000
1737551732.026,-15.625,-16.113,0.488,305.176,0.000
1737551732.030,-22.949,-14.648,-10.742,33.691,0.000
1737551732.034,-22.461,-7.812,-17.578,422.363,0.000
1737551732.038,-6.348,-9.766,-13.672,740.723,0.000
1737551732.042,-14.160,-21.973,-21.484,524.414,0.000
1737551732.046,-45.410,-22.461,-10.254,340.332,0.000
1737551732.050,-39.062,-22.461,1.953,75.684,0.000
1737551732.053,-2.441,-21.973,-2.441,369.629,0.000
1737551732.057,24.414,-14.160,-18.066,793.945,0.000
1737551732.061,23.438,-25.391,-13.672,507.324,0.000
1737551732.065,-1.953,-33.691,-9.766,284.180,0.000
1737551732.069,-16.113,-31.250,-23.926,26.855,0.000
1737551732.073,5.859,-26.855,-20.508,171.387,0.000
1737551732.077,8.789,-16.602,-10.254,675.293,0.000
1737551732.081,-2.441,-10.254,-4.395,457.031,0.000
1737551732.085,-6.348,-8.789,-9.277,72.754,0.000
1737551732.089,-32.715,-16.602,-18.066,-202.148,0.000
1737551732.093,-63.965,-25.391,-16.113,-4.395,0.000
1737551732.096,-32.227,-21.973,-12.695,482.422,0.000
1737551732.100,8.301,-18.066,-10.254,266.113,0.000
1737551732.104,-15.625,-16.113,-7.324,-50.293,0.000
1737551732.108,-25.879,-18.066,-8.301,-329.102,0.000
1737551732.112,-15.625,-20.020,-20.508,-336.426,0.000
1737551732.116,-23.438,-21.973,-15.625,217.773,0.000
1737551732.120,-36.621,-20.508,-8.789,174.316,0.000
1737551732.124,-20.996,-13.184,-20.996,-65.430,0.000
1737551732.128,-4.395,-17.090,-25.391,-426.758,0.000
1737551732.132,-23.926,-39.062,-24.902,-571.777,0.000
1737551732.136,-14.160,-30.762,-15.137,167.480,0.000
1737551732.139,4.883,-6.836,0.000,256.348,0.000
1737551732.143,-11.230,1.465,-6.836,-114.258,0.000
1737551732.147,-16.602,-4.395,-14.160,-426.270,0.000
1737551732.151,-11.719,-16.113,-0.977,-494.141,0.000
1737551732.155,3.906,-13.184,-4.395,71.777,0.000
1737551732.159,2.441,-9.766,-14.160,202.637,0.000
1737551732.163,-5.859,-14.160,-5.371,-70.801,0.000
1737551732.167,-1.953,-24.414,-5.859,-290.527,0.000
1737551732.171,-16.602,-30.762,-11.719,-453.125,0.000
1737551732.175,-16.113,-24.414,-12.695,41.992,0.000
1737551732.178,1.953,-30.273,-16.113,173.340,0.000
1737551732.182,24.414,-27.832,-15.625,-84.961,0.000
1737551732.186,5.371,-12.695,-8.789,-229.004,0.000
1737551732.190,-36.621,-14.160,-12.207,-544.922,0.000
1737551732.194,-38.574,-22.461,-12.207,-97.656,0.000
1737551732.198,-17.578,-27.832,-8.789,319.824,0.000
1737551732.202,-6.836,-21.973,-13.672,-59.082,0.000
1737551732.206,-10.254,-11.719,-14.648,-349.121,0.000
1737551732.210,-27.344,-17.578,-14.648,-555.176,0.000
1737551732.214,-19.531,-21.484,-17.578,-180.176,0.000
1737551732.218,-2.441,-5.859,-21.484,312.988,0.000
1737551732.221,-5.371,-2.930,-11.230,37.598,0.000
1737551732.225,15.625,-32.715,-3.906,-290.039,0.000
1737551732.229,25.879,-14.648,-9.766,-539.551,0.000
1737551732.233,-42.969,10.254,-19.043,-334.473,0.000
1737551732.237,-58.105,-5.371,-21.973,137.207,0.000
1737551732.241,37.598,-11.719,-17.578,77.148,0.000
1737551732.245,56.152,-8.789,-19.043,-152.344,0.000
1737551732.249,16.113,-17.578,-24.414,-630.371,0.000
1737551732.253,5.859,-24.902,-29.297,-394.531,0.000
1737551732.257,9.277,-29.785,-17.578,221.680,0.000
1737551732.261,39.062,-34.180,-8.789,-52.246,0.000
1737551732.264,65.430,-28.320,-11.230,-205.566,0.000
1737551732.268,24.414,-28.320,-20.020,-517.090,0.000
1737551732.272,-1.465,-25.391,-23.926,-502.930,0.000
1737551732.276,22.461,-17.090,-18.066,188.965,0.000
1737551732.280,33.691,-27.344,-22.461,52.246,0.000
1737551732.284,4.883,-21.973,-14.160,-214.355,0.000
1737551732.288,9.277,-10.254,-5.859,-384.277,0.000
1737551732.292,27.344,-13.184,-25.391,-363.770,0.000
1737551732.296,35.645,-15.625,-29.297,283.203,0.000
1737551732.300,63.965,-19.531,-20.020,540.527,0.000
1737551732.303,44.434,-20.996,-21.484,589.355,0.000
1737551732.307,14.160,-16.602,-16.602,531.738,0.000
1737551732.311,-13.672,-16.602,-4.883,369.141,0.000
1737551732.315,-29.297,-11.230,-5.859,764.648,0.000
1737551732.319,-29.297,-6.348,-5.859,756.348,0.000
1737551732.323,-15.137,-12.695,-8.301,245.117,0.000
1737551732.327,-14.160,-16.113,-15.137,-134.766,0.000
1737551732.331,-16.113,-33.691,-18.066,-368.652,0.000
1737551732.335,-20.996,-40.527,-19.531,70.312,0.000
1737551732.339,-20.508,-16.113,-20.996,176.758,0.000
1737551732.343,8.789,-6.348,-26.855,-90.820,0.000
1737551732.346,-0.488,-18.066,-28.809,-274.902,0.000
1737551732.350,-15.625,-21.484,-13.184,-557.617,0.000
1737551732.354,14.160,-7.812,-15.137,-132.812,0.000
1737551732.358,39.062,-11.230,-20.508,255.371,0.000
1737551732.362,39.551,-33.203,-15.625,-55.664,0.000
1737551732.366,17.090,-26.367,-16.602,-296.387,0.000
1737551732.370,-11.230,-10.254,-21.973,-511.719,0.000
1737551732.374,-13.184,-12.207,-27.344,-244.629,0.000
1737551732.378,6.836,-8.301,-24.902,119.629,0.000
1737551732.382,16.602,-9.277,-26.855,-58.594,0.000
1737551732.386,10.742,-17.578,-20.020,-257.324,0.000
1737551732.389,1.953,-17.578,-9.277,-539.551,0.000
1737551732.393,-4.883,-22.461,-10.742,-217.773,0.000
1737551732.397,-21.484,-36.133,-19.043,266.602,0.000
1737551732.401,-13.672,-23.926,-19.043,34.668,0.000
1737551732.405,-2.930,-8.789,-10.742,-142.090,0.000
1737551732.409,-25.879,-17.578,-9.766,-426.270,0.000
1737551732.413,-26.855,-21.484,-5.371,-295.898,0.000
1737551732.417,-2.441,-12.695,-6.348,271.484,0.000
1737551732.421,-13.672,-12.207,-3.418,82.520,0.000
1737551732.425,-14.648,-19.531,3.906,-124.512,0.000
1737551732.428,-11.719,-29.297,-8.789,-377.930,0.000
1737551732.432,-12.207,-28.320,-22.461,-324.219,0.000
1737551732.436,-8.301,-21.973,-20.508,223.145,0.000
1737551732.440,-18.066,-27.344,-22.461,106.445,0.000
1737551732.444,0.488,-21.484,-19.531,-88.379,0.000
1737551732.448,-0.977,-12.207,-10.742,-332.031,0.000
1737551732.452,-6.836,-8.789,-16.113,-274.902,0.000
1737551732.456,0.977,-19.043,-19.531,222.656,0.000
1737551732.460,-30.762,-27.344,-15.625,128.906,0.000
1737551732.464,-39.551,-19.531,-16.602,-119.141,0.000
1737551732.468,-24.902,-18.066,-19.531,-373.535,0.000
1737551732.471,-21.973,-13.672,-15.137,-352.051,0.000
1737551732.475,-12.695,-10.742,-11.230,189.941,0.000
1737551732.479,-50.293,-22.461,-14.648,205.566,0.000
1737551732.483,-52.246,-20.996,-18.555,-2.441,0.000
1737551732.487,-8.789,-21.484,-18.066,-188.477,0.000
1737551732.491,-14.648,-26.855,-16.113,-420.410,0.000
1737551732.495,-54.199,-19.043,-20.996,97.168,0.000
1737551732.499,-55.664,-17.090,-18.555,338.867,0.000
1737551732.503,-38.574,-24.414,-14.648,-6.836,0.000
1737551732.507,-18.066,-23.926,-24.414,-343.750,0.000
1737551732.511,-15.625,-20.996,-22.949,-497.559,0.000
1737551732.514,-21.484,-25.879,-18.555,41.016,0.000
1737551732.518,-14.648,-25.391,-27.344,354.980,0.000
1737551732.522,-20.508,-18.066,-22.461,60.547,0.000
1737551732.526,-25.879,-3.906,-5.859,-84.473,0.000
1737551732.530,-33.203,-4.883,-9.277,-330.566,0.000
1737551732.534,-44.922,-17.090,-17.090,-52.246,0.000
1737551732.538,-42.480,-21.484,-19.043,336.914,0.000
1737551732.542,-24.902,-12.695,-20.996,128.906,0.000
1737551732.546,-29.785,-12.695,-16.602,-83.984,0.000
1737551732.550,-30.762,-6.348,-7.324,-390.137,0.000
1737551732.553,-30.762,-15.137,-13.672,-142.578,0.000
1737551732.557,-38.574,-37.109,-27.832,300.293,0.000
1737551732.561,-57.129,-31.738,-36.621,116.211,0.000
1737551732.565,-45.410,-17.090,-23.926,-79.102,0.000
1737551732.569,-26.367,-7.812,-17.090,-381.836,0.000
1737551732.573,-23.438,3.906,-22.461,-105.957,0.000
1737551732.577,14.160,-5.859,-12.695,360.352,0.000
1737551732.581,17.578,-22.461,-6.348,71.777,0.000
1737551732.585,-23.926,-13.672,-7.812,-140.625,0.000
1737551732.589,-20.020,0.000,-8.789,-340.820,0.000
1737551732.593,-10.254,-1.953,-13.672,-98.633,0.000
1737551732.596,-14.648,-8.301,-13.672,396.973,0.000
1737551732.600,-31.250,-13.672,-13.672,153.809,0.000
1737551732.604,-41.992,-30.273,-26.855,-132.812,0.000
1737551732.608,-35.156,-25.879,-20.996,-334.473,0.000
1737551732.612,-26.855,-11.230,-10.254,-260.254,0.000
1737551732.616,-12.695,-9.766,-12.207,318.359,0.000
1737551732.620,0.000,-5.371,-8.789,245.117,0.000
1737551732.624,10.742,-11.230,-7.324,9.277,0.000
1737551732.628,31.738,-7.812,-16.113,-225.586,0.000
1737551732.632,3.418,-10.254,-19.043,-343.262,0.000
1737551732.635,-60.547,-20.020,-7.812,278.320,0.000
1737551732.639,-38.574,-8.301,-6.836,412.598,0.000
1737551732.643,-23.926,0.000,-7.812,81.543,0.000
1737551732.647,-34.180,-11.230,-0.488,-257.324,0.000
1737551732.651,-24.902,-10.742,-7.812,-311.035,0.000
1737551732.655,-14.160,0.488,-5.371,305.176,0.000
1737551732.659,-7.324,-4.395,3.418,329.590,0.000
1737551732.663,-7.324,-10.254,-3.906,57.129,0.000
1737551732.667,-20.020,-19.043,-9.277,-84.473,0.000
1737551732.671,-24.902,-33.691,-13.672,-357.422,0.000
1737551732.675,18.066,-28.809,-22.949,158.691,0.000
1737551732.678,-2.441,-7.812,-21.484,405.273,0.000
1737551732.682,-57.617,-6.348,-8.301,59.082,0.000
1737551732.686,-71.289,-19.043,-7.812,-66.895,0.000
1737551732.690,-89.844,-10.254,-17.090,-446.289,0.000
1737551732.694,-81.055,-7.324,-26.855,-144.043,0.000
1737551732.698,-65.918,-19.531,-30.762,354.492,0.000
1737551732.702,-86.914,-27.832,-33.691,52.734,0.000
1737551732.706,-92.773,-23.438,-31.250,-140.137,0.000
1737551732.710,-92.773,-6.836,-24.414,-359.863,0.000
1737551732.714,-92.773,-10.742,-18.066,-13.672,0.000
1737551732.718,-74.707,-11.719,-18.555,409.180,0.000
1737551732.721,-58.594,0.488,-23.926,132.812,0.000
1737551732.725,-60.059,-8.789,-20.508,-110.840,0.000
1737551732.729,-75.195,-15.137,-17.090,-340.332,0.000
1737551732.733,-59.082,-10.254,-22.461,-11.230,0.000
1737551732.737,-20.020,-11.719,-16.113,400.391,0.000
1737551732.741,-37.109,-20.996,-22.949,132.812,0.000
1737551732.745,-52.734,-28.809,-36.621,-58.105,0.000
1737551732.749,-66.406,-41.504,-23.438,-354.004,0.000
1737551732.753,-64.453,-24.414,-17.578,-162.598,0.000
1737551732.757,-40.039,-6.348,-18.066,381.836,0.000
1737551732.760,-20.996,-17.578,-11.719,216.797,0.000
1737551732.764,-9.277,-10.254,-15.137,-1.953,0.000
1737551732.768,-17.090,-3.418,-15.137,-271.484,0.000
1737551732.772,-19.531,-13.672,-11.719,-193.359,0.000
1737551732.776,-19.531,-19.531,-17.090,382.812,0.000
1737551732.780,-45.410,-19.531,-7.324,263.672,0.000
1737551732.784,-57.617,-20.020,-9.766,-74.219,0.000
1737551732.788,-46.387,-23.438,-32.715,-287.109,0.000
1737551732.792,-41.992,-20.508,-33.203,-292.480,0.000
1737551732.796,-16.113,-9.277,-17.578,314.941,0.000
1737551732.800,3.418,-12.695,-8.789,306.152,0.000
1737551732.803,4.883,-22.461,-6.348,-9.277,0.000
1737551732.807,-26.367,-33.691,-2.441,-259.277,0.000
1737551732.811,-51.758,-32.715,-6.836,-305.176,0.000
1737551732.815,-40.527,-10.742,-23.926,274.414,0.000
1737551732.819,-53.223,-5.371,-24.902,321.777,0.000
1737551732.823,-50.293,-18.066,-17.090,43.945,0.000
1737551732.827,-34.180,-22.949,-19.531,-83.496,0.000
1737551732.831,-46.875,-18.066,-20.020,-284.668,0.000
1737551732.835,-23.926,-14.648,-25.391,136.719,0.000
1737551732.839,-10.254,-21.973,-23.926,327.148,0.000
1737551732.843,-18.555,-24.414,-18.066,34.668,0.000
1737551732.846,-17.578,-19.043,-15.625,-96.680,0.000
1737551732.850,-16.113,-33.203,-16.602,-351.074,0.000
1737551732.854,-4.883,-29.785,-17.578,79.590,0.000
1737551732.858,-12.207,-13.184,-14.648,407.227,0.000
1737551732.862,-26.367,-9.277,-14.160,136.230,0.000
1737551732.866,-25.879,1.465,-23.438,-58.105,0.000
1737551732.870,-21.973,0.977,-20.996,-328.613,0.000
1737551732.874,-17.090,-0.488,-16.602,72.266,0.000
1737551732.878,-10.254,-6.836,-22.949,379.883,0.000
1737551732.882,-23.926,-18.555,-8.789,72.754,0.000
1737551732.885,-34.180,-12.695,-7.812,-44.434,0.000
1737551732.889,-30.273,-9.766,-15.625,-340.332,0.000
1737551732.893,-4.395,-11.719,-10.742,-65.430,0.000
1737551732.897,1.465,-16.113,-10.742,447.266,0.000
1737551732.901,-20.020,-13.672,-11.230,174.316,0.000
1737551732.905,-21.484,-12.207,-15.625,-71.289,0.000
1737551732.909,1.953,-20.508,-23.438,-319.824,0.000
1737551732.913,16.602,-12.207,-24.902,-146.973,0.000
1737551732.917,-12.207,-9.277,-27.344,420.898,0.000
1737551732.921,-32.715,-24.902,-30.273,288.574,0.000
1737551732.925,-26.367,-24.414,-19.531,-16.113,0.000
1737551732.928,-20.508,-11.230,-18.066,-323.730,0.000
1737551732.932,-27.344,-2.930,-22.949,-225.098,0.000
1737551732.936,-37.109,-8.789,-11.230,368.164,0.000
1737551732.940,-41.504,-14.648,-5.371,320.312,0.000
1737551732.944,-58.105,-14.648,-4.883,50.293,0.000
1737551732.948,-45.898,-21.973,-5.859,-268.066,0.000
1737551732.952,-25.391,-29.785,-7.324,-303.223,0.000
1737551732.956,-29.297,-19.043,-12.207,359.375,0.000
1737551732.960,-33.203,-10.254,-22.461,302.246,0.000
1737551732.964,-24.902,-17.578,-34.668,-95.215,0.000
1737551732.967,-20.508,-24.414,-26.367,-184.570,0.000
1737551732.971,-22.461,-17.090,-13.184,-277.344,0.000
1737551732.975,-16.602,-13.184,-9.766,133.789,0.000
1737551732.979,-13.672,-20.508,-22.949,258.789,0.000
1737551732.983,-17.578,-18.555,-29.785,55.176,0.000
1737551732.987,-29.785,-9.766,-8.789,-134.766,0.000
1737551732.991,-20.508,-6.836,-1.465,-348.145,0.000
1737551732.995,6.348,-11.230,-20.020,135.742,0.000
1737551732.999,10.742,-27.344,-27.832,396.973,0.000
1737551733.003,-17.578,-46.387,-19.043,71.289,0.000
1737551733.007,-41.504,-34.668,-15.625,-157.227,0.000
1737551733.010,-44.434,-13.184,-16.113,-264.160,0.000
1737551733.014,-53.711,-22.949,-8.789,107.910,0.000
1737551733.018,-27.832,-24.414,-16.602,301.758,0.000
1737551733.022,-17.578,-16.113,-23.926,29.785,0.000
1737551733.026,-24.902,-11.719,-15.137,-86.426,0.000
1737551733.030,0.488,-19.531,-17.578,-334.961,0.000
1737551733.034,8.789,-20.996,-14.648,20.508,0.000
1737551733.038,-34.668,-11.719,-11.719,411.133,0.000
1737551733.042,-70.312,-10.254,-19.531,118.652,0.000
1737551733.046,-74.219,-16.602,-15.137,-111.816,0.000
1737551733.050,-76.172,-25.391,-15.625,-362.793,0.000
1737551733.053,-56.152,-25.879,-19.043,-9.766,0.000
1737551733.057,-43.457,-16.113,-15.625,398.438,0.000
1737551733.061,-78.125,-4.883,-24.414,86.426,0.000
1737551733.065,-107.910,-3.906,-26.367,-116.699,0.000
1737551733.069,-99.609,-20.508,-14.648,-424.316,0.000
1737551733.073,-80.078,-20.996,-7.324,-204.590,0.000
1737551733.077,-49.805,-11.719,-10.254,356.934,0.000
1737551733.081,-41.992,-30.273,-15.137,204.102,0.000
1737551733.085,-51.270,-24.414,-19.531,2.441,0.000
1737551733.089,-58.594,-8.789,-22.949,-331.055,0.000
1737551733.092,-53.223,-13.672,-18.555,-302.246,0.000
1737551733.096,-26.367,-11.230,-25.879,300.293,0.000
1737551733.100,-24.414,-9.766,-27.344,233.887,0.000
1737551733.104,-28.809,-14.160,-22.949,-24.414,0.000
1737551733.108,-9.766,-9.766,-30.273,-240.234,0.000
1737551733.112,-12.695,-17.090,-23.926,-225.098,0.000
1737551733.116,-13.184,-21.973,-17.578,301.758,0.000
1737551733.120,-13.672,-15.137,-14.160,243.652,0.000
1737551733.124,-13.184,-12.207,-10.742,-10.254,0.000
1737551733.128,-33.691,-15.137,-12.207,-268.066,0.000
1737551733.132,-55.176,-10.742,-15.137,-320.312,0.000
1737551733.135,-21.973,-12.695,-17.578,282.715,0.000
1737551733.139,-2.930,-14.160,-18.066,324.219,0.000
1737551733.143,-21.973,-15.137,-17.090,30.762,0.000
1737551733.147,-26.367,-23.438,-30.273,-156.738,0.000
1737551733.151,-29.785,-19.043,-36.133,-333.984,0.000
1737551733.155,-10.742,-3.906,-18.555,250.977,0.000
1737551733.159,10.254,-10.742,-7.812,411.133,0.000
1737551733.163,-16.113,-21.484,-9.277,-16.602,0.000
1737551733.167,-34.180,-10.254,-12.207,-202.637,0.000
1737551733.171,-19.043,-10.254,-16.602,-278.809,0.000
1737551733.175,-20.508,-29.785,-23.438,160.645,0.000
1737551733.178,-27.344,-33.691,-36.133,323.242,0.000
1737551733.182,-12.207,-24.902,-30.762,70.801,0.000
1737551733.186,-6.836,-13.672,-22.461,-76.172,0.000
1737551733.190,0.000,-4.883,-27.344,-354.980,0.000
1737551733.194,6.836,-14.648,-23.926,26.367,0.000
1737551733.198,-21.484,-15.137,-30.273,380.859,0.000
1737551733.202,-34.668,-10.254,-26.855,181.641,0.000
1737551733.206,-24.414,-18.555,-18.555,-78.613,0.000
1737551733.210,-37.598,-13.672,-10.742,-414.062,0.000
1737551733.214,-33.691,-18.066,-5.859,-12.695,0.000
1737551733.217,-3.418,-21.973,-12.207,434.570,0.000
1737551733.221,-1.953,-11.719,-16.113,155.273,0.000
1737551733.225,-3.906,0.488,-12.207,-20.996,0.000
1737551733.229,-7.324,0.977,-18.555,-225.098,0.000
1737551733.233,-19.043,-19.043,-28.320,-67.871,0.000
1737551733.237,-9.766,-21.973,-21.973,312.988,0.000
1737551733.241,-15.625,-18.555,-20.020,117.188,0.000
1737551733.245,-19.531,-12.695,-22.949,-66.406,0.000
1737551733.249,-3.418,-14.160,-17.578,-253.418,0.000
1737551733.253,6.836,-18.555,-19.043,-85.449,0.000
1737551733.257,19.043,-10.254,-28.809,354.980,0.000
1737551733.260,34.668,-11.719,-25.391,239.258,0.000
1737551733.264,7.324,-11.719,-23.438,-61.035,0.000
1737551733.268,-18.066,-17.090,-20.996,-333.496,0.000
1737551733.272,-19.531,-17.090,-21.484,-179.199,0.000
1737551733.276,-34.180,-11.230,-37.109,368.652,0.000
1737551733.280,-56.152,-23.438,-26.855,208.496,0.000
1737551733.284,-57.129,-27.832,-19.043,11.230,0.000
1737551733.288,-32.715,-25.879,-22.461,-209.961,0.000
1737551733.292,-24.414,-31.738,-13.672,-354.980,0.000
1737551733.296,-25.391,-18.066,-15.137,321.777,0.000
1737551733.300,-25.879,-6.836,-18.555,307.129,0.000
1737551733.303,-4.395,-14.160,-10.254,-55.664,0.000
1737551733.307,8.301,-20.508,-1.953,-176.758,0.000
1737551733.311,-3.418,-30.762,-6.836,-327.637,0.000
1737551733.315,-39.551,-20.020,-6.836,206.055,0.000
1737551733.319,-62.012,-12.695,-2.441,336.426,0.000
1737551733.323,-43.945,-15.137,-5.371,22.461,0.000
1737551733.327,-32.227,-18.555,-12.695,-157.227,0.000
1737551733.331,-32.715,-39.551,-21.973,-380.371,0.000
1737551733.335,-23.438,-39.062,-17.578,128.418,0.000
1737551733.339,-11.719,-14.648,-15.625,472.656,0.000
1737551733.342,-8.789,-12.207,-9.766,61.523,0.000
1737551733.346,-5.371,-15.625,-1.953,-107.422,0.000
1737551733.350,-7.324,-13.184,-11.719,-396.973,0.000
1737551733.354,1.465,-17.578,-18.555,-28.320,0.000
1737551733.358,19.531,-18.066,-14.648,427.734,0.000
1737551733.362,19.531,-10.254,-17.578,104.980,0.000
1737551733.366,-20.508,-16.113,-17.578,-104.492,0.000
1737551733.370,-54.199,-32.227,-14.160,-386.719,0.000
1737551733.374,-23.438,-26.855,-10.742,1.465,0.000
1737551733.378,15.625,-20.508,-6.836,507.324,0.000
1737551733.382,19.531,-19.531,-17.578,160.156,0.000
1737551733.385,-6.836,-14.160,-21.973,-114.258,0.000
1737551733.389,-62.012,-12.695,-12.695,-359.375,0.000
1737551733.393,-70.312,-20.020,-2.441,-127.441,0.000
1737551733.397,-43.457,-17.090,-2.930,335.938,0.000
1737551733.401,-30.762,-4.395,-5.859,223.145,0.000
1737551733.405,-31.738,-9.277,-8.789,9.277,0.000
1737551733.409,-42.480,-16.113,-20.508,-349.609,0.000
1737551733.413,-53.711,-14.160,-20.996,-189.453,0.000
1737551733.417,-66.895,-7.324,-14.648,296.875,0.000
1737551733.421,-79.590,-2.441,-10.742,131.348,0.000
1737551733.425,-92.285,-1.953,-11.230,-53.223,0.000
1737551733.428,-105.469,2.930,-11.230,-332.031,0.000
1737551733.432,-125.000,8.301,-11.230,-238.770,0.000
1737551733.436,-140.137,7.324,-11.230,375.977,0.000
1737551733.440,-153.320,6.348,-7.812,218.750,0.000
1737551733.444,-187.012,0.000,-13.184,-85.449,0.000
1737551733.448,-196.777,0.977,-22.461,-329.102,0.000
1737551733.452,-198.730,5.859,-23.438,-354.980,0.000
1737551733.456,-219.727,12.695,-31.738,309.082,0.000
1737551733.460,-230.957,21.484,-21.973,341.309,0.000
1737551733.464,-226.562,2.441,-0.977,-7.812,0.000
1737551733.467,-223.145,8.789,6.836,-260.254,0.000
1737551733.471,-221.680,20.020,6.836,-377.930,0.000
1737551733.475,-189.941,14.160,5.371,301.758,0.000
1737551733.479,-166.016,7.812,8.789,498.535,0.000
1737551733.483,-164.062,-5.859,4.395,243.652,0.000
1737551733.487,-124.023,-0.488,-10.742,15.625,0.000
1737551733.491,-99.609,-10.742,-13.184,-357.910,0.000
1737551733.495,-70.801,-19.531,-15.137,265.625,0.000
1737551733.499,-28.320,-3.906,-29.785,691.895,0.000
1737551733.503,-19.043,-8.789,-27.344,250.488,0.000
1737551733.507,-16.113,-21.484,-17.090,-59.570,0.000
1737551733.510,-12.695,-38.574,-21.973,-156.738,0.000
1737551733.514,5.859,-40.039,-18.555,307.129,0.000
1737551733.518,37.598,-28.320,-9.277,430.664,0.000
1737551733.522,50.293,-33.203,-10.742,179.199,0.000
1737551733.526,34.668,-49.805,-12.207,95.703,0.000
1737551733.530,7.324,-51.270,-15.137,-219.238,0.000
1737551733.534,47.363,-36.621,-18.555,210.938,0.000
1737551733.538,79.102,-39.551,-18.066,580.566,0.000
1737551733.542,64.941,-50.781,-21.484,241.211,0.000
1737551733.546,81.543,-50.781,-27.832,80.078,0.000
1737551733.549,72.754,-40.039,-29.785,-284.180,0.000
1737551733.553,67.383,-31.250,-23.926,80.566,0.000
1737551733.557,64.453,-30.762,-30.273,555.176,0.000
1737551733.561,24.902,-30.273,-22.949,262.207,0.000
1737551733.565,69.336,-25.391,-21.484,97.168,0.000
1737551733.569,79.590,-28.320,-28.809,-205.078,0.000
1737551733.573,32.715,-37.109,-9.277,-61.523,0.000
1737551733.577,36.621,-31.738,2.441,476.562,0.000
1737551733.581,18.555,-24.902,-12.695,272.461,0.000
1737551733.585,20.996,-30.273,-19.531,-50.781,0.000
1737551733.589,42.480,-30.762,-16.113,-260.742,0.000
1737551733.592,32.227,-27.832,-21.973,-130.859,0.000
1737551733.596,47.852,-30.762,-20.020,461.914,0.000
1737551733.600,34.668,-36.621,-16.113,283.691,0.000
1737551733.604,39.062,-23.438,-18.555,41.504,0.000
1737551733.608,60.547,-20.996,-24.414,-172.363,0.000
1737551733.612,36.621,-25.879,-26.855,-207.520,0.000
1737551733.616,43.457,-21.484,-22.461,367.676,0.000
1737551733.620,61.523,-22.949,-19.043,372.070,0.000
1737551733.624,34.668,-20.508,-28.809,207.031,0.000
1737551733.628,11.230,-27.344,-20.996,-67.383,0.000
1737551733.632,25.879,-36.621,-13.672,-194.824,0.000
1737551733.635,53.223,-28.809,-16.602,423.340,0.000
1737551733.639,44.922,-14.648,-11.230,482.422,0.000
1737551733.643,-23.926,-14.160,-7.812,184.570,0.000
1737551733.647,-22.461,-22.461,-8.301,2.441,0.000
1737551733.651,17.090,-18.066,-11.230,-90.820,0.000
1737551733.655,19.043,-6.836,-14.160,445.312,0.000
1737551733.659,7.812,-15.137,-12.695,560.547,0.000
1737551733.663,9.277,-19.043,-19.531,228.516,0.000
1737551733.667,6.836,-16.113,-24.902,-2.441,0.000
1737551733.671,5.859,-17.578,-15.137,-151.855,0.000
1737551733.674,16.113,-17.090,-12.207,368.164,0.000
1737551733.678,23.438,-17.090,-16.113,507.812,0.000
1737551733.682,41.504,-12.207,-17.578,416.016,0.000
1737551733.686,19.043,-5.859,-20.508,414.062,0.000
1737551733.690,5.859,-14.648,-25.391,-88.379,0.000
1737551733.694,0.000,-25.391,-20.508,296.387,0.000
1737551733.698,5.859,-26.367,-23.438,757.324,0.000
1737551733.702,14.648,-24.414,-35.156,447.754,0.000
1737551733.706,11.230,-24.902,-20.996,225.586,0.000
1737551733.710,15.625,-26.367,-8.301,-8.301,0.000
1737551733.714,30.762,-21.484,-13.672,312.988,0.000
1737551733.717,53.711,-20.508,-22.949,746.094,0.000
1737551733.721,39.551,-24.414,-26.855,438.477,0.000
1737551733.725,24.414,-24.414,-16.113,206.543,0.000
1737551733.729,51.270,-22.949,-7.812,32.227,0.000
1737551733.733,55.664,-19.531,-3.906,259.277,0.000
1737551733.737,51.758,-16.602,-5.371,753.418,0.000
1737551733.741,28.320,-16.113,-12.207,562.500,0.000
1737551733.745,12.207,-22.461,-10.254,351.562,0.000
1737551733.749,-10.254,-30.762,-7.812,-16.113,0.000
1737551733.753,-11.719,-27.344,-8.789,137.207,0.000
1737551733.757,26.367,-24.902,-4.883,662.598,0.000
1737551733.760,25.391,-21.973,-11.719,336.426,0.000
1737551733.764,31.738,-17.090,-13.184,134.277,0.000
1737551733.768,57.129,-19.531,-8.301,-105.957,0.000
1737551733.772,-10.742,-24.414,-8.789,-211.914,0.000
1737551733.776,-43.457,-19.043,-2.930,460.938,0.000
1737551733.780,2.441,-13.672,-7.812,350.586,0.000
1737551733.784,41.016,-5.371,-14.648,21.484,0.000
1737551733.788,51.270,0.488,-29.297,-162.598,0.000
1737551733.792,61.523,-9.277,-34.180,-336.914,0.000
1737551733.796,79.102,-18.066,-15.625,153.809,0.000
1737551733.799,65.918,-12.695,-7.812,290.039,0.000
1737551733.803,17.090,-13.184,-3.906,76.172,0.000
1737551733.807,-13.184,-16.602,-4.395,-272.949,0.000
1737551733.811,-0.488,-15.137,-10.254,-487.793,0.000
1737551733.815,5.859,-17.578,-12.695,42.480,0.000
1737551733.819,14.160,-15.625,-11.230,204.102,0.000
1737551733.823,42.969,-8.301,-15.625,-24.414,0.000
1737551733.827,64.941,-11.230,-22.461,-307.617,0.000
1737551733.831,57.129,-11.719,-14.648,-541.016,0.000
1737551733.835,32.715,-7.324,-9.277,22.461,0.000
1737551733.839,16.113,-12.207,-11.230,274.414,0.000
1737551733.842,-8.301,-23.926,-15.137,-59.082,0.000
1737551733.846,-6.836,-23.926,-15.625,-224.609,0.000
1737551733.850,15.137,-12.207,-15.625,-407.715,0.000
