timestamps,TP9,AF7,AF8,TP10,Right AUX
1737556970.220,-124.023,-13.184,-34.180,5.371,0.000
1737556970.224,-123.535,-17.578,-26.855,7.324,0.000
1737556970.228,-123.535,-16.602,-5.859,-8.301,0.000
1737556970.232,-146.484,-14.160,-2.441,-28.809,0.000
1737556970.235,-130.371,-11.230,-14.648,-32.227,0.000
1737556970.239,-143.555,-18.066,-33.691,-3.418,0.000
1737556970.243,-117.676,-20.996,-29.785,17.578,0.000
1737556970.247,-130.859,-19.531,-15.137,-14.648,0.000
1737556970.251,-185.059,-20.996,-18.555,-44.922,0.000
1737556970.255,-117.188,-15.137,-24.414,-16.602,0.000
1737556970.259,-50.293,-12.207,-26.367,21.484,0.000
1737556970.263,-170.410,-19.043,-22.949,19.043,0.000
1737556970.263,-170.410,-19.043,-22.949,19.043,0.000
1737556970.267,-238.281,-25.391,-7.324,-45.410,0.000
1737556970.271,-168.457,-29.297,7.324,-70.312,0.000
1737556970.275,-125.000,-27.832,0.977,-44.922,0.000
1737556970.278,-90.820,-22.949,-11.719,-44.922,0.000
1737556970.282,-168.457,-15.625,-8.789,-17.090,0.000
1737556970.286,-261.230,-10.742,-6.836,-47.363,0.000
1737556970.290,-168.457,-15.137,-2.441,-71.289,0.000
1737556970.294,-136.719,-9.277,8.301,-70.801,0.000
1737556970.298,-179.199,-11.230,-4.395,-79.590,0.000
1737556970.302,-133.789,-17.578,-33.691,-28.809,0.000
1737556970.306,-162.598,-17.090,-54.199,-8.301,0.000
1737556970.310,-232.910,-29.297,-45.898,-51.758,0.000
1737556970.314,-181.152,-30.273,-19.043,0.000,0.000
1737556970.318,-117.188,-15.137,-0.977,0.000,0.000
1737556970.321,-81.055,-7.812,3.906,0.000,0.000
1737556970.325,-127.930,-13.184,-4.883,0.000,0.000
1737556970.329,-201.660,-8.301,-14.160,0.000,0.000
1737556970.333,-206.543,13.672,-13.672,0.000,0.000
1737556970.337,-171.875,28.320,-15.137,0.000,0.000
1737556970.341,-145.020,33.203,-15.137,0.000,0.000
1737556970.345,-168.457,15.137,-25.391,0.000,0.000
1737556970.349,-202.637,19.531,-28.809,0.000,0.000
1737556970.353,-231.934,40.527,-23.438,0.000,0.000
1737556970.357,-227.539,34.668,-29.785,0.000,0.000
1737556970.361,-191.406,42.480,-22.949,-70.312,0.000
1737556970.364,-217.773,60.547,-26.855,-82.031,0.000
1737556970.368,-282.715,68.848,-25.391,-136.719,0.000
1737556970.372,-324.219,74.219,-4.883,-179.688,0.000
1737556970.376,-324.707,75.195,-6.348,-208.984,0.000
1737556970.380,-280.273,83.008,-12.695,-184.082,0.000
1737556970.384,-274.902,86.914,3.418,-172.363,0.000
1737556970.388,-345.703,80.566,-20.508,-219.727,0.000
1737556970.392,-389.648,80.566,-64.941,-236.328,0.000
1737556970.396,-348.633,76.660,-32.715,-218.750,0.000
1737556970.400,-274.414,78.125,13.184,-160.156,0.000
1737556970.403,-239.746,77.148,-1.953,-125.000,0.000
1737556970.403,-239.746,77.148,-1.953,-125.000,0.000
1737556970.407,-258.789,62.500,8.301,-134.766,0.000
1737556970.411,-261.719,50.781,44.922,-126.465,0.000
1737556970.415,-226.562,38.574,32.227,-101.562,0.000
1737556970.419,-161.621,30.762,9.766,-40.039,0.000
1737556970.423,-124.512,31.738,-8.789,-6.348,0.000
1737556970.427,-153.320,23.438,-17.578,-21.973,0.000
1737556970.431,-179.688,11.230,2.930,-13.184,0.000
1737556970.435,-147.461,4.883,-9.766,-2.930,0.000
1737556970.439,-65.918,-1.465,-19.043,51.758,0.000
1737556970.443,-26.855,-3.418,2.930,101.562,0.000
1737556970.446,-58.105,1.465,11.230,77.148,0.000
1737556970.450,-87.402,-3.418,0.977,66.406,0.000
1737556970.454,-88.867,-9.766,-11.719,78.125,0.000
1737556970.458,-28.809,-5.371,-27.832,126.465,0.000
1737556970.462,9.766,-0.488,-47.852,168.945,0.000
1737556970.466,-28.809,1.953,-36.133,124.023,0.000
1737556970.470,-57.129,-3.906,-7.812,80.566,0.000
1737556970.474,-62.012,-5.859,-3.906,114.258,0.000
1737556970.478,0.488,3.906,-29.785,156.250,0.000
1737556970.482,40.039,1.953,-51.758,167.480,0.000
1737556970.485,-24.414,-10.254,-40.039,131.348,0.000
1737556970.489,-82.031,-13.672,-16.602,80.078,0.000
1737556970.493,-70.312,-6.836,-24.414,87.402,0.000
1737556970.497,-30.762,-6.348,-22.461,112.793,0.000
1737556970.501,-2.441,-10.254,-16.113,126.465,0.000
1737556970.505,-26.367,-8.301,-48.828,116.699,0.000
1737556970.509,-85.938,-11.719,-48.340,57.617,0.000
1737556970.513,-102.051,-20.020,-15.625,22.461,0.000
1737556970.517,-72.266,-13.184,-6.348,77.148,0.000
1737556970.521,-36.621,-6.348,-6.836,118.652,0.000
1737556970.525,-36.621,-7.324,-12.207,85.449,0.000
1737556970.528,-101.562,-19.531,-29.785,45.410,0.000
1737556970.532,-152.832,-32.227,-42.480,19.043,0.000
1737556970.536,-94.238,-24.414,-41.504,54.199,0.000
1737556970.540,-21.973,-15.137,-28.809,107.422,0.000
1737556970.544,-60.059,-18.555,-21.973,79.590,0.000
1737556970.544,-60.059,-18.555,-21.973,79.590,0.000
1737556970.548,-124.512,-21.484,-24.414,23.926,0.000
1737556970.552,-132.324,-18.555,-27.832,1.465,0.000
1737556970.556,-106.934,-20.996,-42.480,20.020,0.000
1737556970.560,-67.383,-21.973,-36.133,59.570,0.000
1737556970.564,-65.918,-19.531,-11.719,65.430,0.000
1737556970.568,-137.207,-21.973,-15.137,16.602,0.000
1737556970.571,-164.062,-29.297,-30.762,-26.855,0.000
1737556970.575,-114.258,-27.344,-29.297,-6.836,0.000
1737556970.579,-62.988,-19.531,-20.508,49.805,0.000
1737556970.583,-76.660,-18.066,-24.902,51.758,0.000
1737556970.587,-117.188,-27.344,-26.855,10.254,0.000
1737556970.591,-146.973,-31.250,-20.508,-16.113,0.000
1737556970.595,-127.930,-27.832,-23.926,-11.719,0.000
1737556970.599,-79.102,-32.227,-20.508,16.602,0.000
1737556970.603,-71.289,-32.227,-5.859,38.574,0.000
1737556970.607,-125.977,-34.180,-14.648,3.418,0.000
1737556970.610,-167.480,-38.086,-26.367,-39.062,0.000
1737556970.614,-145.508,-33.691,-22.461,-7.812,0.000
1737556970.618,-71.289,-32.715,-17.090,38.086,0.000
1737556970.622,-47.852,-33.691,-10.254,47.363,0.000
1737556970.626,-114.746,-36.133,-13.672,22.461,0.000
1737556970.630,-166.504,-39.551,-25.391,-28.809,0.000
1737556970.634,-157.715,-40.527,-44.434,-47.363,0.000
1737556970.638,-72.754,-33.691,-42.480,-9.277,0.000
1737556970.642,-21.484,-24.414,-11.230,41.504,0.000
1737556970.646,-72.266,-27.344,-14.160,27.344,0.000
1737556970.650,-126.953,-37.598,-35.645,-19.531,0.000
1737556970.653,-124.023,-41.504,-23.926,-16.602,0.000
1737556970.657,-82.520,-41.016,-8.789,-9.766,0.000
1737556970.661,-59.082,-35.156,-15.137,-2.930,0.000
1737556970.665,-72.754,-28.320,-29.297,13.184,0.000
1737556970.669,-122.070,-32.227,-9.277,-23.926,0.000
1737556970.673,-145.996,-41.016,5.371,-54.199,0.000
1737556970.677,-104.492,-39.062,-10.742,-21.484,0.000
1737556970.681,-53.711,-31.250,-21.973,22.949,0.000
1737556970.685,-73.242,-33.691,-40.527,5.371,0.000
1737556970.685,-73.242,-33.691,-40.527,5.371,0.000
1737556970.689,-143.066,-40.527,0.000,0.000,0.000
1737556970.693,-167.480,-37.598,0.000,0.000,0.000
1737556970.696,-112.305,-34.180,0.000,0.000,0.000
1737556970.700,-54.688,-35.156,0.000,0.000,0.000
1737556970.704,-72.266,-31.738,0.000,0.000,0.000
1737556970.708,-121.094,-35.156,0.000,0.000,0.000
1737556970.712,-136.719,-41.504,0.000,0.000,0.000
1737556970.716,-92.773,-33.203,0.000,0.000,0.000
1737556970.720,-45.410,-30.762,0.000,0.000,0.000
1737556970.724,-76.660,-39.062,0.000,0.000,0.000
1737556970.728,-133.789,-35.645,0.000,0.000,0.000
1737556970.732,-154.785,-34.668,0.000,0.000,0.000
1737556970.736,-129.883,-36.133,-38.574,-21.484,0.000
1737556970.739,-57.129,-29.785,-31.738,33.691,0.000
1737556970.743,-46.875,-32.227,-9.766,53.711,0.000
1737556970.747,-106.445,-38.086,-0.977,2.441,0.000
1737556970.751,-149.414,-33.203,-28.320,-40.527,0.000
1737556970.755,-142.090,-31.250,-22.949,-34.180,0.000
1737556970.759,-80.566,-30.762,0.977,4.883,0.000
1737556970.763,-61.523,-30.273,-5.371,24.414,0.000
1737556970.767,-119.141,-32.715,-14.648,-16.602,0.000
1737556970.771,-185.059,-34.668,-19.531,-50.781,0.000
1737556970.775,-169.434,-31.738,-43.945,-32.227,0.000
1737556970.778,-90.820,-25.391,-41.016,16.113,0.000
1737556970.782,-71.289,-29.297,-14.648,36.133,0.000
1737556970.786,-122.559,-36.133,-20.508,1.953,0.000
1737556970.790,-161.133,-36.133,-43.457,-48.340,0.000
1737556970.794,-130.371,-36.133,-44.922,-61.523,0.000
1737556970.798,-69.824,-32.715,-13.184,-18.066,0.000
1737556970.802,-42.480,-29.297,1.953,19.043,0.000
1737556970.806,-88.867,-35.645,-6.348,-7.812,0.000
1737556970.810,-141.602,-36.133,-25.391,-56.152,0.000
1737556970.814,-136.719,-33.203,-45.410,-35.645,0.000
1737556970.818,-74.219,-30.762,-25.879,3.906,0.000
1737556970.821,-31.738,-27.344,-4.395,12.207,0.000
1737556970.825,-71.777,-33.203,-30.273,10.254,0.000
1737556970.825,-71.777,-33.203,-30.273,10.254,0.000
1737556970.829,0.000,-38.086,-29.785,-10.742,0.000
1737556970.833,0.000,-36.621,-20.996,-37.598,0.000
1737556970.837,0.000,-29.785,-17.578,-17.578,0.000
1737556970.841,0.000,-20.508,-14.160,25.879,0.000
1737556970.845,0.000,-21.973,-30.762,44.434,0.000
1737556970.849,0.000,-25.391,-32.715,13.672,0.000
1737556970.853,0.000,-27.344,-9.277,-52.734,0.000
1737556970.857,0.000,-29.785,-4.883,-45.410,0.000
1737556970.860,0.000,-31.250,-4.883,25.879,0.000
1737556970.864,0.000,-26.855,-10.742,44.434,0.000
1737556970.868,0.000,-26.367,-15.137,-4.395,0.000
1737556970.872,0.000,-26.367,-15.137,-41.016,0.000
1737556970.876,-74.219,-19.043,-38.574,-19.043,0.000
1737556970.880,-23.926,-19.531,-36.133,8.789,0.000
1737556970.884,-60.547,-27.344,-4.883,0.977,0.000
1737556970.888,-121.094,-32.715,-13.184,-19.531,0.000
1737556970.892,-122.070,-37.109,-22.461,-38.574,0.000
1737556970.896,-82.520,-34.180,-6.348,-11.719,0.000
1737556970.900,-64.453,-29.297,-4.883,33.203,0.000
1737556970.903,-80.566,-36.621,-9.277,29.297,0.000
1737556970.907,-116.699,-41.016,-14.160,-45.410,0.000
1737556970.911,-152.344,-40.527,-19.531,-91.309,0.000
1737556970.915,-124.512,-37.598,-29.785,-51.270,0.000
1737556970.919,-39.551,-33.691,-23.438,4.883,0.000
1737556970.923,-10.254,-36.133,6.836,47.852,0.000
1737556970.927,-103.516,-41.992,3.418,8.789,0.000
1737556970.931,-168.945,-41.992,-11.719,-55.176,0.000
1737556970.935,-156.738,-32.715,-13.672,-41.992,0.000
1737556970.939,-82.031,-31.250,-21.973,11.230,0.000
1737556970.943,-25.391,-29.785,-31.738,32.227,0.000
1737556970.946,-96.191,-35.645,-26.367,-2.930,0.000
1737556970.950,-173.340,-44.922,-28.320,-53.223,0.000
1737556970.954,-145.996,-32.227,-34.668,-67.871,0.000
1737556970.958,-67.871,-23.438,-16.113,-13.672,0.000
1737556970.962,-25.391,-27.832,-7.324,41.992,0.000
1737556970.966,-89.844,-32.227,-12.695,35.156,0.000
1737556970.966,-89.844,-32.227,-12.695,35.156,0.000
1737556970.970,-171.387,-36.621,-7.324,-45.898,0.000
1737556970.974,-162.598,-32.227,-5.371,-98.145,0.000
1737556970.978,-89.355,-23.926,-10.742,-21.484,0.000
1737556970.982,-3.418,-20.020,-25.391,38.574,0.000
1737556970.985,-14.648,-19.043,-44.434,3.418,0.000
1737556970.989,-119.141,-21.973,-45.410,-41.016,0.000
1737556970.993,-164.551,-26.367,-33.203,-55.664,0.000
1737556970.997,-61.035,-22.949,-20.020,-20.508,0.000
1737556971.001,0.977,-13.184,0.488,49.805,0.000
1737556971.005,-61.035,-21.973,7.324,37.598,0.000
1737556971.009,-150.879,-32.715,-5.859,-40.527,0.000
1737556971.013,-168.457,-29.785,-15.625,-61.035,0.000
1737556971.017,-92.285,-33.203,-15.137,-2.441,0.000
1737556971.021,-41.504,-30.762,-11.719,49.316,0.000
1737556971.025,-77.637,-29.785,-4.883,41.504,0.000
1737556971.028,-148.926,-39.551,0.488,-26.855,0.000
1737556971.032,-165.527,-38.574,-7.812,-65.918,0.000
1737556971.036,-104.492,-32.227,-15.625,-7.324,0.000
1737556971.040,-14.160,-30.273,-16.113,62.500,0.000
1737556971.044,-20.508,-34.668,-16.602,71.289,0.000
1737556971.048,-128.906,-38.574,-30.762,-2.930,0.000
1737556971.052,-184.082,-35.156,-28.320,-65.918,0.000
1737556971.056,-131.836,-32.715,-4.395,-49.316,0.000
1737556971.060,-47.852,-30.762,8.301,28.320,0.000
1737556971.064,-33.691,-27.344,0.000,63.477,0.000
1737556971.067,-112.793,-30.762,-23.438,9.277,0.000
1737556971.071,-168.457,-36.133,-35.156,-46.875,0.000
1737556971.075,-151.855,-34.668,-6.348,-45.898,0.000
1737556971.079,-68.848,-30.762,17.090,12.207,0.000
1737556971.083,-20.996,-29.785,15.137,35.156,0.000
1737556971.087,-106.934,-35.156,-1.953,-21.484,0.000
1737556971.091,-169.434,-42.480,-27.344,-81.543,0.000
1737556971.095,-135.254,-36.133,-30.273,-58.594,0.000
1737556971.099,-37.598,-25.879,-13.184,20.996,0.000
1737556971.103,0.000,-21.484,-8.301,49.805,0.000
1737556971.106,-96.680,-23.438,-20.020,-10.742,0.000
1737556971.106,-96.680,-23.438,-20.020,-10.742,0.000
1737556971.110,0.000,-29.297,-45.898,-61.523,0.000
1737556971.114,0.000,-27.344,-62.012,-39.062,0.000
1737556971.118,0.000,-16.602,-46.387,44.922,0.000
1737556971.122,0.000,-15.625,-12.207,65.918,0.000
1737556971.126,0.000,-22.949,12.695,1.953,0.000
1737556971.130,0.000,-24.902,1.953,-56.152,0.000
1737556971.134,0.000,-20.508,-0.488,-63.477,0.000
1737556971.138,0.000,-21.973,2.930,23.926,0.000
1737556971.142,0.000,-23.926,-6.836,93.750,0.000
1737556971.146,0.000,-24.414,-33.691,44.434,0.000
1737556971.149,0.000,-27.344,-40.527,-41.016,0.000
1737556971.153,0.000,-26.367,-17.090,-73.242,0.000
1737556971.157,-80.566,-26.367,-1.465,-18.066,0.000
1737556971.161,-32.227,-24.414,-3.418,47.363,0.000
1737556971.165,-71.289,-19.531,-15.625,24.902,0.000
1737556971.169,-130.859,-22.949,-24.902,-47.363,0.000
1737556971.173,-169.922,-25.391,-19.043,-83.984,0.000
1737556971.177,-95.703,-16.113,-12.695,-38.574,0.000
1737556971.181,-7.324,-15.137,-16.602,35.156,0.000
1737556971.185,-44.434,-25.391,-29.297,36.621,0.000
1737556971.189,-136.230,-25.879,-37.598,-27.344,0.000
1737556971.192,-169.434,-25.879,-24.414,-86.426,0.000
1737556971.196,-119.629,-21.973,-5.859,-46.387,0.000
1737556971.200,-35.645,-19.531,9.277,33.691,0.000
1737556971.204,-34.668,-25.879,3.906,41.992,0.000
1737556971.208,-133.301,-31.250,-24.414,-9.277,0.000
1737556971.212,-162.109,-23.438,-45.898,-41.016,0.000
1737556971.216,-100.098,-17.578,-24.414,-20.508,0.000
1737556971.220,-25.879,-27.344,7.812,13.184,0.000
1737556971.224,-42.480,-35.645,9.766,7.812,0.000
1737556971.228,-139.648,-42.969,-0.977,-43.945,0.000
1737556971.232,-179.199,-43.457,-4.883,-82.520,0.000
1737556971.235,-121.582,-39.062,-30.273,-43.457,0.000
1737556971.239,-66.406,-30.273,-62.988,26.855,0.000
1737556971.243,-60.059,-24.902,-41.992,54.199,0.000
1737556971.247,-115.723,-29.785,-3.418,2.930,0.000
1737556971.247,-115.723,-29.785,-3.418,2.930,0.000
1737556971.251,-171.875,-33.691,5.859,-52.246,0.000
1737556971.255,-137.695,-33.203,-9.766,-32.715,0.000
1737556971.259,-28.320,-26.855,-19.531,38.086,0.000
1737556971.263,-5.859,-21.484,-8.789,65.918,0.000
1737556971.267,-118.164,-27.832,-12.207,-13.672,0.000
1737556971.271,-180.176,-27.344,-24.414,-42.480,0.000
1737556971.274,-129.395,-27.832,-16.113,-34.180,0.000
1737556971.278,-52.734,-28.320,4.395,-20.020,0.000
1737556971.282,-24.414,-26.367,2.930,21.484,0.000
1737556971.286,-88.867,-30.273,-26.367,9.277,0.000
1737556971.290,-158.203,-30.273,-44.434,-46.875,0.000
1737556971.294,-118.164,-24.902,-24.414,-49.805,0.000
1737556971.298,-39.551,-20.996,3.418,20.996,0.000
1737556971.302,-24.902,-19.043,5.371,53.711,0.000
1737556971.306,-74.219,-17.090,-16.113,17.578,0.000
1737556971.310,-145.508,-19.531,-28.809,-26.855,0.000
1737556971.314,-145.996,-23.926,-11.719,-46.875,0.000
1737556971.317,-62.988,-20.020,1.953,20.996,0.000
1737556971.321,0.000,-12.207,-6.348,99.609,0.000
1737556971.325,-31.738,-17.090,-24.902,42.969,0.000
1737556971.329,-123.047,-29.785,-31.250,-49.805,0.000
1737556971.333,-145.996,-34.180,-21.973,-49.805,0.000
1737556971.337,-62.500,-26.367,-23.438,9.277,0.000
1737556971.341,7.324,-19.531,-20.020,70.801,0.000
1737556971.345,-37.598,-19.531,-7.812,61.035,0.000
1737556971.349,-122.559,-18.555,-26.367,8.301,0.000
1737556971.353,-153.320,-24.414,-37.598,-49.316,0.000
1737556971.356,-85.449,-24.902,-30.273,-47.363,0.000
1737556971.360,1.465,-18.555,-23.926,25.879,0.000
1737556971.364,-17.090,-20.020,-1.953,20.996,0.000
1737556971.368,-104.004,-21.973,-37.109,-46.387,0.000
1737556971.372,-134.766,-21.484,-64.941,-66.406,0.000
1737556971.376,-74.219,-22.461,-9.277,-33.691,0.000
1737556971.380,-4.883,-20.996,27.344,20.020,0.000
1737556971.384,-10.742,-22.461,26.855,26.855,0.000
1737556971.388,-88.867,-29.785,11.719,-34.180,0.000
1737556971.388,-88.867,-29.785,11.719,-34.180,0.000
1737556971.392,-127.930,-24.902,-10.254,-58.594,0.000
1737556971.396,-79.102,-21.484,-23.926,-6.836,0.000
1737556971.399,-0.488,-16.602,-15.625,58.105,0.000
1737556971.403,-2.441,-12.207,-18.066,58.105,0.000
1737556971.407,-86.426,-15.137,-21.484,-6.836,0.000
1737556971.411,-123.047,-14.648,-12.695,-48.340,0.000
1737556971.415,-86.914,-15.625,-16.602,-7.812,0.000
1737556971.419,-24.902,-17.090,-25.879,47.363,0.000
1737556971.423,-7.812,-11.719,-13.672,45.410,0.000
1737556971.427,-66.895,-6.836,-4.395,0.488,0.000
1737556971.431,-134.766,-13.184,0.000,-35.156,0.000
1737556971.435,-138.184,-13.184,10.742,-51.270,0.000
1737556971.439,-83.008,-4.883,10.254,-25.879,0.000
1737556971.442,-73.730,-6.836,5.371,-7.324,0.000
1737556971.446,-170.410,-2.930,3.906,-74.707,0.000
1737556971.450,-263.672,6.836,4.883,-162.598,0.000
1737556971.454,-270.508,8.789,5.371,-187.988,0.000
1737556971.458,-228.516,12.695,10.742,-147.461,0.000
1737556971.462,-215.332,18.555,9.766,-143.066,0.000
1737556971.466,-277.344,8.301,-4.395,-210.938,0.000
1737556971.470,-360.840,5.859,-14.648,-255.859,0.000
1737556971.474,-359.375,10.254,6.348,-271.484,0.000
1737556971.478,-292.969,8.789,29.785,-249.512,0.000
1737556971.481,-254.395,4.883,31.738,-213.867,0.000
1737556971.485,-290.039,6.836,33.203,-225.586,0.000
1737556971.489,-370.117,-0.977,41.504,-268.555,0.000
1737556971.493,-374.512,-7.812,56.152,-257.324,0.000
1737556971.497,-270.996,4.883,50.781,-189.941,0.000
1737556971.501,-192.871,5.371,30.762,-146.484,0.000
1737556971.505,-209.961,-4.883,18.066,-176.270,0.000
1737556971.509,-258.301,-6.836,13.672,-207.520,0.000
1737556971.513,-252.441,-11.719,0.977,-187.012,0.000
1737556971.517,-168.945,-15.625,-0.488,-150.879,0.000
1737556971.521,-91.797,-17.578,-13.672,-84.473,0.000
1737556971.524,-111.816,-22.461,-17.578,-55.664,0.000
1737556971.528,-183.594,-33.203,6.836,-90.820,0.000
1737556971.528,-183.594,-33.203,6.836,-90.820,0.000
1737556971.532,-174.316,-35.156,0.488,-97.656,0.000
1737556971.536,-85.938,-26.855,-9.766,-38.086,0.000
1737556971.540,-22.461,-27.344,-1.465,31.250,0.000
1737556971.544,-35.156,-31.738,-3.906,36.133,0.000
1737556971.548,-95.703,-38.086,-18.555,-13.672,0.000
1737556971.552,-125.488,-38.574,-26.367,-45.410,0.000
1737556971.556,-71.289,-29.785,-20.508,-10.742,0.000
1737556971.560,23.926,-21.973,-28.320,58.594,0.000
1737556971.563,25.879,-23.926,-46.387,72.266,0.000
1737556971.567,-60.059,-33.203,-37.598,22.949,0.000
1737556971.571,-92.285,-33.203,-42.480,-15.137,0.000
1737556971.575,-50.293,-28.809,-42.969,-2.441,0.000
1737556971.579,30.273,-20.996,-22.461,41.992,0.000
1737556971.583,43.457,-16.602,-14.648,44.922,0.000
1737556971.587,-30.273,-23.926,-20.508,-30.273,0.000
1737556971.591,-62.012,-26.367,-36.621,-58.105,0.000
1737556971.595,-33.691,-24.902,-39.062,-9.766,0.000
1737556971.599,21.484,-20.996,-26.367,48.828,0.000
1737556971.603,39.551,-16.113,-43.457,83.008,0.000
1737556971.606,-13.672,-23.926,-52.246,57.129,0.000
1737556971.610,-56.152,-26.367,-43.457,20.996,0.000
1737556971.614,-46.875,-22.461,-40.527,17.090,0.000
1737556971.618,-9.277,-26.367,-26.367,30.273,0.000
1737556971.622,7.324,-24.902,-26.855,44.922,0.000
1737556971.626,0.000,-27.832,-44.922,20.996,0.000
1737556971.630,0.000,-34.668,-49.316,-19.043,0.000
1737556971.634,0.000,-29.785,-36.133,-23.926,0.000
1737556971.638,0.000,-26.855,-23.438,-0.977,0.000
1737556971.642,0.000,-27.344,-10.742,30.273,0.000
1737556971.646,0.000,-28.320,-11.719,10.254,0.000
1737556971.649,0.000,-33.691,-27.832,-27.344,0.000
1737556971.653,0.000,-34.668,-37.598,-40.527,0.000
1737556971.657,0.000,-27.832,-41.504,-31.738,0.000
1737556971.661,0.000,-20.996,-38.574,5.371,0.000
1737556971.665,0.000,-22.949,-41.016,3.906,0.000
1737556971.669,0.000,-23.438,-56.641,-21.484,0.000
1737556971.669,0.000,-23.438,-56.641,-21.484,0.000
1737556971.673,-95.215,-23.926,0.000,-32.227,0.000
1737556971.677,-56.641,-21.484,0.000,-2.441,0.000
1737556971.681,-21.484,-17.578,0.000,34.668,0.000
1737556971.685,-38.086,-17.578,0.000,12.207,0.000
1737556971.688,-89.355,-20.020,0.000,-39.062,0.000
1737556971.692,-92.773,-25.391,0.000,-33.203,0.000
1737556971.696,-41.992,-22.461,0.000,-3.906,0.000
1737556971.700,-17.578,-20.020,0.000,1.953,0.000
1737556971.704,-44.434,-27.344,0.000,0.488,0.000
1737556971.708,-91.309,-37.598,0.000,-30.762,0.000
1737556971.712,-103.516,-39.062,0.000,-49.805,0.000
1737556971.716,-61.523,-30.273,0.000,2.441,0.000
1737556971.720,0.000,-22.461,-24.902,51.758,0.000
1737556971.724,0.000,-23.438,-26.367,34.668,0.000
1737556971.728,0.000,-24.414,-10.742,10.254,0.000
1737556971.731,0.000,-20.996,4.883,-1.953,0.000
1737556971.735,0.000,-18.066,1.953,9.277,0.000
1737556971.739,0.000,-13.672,-23.926,48.828,0.000
1737556971.743,0.000,-21.484,-44.434,77.148,0.000
1737556971.747,0.000,-30.762,-42.480,47.852,0.000
1737556971.751,0.000,-25.879,-40.527,6.836,0.000
1737556971.755,0.000,-22.949,-21.973,16.602,0.000
1737556971.759,0.000,-17.090,0.488,49.805,0.000
1737556971.763,0.000,-15.625,-1.953,68.848,0.000
1737556971.767,-45.410,-20.020,-17.578,37.109,0.000
1737556971.771,-75.684,-24.902,-26.367,1.953,0.000
1737556971.774,-52.246,-22.949,-27.344,1.465,0.000
1737556971.778,-2.441,-15.137,-32.227,36.133,0.000
1737556971.782,13.184,-12.695,-30.273,60.059,0.000
1737556971.786,-27.344,-18.066,-24.902,32.715,0.000
1737556971.790,-63.965,-19.531,-39.062,8.301,0.000
1737556971.794,-59.082,-19.531,-43.457,1.953,0.000
1737556971.798,-6.348,-18.066,-52.734,31.250,0.000
1737556971.802,15.625,-16.602,-67.871,47.852,0.000
1737556971.806,-26.367,-15.137,-35.645,0.000,0.000
1737556971.810,-78.613,-16.113,-7.812,-53.223,0.000
1737556971.810,-78.613,-16.113,-7.812,-53.223,0.000
1737556971.813,-90.332,-19.043,-11.719,-57.617,0.000
1737556971.817,-53.711,-19.043,-8.789,-25.879,0.000
1737556971.821,-32.715,-17.578,0.000,0.000,0.000
1737556971.825,-76.660,-22.461,-5.859,-24.414,0.000
1737556971.829,-134.277,-26.367,-20.996,-62.988,0.000
1737556971.833,-141.113,-26.367,-30.273,-55.664,0.000
1737556971.837,-110.352,-28.320,-18.555,-23.926,0.000
1737556971.841,-75.195,-23.438,-21.484,19.531,0.000
1737556971.845,-100.098,-29.297,-40.527,16.113,0.000
1737556971.849,-176.758,-39.551,-34.180,-36.621,0.000
1737556971.853,-186.035,-34.180,-20.508,-49.805,0.000
1737556971.856,-139.648,-24.902,-19.531,-38.086,0.000
1737556971.860,-115.234,-22.949,-18.555,-16.602,0.000
1737556971.864,-132.324,-24.414,-16.602,-7.812,0.000
1737556971.868,-182.617,-21.973,-24.902,-41.504,0.000
1737556971.872,-221.191,-9.277,-22.461,-42.480,0.000
1737556971.876,-184.082,-0.977,-5.371,-24.902,0.000
1737556971.880,-161.621,-11.230,13.672,-41.504,0.000
1737556971.884,-152.832,-13.184,21.484,-34.180,0.000
1737556971.888,-174.805,-14.160,-3.906,-34.668,0.000
1737556971.892,-225.098,-17.578,-48.340,-87.402,0.000
1737556971.895,-186.035,-14.648,-38.574,-91.309,0.000
1737556971.899,-141.113,-11.719,2.441,-61.523,0.000
1737556971.903,-203.125,-7.324,13.672,-122.559,0.000
1737556971.907,-305.664,-7.324,16.602,-242.188,0.000
1737556971.911,-363.281,-0.488,20.020,-319.336,0.000
1737556971.915,-359.863,8.301,17.578,-322.266,0.000
1737556971.919,-292.969,8.301,15.137,-265.137,0.000
1737556971.923,-259.277,20.996,3.906,-228.027,0.000
1737556971.927,-318.359,27.832,-0.977,-269.043,0.000
1737556971.931,-372.559,18.066,16.113,-295.898,0.000
1737556971.935,-331.055,11.719,31.250,-237.793,0.000
1737556971.938,-228.516,14.160,43.457,-145.020,0.000
1737556971.942,-185.059,17.578,40.039,-118.652,0.000
1737556971.946,-230.469,12.207,6.836,-156.250,0.000
1737556971.950,-277.832,2.441,-19.043,-190.918,0.000
1737556971.950,-277.832,2.441,-19.043,-190.918,0.000
1737556971.954,-229.492,2.441,1.953,-187.500,0.000
1737556971.958,-122.559,-2.441,32.227,-113.281,0.000
1737556971.962,-71.289,-7.324,31.250,-50.781,0.000
1737556971.966,-102.051,-18.555,-3.418,-74.707,0.000
1737556971.970,-143.555,-31.250,-18.555,-114.258,0.000
1737556971.974,-106.934,-30.273,-15.137,-82.031,0.000
1737556971.978,-6.836,-27.832,-6.348,-6.836,0.000
1737556971.981,59.082,-26.855,2.441,49.316,0.000
1737556971.985,29.297,-27.832,-4.395,41.016,0.000
1737556971.989,-26.367,-31.250,9.277,-7.324,0.000
1737556971.993,-22.461,-35.156,14.160,-7.812,0.000
1737556971.997,49.316,-35.156,-7.324,38.574,0.000
1737556972.001,110.840,-28.809,0.000,108.398,0.000
1737556972.005,76.660,-31.738,0.000,91.797,0.000
1737556972.009,-2.930,-41.016,0.000,24.902,0.000
1737556972.013,-41.992,-39.551,0.000,22.461,0.000
1737556972.017,32.715,-36.133,0.000,61.035,0.000
1737556972.021,130.371,-29.785,0.000,101.074,0.000
1737556972.024,95.215,-26.367,0.000,99.609,0.000
1737556972.028,-0.488,-35.645,0.000,35.156,0.000
1737556972.032,-26.855,-39.551,0.000,2.441,0.000
1737556972.036,38.574,-25.391,0.000,56.152,0.000
1737556972.040,97.656,-20.996,0.000,105.469,0.000
1737556972.044,78.125,-21.484,0.000,93.750,0.000
1737556972.048,2.441,-20.996,-34.668,24.414,0.000
1737556972.052,-36.621,-25.391,-25.391,-9.277,0.000
1737556972.056,2.930,-27.344,-33.691,20.508,0.000
1737556972.060,72.266,-20.508,-57.617,90.332,0.000
1737556972.063,78.613,-10.254,-76.660,92.285,0.000
1737556972.067,-12.207,-14.648,-30.762,-0.977,0.000
1737556972.071,-69.336,-27.344,6.348,-14.648,0.000
1737556972.075,-30.273,-25.391,-25.391,35.156,0.000
1737556972.079,54.688,-17.090,-70.801,92.773,0.000
1737556972.083,76.660,-7.324,-56.641,110.840,0.000
1737556972.087,-25.391,-20.020,-20.020,15.137,0.000
1737556972.091,-101.074,-40.527,10.254,-49.316,0.000
1737556972.091,-101.074,-40.527,10.254,-49.316,0.000
1737556972.095,-72.266,-32.227,25.879,-32.715,0.000
1737556972.099,10.742,-19.531,-13.672,35.645,0.000
1737556972.103,41.992,-22.949,-21.484,63.965,0.000
1737556972.106,-41.016,-31.250,-39.062,-2.930,0.000
1737556972.110,-104.492,-25.879,-47.363,-28.320,0.000
1737556972.114,-82.520,-21.973,-2.930,-38.086,0.000
1737556972.118,3.906,-25.879,-1.465,0.977,0.000
1737556972.122,40.039,-23.926,-28.809,46.387,0.000
1737556972.126,-41.504,-22.949,-37.598,-21.973,0.000
1737556972.130,-122.070,-36.133,-25.879,-67.871,0.000
1737556972.134,-109.375,-54.688,-8.301,-59.570,0.000
1737556972.138,-8.301,-47.852,1.465,-1.465,0.000
1737556972.142,35.156,-46.875,-19.043,61.035,0.000
1737556972.146,-45.898,-56.152,-42.969,25.879,0.000
1737556972.149,-121.582,-61.035,-23.438,-79.102,0.000
1737556972.153,-111.328,-66.406,14.648,-83.008,0.000
1737556972.157,-32.715,-58.594,19.043,-1.953,0.000
1737556972.161,26.367,-50.293,10.254,35.156,0.000
1737556972.165,-12.695,-49.805,-3.418,18.555,0.000
1737556972.169,-93.750,-55.664,-24.414,-54.688,0.000
1737556972.173,-112.793,-53.711,-19.531,-81.055,0.000
1737556972.177,-29.297,-48.828,-21.484,-2.930,0.000
1737556972.181,31.738,-46.875,-32.227,70.801,0.000
1737556972.185,-5.371,-46.387,-3.418,30.762,0.000
1737556972.189,0.000,-44.922,20.020,-45.898,0.000
1737556972.192,0.000,-43.945,18.066,-66.895,0.000
1737556972.196,0.000,-45.410,1.465,-41.016,0.000
1737556972.200,0.000,-46.875,-15.137,24.414,0.000
1737556972.204,0.000,-39.551,-24.902,26.855,0.000
1737556972.208,0.000,-32.227,-29.785,-28.809,0.000
1737556972.212,0.000,-37.598,-13.672,-56.152,0.000
1737556972.216,0.000,-44.434,18.555,-32.227,0.000
1737556972.220,0.000,-42.969,37.109,30.762,0.000
1737556972.224,0.000,-37.109,25.391,35.645,0.000
1737556972.228,0.000,-40.039,0.977,-32.715,0.000
1737556972.231,0.000,-40.527,-20.996,-74.219,0.000
1737556972.231,0.000,-40.527,-20.996,-74.219,0.000
1737556972.235,-48.340,-34.180,-20.996,-14.648,0.000
1737556972.239,41.504,-29.785,-25.391,43.945,0.000
1737556972.243,20.508,-29.297,-23.438,20.508,0.000
1737556972.247,-82.031,-39.062,-6.348,-37.109,0.000
1737556972.251,-134.277,-46.387,-6.836,-72.266,0.000
1737556972.255,-88.867,-40.527,-19.043,-43.457,0.000
1737556972.259,7.324,-32.227,-18.555,11.230,0.000
1737556972.263,24.902,-32.227,-14.648,42.480,0.000
1737556972.267,-94.727,-39.062,-15.625,-24.902,0.000
1737556972.271,-152.344,-41.992,-18.555,-88.379,0.000
1737556972.274,-73.730,-37.109,-17.578,-55.664,0.000
1737556972.278,24.414,-29.297,-4.395,16.602,0.000
1737556972.282,0.000,-29.297,-5.371,40.039,0.000
1737556972.286,0.000,-37.109,-26.855,-14.160,0.000
1737556972.290,0.000,-41.016,-37.598,-58.105,0.000
1737556972.294,0.000,-39.062,-31.738,-54.688,0.000
1737556972.298,0.000,-33.203,-9.766,10.742,0.000
1737556972.302,0.000,-34.668,-3.906,69.336,0.000
1737556972.306,0.000,-41.992,-21.484,5.371,0.000
1737556972.310,0.000,-43.457,-34.668,-76.660,0.000
1737556972.314,0.000,-45.898,-37.109,-84.473,0.000
1737556972.317,0.000,-38.574,-18.555,-12.207,0.000
1737556972.321,0.000,-33.691,-3.418,33.691,0.000
1737556972.325,0.000,-43.457,5.859,-24.414,0.000
1737556972.329,-120.605,-39.062,3.906,-68.848,0.000
1737556972.333,-129.883,-39.062,-19.531,-89.355,0.000
1737556972.337,-47.363,-36.133,-41.504,-41.504,0.000
1737556972.341,23.438,-17.090,-42.969,44.922,0.000
1737556972.345,-16.113,-14.160,17.578,18.555,0.000
1737556972.349,-114.746,-20.020,59.082,-78.125,0.000
1737556972.353,-162.109,-27.344,30.762,-117.188,0.000
1737556972.356,-84.961,-24.414,22.461,-52.246,0.000
1737556972.360,-5.859,-11.230,21.484,12.695,0.000
1737556972.364,-51.758,-18.555,7.324,-23.926,0.000
1737556972.368,-208.496,-26.855,24.902,-124.512,0.000
1737556972.372,-295.898,-22.461,26.855,-196.289,0.000
1737556972.372,-295.898,-22.461,26.855,-196.289,0.000
1737556972.376,-218.262,-9.277,30.273,0.000,0.000
1737556972.380,-164.551,-4.395,41.992,0.000,0.000
1737556972.384,-219.238,0.488,26.855,0.000,0.000
1737556972.388,-326.172,9.277,29.297,0.000,0.000
1737556972.392,-407.715,13.672,39.062,0.000,0.000
1737556972.396,-387.695,19.531,104.980,0.000,0.000
1737556972.399,-276.855,41.992,95.703,0.000,0.000
1737556972.403,-244.141,48.340,3.906,0.000,0.000
1737556972.407,-348.633,35.645,-12.695,0.000,0.000
1737556972.411,-412.109,35.645,-2.441,0.000,0.000
1737556972.415,-354.492,29.297,10.742,0.000,0.000
1737556972.419,-254.395,29.297,36.621,0.000,0.000
1737556972.423,-223.633,41.016,23.438,-163.574,0.000
1737556972.427,-311.523,20.996,-7.324,-230.469,0.000
1737556972.431,-390.625,10.742,16.602,-290.527,0.000
1737556972.435,-352.539,20.508,62.500,-256.348,0.000
1737556972.439,-250.488,25.391,72.266,-203.613,0.000
1737556972.442,-224.121,22.949,99.609,-177.246,0.000
1737556972.446,-257.324,17.578,124.512,-212.402,0.000
1737556972.450,-295.410,12.207,148.926,-246.582,0.000
1737556972.454,-294.922,22.949,186.035,-224.609,0.000
1737556972.458,-224.121,22.461,222.656,-165.039,0.000
1737556972.462,-149.902,21.973,238.281,-131.836,0.000
1737556972.466,-213.867,23.926,233.887,-170.410,0.000
1737556972.470,-289.551,10.742,264.648,-231.445,0.000
1737556972.474,-243.164,17.090,283.203,-209.473,0.000
1737556972.478,-156.738,24.902,281.738,-130.371,0.000
1737556972.482,-108.398,18.555,290.039,-101.562,0.000
1737556972.485,-158.203,16.602,299.316,-152.832,0.000
1737556972.489,-225.586,16.602,333.008,-217.285,0.000
1737556972.493,-236.328,7.812,371.094,-215.820,0.000
1737556972.497,-136.230,10.742,389.160,-139.160,0.000
1737556972.501,-91.309,14.648,368.164,-67.383,0.000
1737556972.505,-154.297,7.324,320.801,-94.238,0.000
1737556972.509,-206.543,8.789,330.566,-184.570,0.000
1737556972.513,-195.801,5.859,341.797,-193.848,0.000
1737556972.513,-195.801,5.859,341.797,-193.848,0.000
1737556972.517,-103.027,-0.977,324.219,-141.113,0.000
1737556972.521,-12.695,5.371,301.270,-101.562,0.000
1737556972.524,-51.270,10.254,229.492,-76.172,0.000
1737556972.528,-136.719,8.789,163.574,-79.590,0.000
1737556972.532,-139.160,-0.488,183.594,-134.277,0.000
1737556972.536,-89.355,-1.953,167.480,-123.047,0.000
1737556972.540,4.395,12.695,135.254,-29.297,0.000
1737556972.544,8.789,8.301,148.926,-24.414,0.000
1737556972.548,-76.660,-0.977,122.070,-104.004,0.000
1737556972.552,-107.422,-5.371,72.754,-125.000,0.000
1737556972.556,-26.367,-4.883,63.477,-24.902,0.000
1737556972.560,67.871,-7.324,46.387,70.312,0.000
1737556972.564,86.426,-13.672,-40.527,69.824,0.000
1737556972.567,29.297,-11.230,-77.637,38.574,0.000
1737556972.571,1.953,-12.695,-86.426,29.785,0.000
1737556972.575,52.734,-24.414,-75.195,68.359,0.000
1737556972.579,113.770,-40.039,-16.113,112.305,0.000
1737556972.583,123.047,-45.898,-6.348,98.145,0.000
1737556972.587,62.500,-47.852,-54.688,83.496,0.000
1737556972.591,36.621,-42.969,-94.238,60.059,0.000
1737556972.595,76.660,-45.898,-94.238,81.055,0.000
1737556972.599,137.207,-52.246,-130.859,179.199,0.000
1737556972.603,179.688,-43.457,-179.199,218.750,0.000
1737556972.606,136.230,-44.434,-164.551,173.828,0.000
1737556972.610,0.000,-60.059,-139.648,119.629,0.000
1737556972.614,0.000,-64.941,-125.977,125.488,0.000
1737556972.618,0.000,-57.129,-122.559,177.734,0.000
1737556972.622,0.000,-52.734,-134.277,222.656,0.000
1737556972.626,0.000,-54.688,-134.277,164.062,0.000
1737556972.630,0.000,-60.059,-126.465,108.398,0.000
1737556972.634,0.000,-56.641,-129.395,125.977,0.000
1737556972.638,0.000,-46.387,-166.016,211.426,0.000
1737556972.642,0.000,-42.480,-185.547,267.578,0.000
1737556972.646,0.000,-46.875,-178.711,192.383,0.000
1737556972.649,0.000,-49.805,-150.879,99.121,0.000
1737556972.653,0.000,-47.363,-86.914,98.145,0.000
1737556972.653,0.000,-47.363,-86.914,98.145,0.000
1737556972.657,125.977,-42.480,-96.191,170.898,0.000
1737556972.661,178.223,-38.574,-128.906,214.844,0.000
1737556972.665,93.750,-45.898,-110.352,178.711,0.000
1737556972.669,-16.113,-54.199,-101.562,98.633,0.000
1737556972.673,1.465,-49.316,-135.742,89.844,0.000
1737556972.677,81.543,-40.039,-162.109,167.969,0.000
1737556972.681,124.512,-40.039,-127.930,213.379,0.000
1737556972.685,89.844,-42.969,-94.238,169.434,0.000
1737556972.689,-11.719,-47.363,-101.074,89.355,0.000
1737556972.692,-58.105,-45.410,-111.816,83.008,0.000
1737556972.696,49.805,-24.414,-107.422,138.184,0.000
1737556972.700,130.371,-14.160,-94.727,161.133,0.000
1737556972.704,0.000,-36.621,0.000,115.234,0.000
1737556972.708,0.000,-50.781,0.000,38.086,0.000
1737556972.712,0.000,-43.457,0.000,22.461,0.000
1737556972.716,0.000,-30.762,0.000,72.754,0.000
1737556972.720,0.000,-23.926,0.000,136.230,0.000
1737556972.724,0.000,-25.391,0.000,135.254,0.000
1737556972.728,0.000,-26.367,0.000,67.871,0.000
1737556972.732,0.000,-33.203,0.000,26.367,0.000
1737556972.735,0.000,-32.227,0.000,54.688,0.000
1737556972.739,0.000,-19.531,0.000,122.559,0.000
1737556972.743,0.000,-21.973,0.000,126.953,0.000
1737556972.747,0.000,-28.809,0.000,47.852,0.000
1737556972.751,55.664,-32.227,-88.867,4.395,0.000
1737556972.755,-54.199,-30.273,-68.359,26.855,0.000
1737556972.759,-80.566,-27.832,-54.688,72.266,0.000
1737556972.763,-4.883,-32.227,-74.707,89.355,0.000
1737556972.767,88.379,-26.367,-83.984,33.203,0.000
1737556972.770,74.219,-21.973,-86.426,-20.508,0.000
1737556972.774,-20.508,-20.020,-96.680,8.789,0.000
1737556972.778,-75.684,-6.348,-74.219,71.289,0.000
1737556972.782,-42.480,-7.324,-67.871,61.523,0.000
1737556972.786,40.527,-30.273,-81.055,-11.719,0.000
1737556972.790,52.246,-39.062,-102.539,-59.570,0.000
1737556972.794,-34.668,-35.156,-134.277,-62.012,0.000
1737556972.794,-34.668,-35.156,-134.277,-62.012,0.000
1737556972.798,10.254,-23.438,-28.809,31.250,0.000
1737556972.802,19.531,-12.695,-41.992,93.262,0.000
1737556972.806,-19.043,-15.625,-42.480,26.367,0.000
1737556972.810,-82.031,-26.367,-75.195,-46.387,0.000
1737556972.813,-84.961,-24.902,-106.934,-38.086,0.000
1737556972.817,19.531,-10.742,-56.152,32.227,0.000
1737556972.821,58.105,-12.695,-7.812,52.734,0.000
1737556972.825,-36.133,-26.367,-15.625,12.207,0.000
1737556972.829,-103.027,-28.320,-21.484,-43.457,0.000
1737556972.833,-70.312,-20.508,-38.086,-34.180,0.000
1737556972.837,-3.418,-15.625,-59.570,57.129,0.000
1737556972.841,50.293,-14.648,-62.012,95.703,0.000
1737556972.845,-1.953,-11.719,-55.176,39.062,0.000
1737556972.849,-107.422,-20.996,-43.945,-34.668,0.000
1737556972.852,-105.469,-27.344,-27.344,-55.664,0.000
1737556972.856,-1.465,-18.555,-12.695,0.000,0.000
1737556972.860,47.852,-16.602,-4.395,70.801,0.000
1737556972.864,1.953,-18.066,-4.883,51.758,0.000
1737556972.868,-74.219,-22.461,-19.043,-33.203,0.000
1737556972.872,-98.633,-26.367,-21.973,-55.664,0.000
1737556972.876,-21.973,-24.902,-18.555,0.488,0.000
1737556972.880,60.059,-13.672,-17.578,57.129,0.000
1737556972.884,26.855,-7.324,-24.902,47.852,0.000
1737556972.888,-69.824,-10.742,-37.598,-19.531,0.000
1737556972.892,-106.445,-11.719,-47.852,-52.246,0.000
1737556972.895,-36.133,-14.648,-46.875,-27.344,0.000
1737556972.899,65.918,-14.648,-33.203,40.527,0.000
1737556972.903,59.082,-14.160,-19.531,59.082,0.000
1737556972.907,-37.598,-27.832,-36.621,5.859,0.000
1737556972.911,-95.215,-27.344,-45.410,-35.645,0.000
1737556972.915,-61.523,-20.508,-11.719,-26.367,0.000
1737556972.919,38.574,-17.578,0.977,48.340,0.000
1737556972.923,83.008,-12.207,-8.301,92.285,0.000
1737556972.927,3.418,-18.066,-7.812,46.387,0.000
1737556972.931,-48.340,-22.461,-13.184,1.465,0.000
1737556972.934,-2.930,-14.160,-17.090,23.438,0.000
1737556972.934,-2.930,-14.160,-17.090,23.438,0.000
1737556972.938,72.754,-6.348,-19.043,76.660,0.000
1737556972.942,87.891,-9.766,-28.320,105.469,0.000
1737556972.946,-7.324,-21.484,-38.574,67.383,0.000
1737556972.950,-52.734,-25.391,-41.504,-10.742,0.000
1737556972.954,-27.344,-22.461,-51.270,0.000,0.000
1737556972.958,54.688,-17.090,-69.336,67.871,0.000
1737556972.962,91.309,-15.137,-59.570,105.957,0.000
1737556972.966,-6.836,-20.020,-46.875,71.777,0.000
1737556972.970,-83.984,-26.855,-33.203,-28.809,0.000
1737556972.974,-77.148,-25.879,-13.184,-53.711,0.000
1737556972.977,17.090,-14.648,0.488,10.742,0.000
1737556972.981,74.219,-7.812,2.930,55.176,0.000
1737556972.985,17.090,-10.254,0.977,43.457,0.000
1737556972.989,-65.430,-18.555,-10.742,-5.371,0.000
1737556972.993,-85.449,-15.625,-37.598,-12.695,0.000
1737556972.997,-39.551,-11.230,-31.250,23.926,0.000
1737556973.001,28.809,-11.230,-16.602,50.781,0.000
1737556973.005,-8.789,-16.113,-28.809,24.902,0.000
1737556973.009,-102.539,-18.555,-15.625,-39.551,0.000
1737556973.013,-106.934,-16.602,2.441,-49.316,0.000
1737556973.017,-24.414,-11.719,-13.184,27.344,0.000
1737556973.020,46.387,-7.812,-18.066,73.242,0.000
1737556973.024,13.184,-14.648,-8.301,33.203,0.000
1737556973.028,-95.703,-20.020,-9.766,-45.898,0.000
1737556973.032,-109.863,-20.996,-14.160,-82.031,0.000
1737556973.036,-25.879,-13.672,-33.203,-36.621,0.000
1737556973.040,34.668,-6.836,-46.875,34.180,0.000
1737556973.044,15.625,-4.883,-23.926,18.066,0.000
1737556973.048,-69.336,-12.207,-12.695,-56.152,0.000
1737556973.052,-124.512,-17.578,-20.996,-88.867,0.000
1737556973.056,-67.383,-16.602,-21.484,-45.898,0.000
1737556973.060,21.973,-9.766,-11.230,22.461,0.000
1737556973.063,14.160,-6.836,-10.742,12.695,0.000
1737556973.067,-71.289,-11.719,-19.043,-46.387,0.000
1737556973.071,-139.160,-12.207,-29.785,-71.289,0.000
1737556973.075,-95.703,-6.836,-36.621,-41.504,0.000
1737556973.075,-95.703,-6.836,-36.621,-41.504,0.000
1737556973.079,35.156,-0.977,-38.086,38.086,0.000
1737556973.083,24.414,-7.324,-33.691,51.758,0.000
1737556973.087,-103.027,-12.695,-38.086,-45.898,0.000
1737556973.091,-139.160,-14.160,-32.227,-101.074,0.000
1737556973.095,-105.469,-11.230,-15.625,-59.082,0.000
1737556973.099,-20.020,-6.348,-3.418,28.320,0.000
1737556973.102,11.230,-7.812,2.441,16.602,0.000
1737556973.106,-88.379,-11.719,-4.395,-81.055,0.000
1737556973.110,-143.066,-17.090,-9.766,-102.539,0.000
1737556973.114,-113.770,-18.555,-23.438,-69.824,0.000
1737556973.118,-24.414,-4.883,-26.367,-26.367,0.000
1737556973.122,18.555,-4.883,-13.184,8.301,0.000
1737556973.126,-69.336,-16.602,-9.766,-24.414,0.000
1737556973.130,-126.465,-11.230,-16.113,-89.844,0.000
1737556973.134,-81.055,-3.906,-24.902,-92.773,0.000
1737556973.138,-38.574,-3.906,-23.438,-27.832,0.000
1737556973.142,-24.902,-3.418,-16.113,17.090,0.000
1737556973.145,-57.129,-0.977,-25.879,-24.414,0.000
1737556973.149,-133.301,-7.324,-32.715,-70.801,0.000
1737556973.153,-131.348,-9.277,-23.926,-54.199,0.000
1737556973.157,-54.199,-0.977,-4.883,-26.855,0.000
1737556973.161,3.418,4.395,-21.484,10.254,0.000
1737556973.165,-40.039,-0.977,-33.203,-15.137,0.000
1737556973.169,-128.418,-16.113,-13.672,-81.543,0.000
1737556973.173,-127.441,-22.949,-8.789,-82.520,0.000
1737556973.177,-58.594,-18.066,-10.254,-38.574,0.000
1737556973.181,-9.277,-13.672,-10.742,26.367,0.000
1737556973.185,-37.109,-12.207,-13.672,17.090,0.000
1737556973.188,-149.414,-16.113,-20.996,-53.711,0.000
1737556973.192,-179.199,-17.578,-23.926,-79.102,0.000
1737556973.196,-64.453,-12.695,-28.809,-34.668,0.000
1737556973.200,21.484,-7.812,-27.344,24.414,0.000
1737556973.204,-16.602,-7.812,-23.926,8.301,0.000
1737556973.208,-130.371,-15.625,-38.574,-73.730,0.000
1737556973.212,-158.203,-14.160,-41.504,-104.980,0.000
1737556973.216,-59.082,-4.395,-35.645,-47.363,0.000
1737556973.216,-59.082,-4.395,-35.645,-47.363,0.000
1737556973.220,0.000,-4.883,-32.227,0.000,0.000
1737556973.224,0.000,-8.301,-31.250,0.000,0.000
1737556973.227,0.000,-10.254,-31.738,0.000,0.000
1737556973.231,0.000,-17.578,-26.855,0.000,0.000
1737556973.235,0.000,-13.672,-24.414,0.000,0.000
1737556973.239,0.000,1.953,-20.508,0.000,0.000
1737556973.243,0.000,1.465,-26.855,0.000,0.000
1737556973.247,0.000,-7.812,-38.086,0.000,0.000
1737556973.251,0.000,-9.277,-36.621,0.000,0.000
1737556973.255,0.000,-8.789,-35.156,0.000,0.000
1737556973.259,0.000,-2.930,-34.668,0.000,0.000
1737556973.263,0.000,2.930,-31.250,0.000,0.000
1737556973.267,-81.543,1.953,-45.898,-65.430,0.000
1737556973.270,-126.953,1.465,-47.852,-122.559,0.000
1737556973.274,-123.535,1.465,-29.297,-126.953,0.000
1737556973.278,-79.102,-2.930,-22.461,-90.332,0.000
1737556973.282,-62.012,-3.418,-34.180,-54.199,0.000
1737556973.286,-84.473,0.977,-49.805,-86.426,0.000
1737556973.290,-181.641,-2.930,-51.270,-138.672,0.000
1737556973.294,-184.082,-9.766,-41.504,-106.445,0.000
1737556973.298,-74.707,-1.953,-24.414,-69.336,0.000
1737556973.302,-29.785,7.812,-28.809,-69.336,0.000
1737556973.306,-79.590,1.465,-37.598,-88.379,0.000
1737556973.309,-150.879,-6.348,-20.020,-128.418,0.000
1737556973.313,-142.090,-5.371,-4.883,-142.578,0.000
1737556973.317,-60.547,-0.977,-1.465,-99.121,0.000
1737556973.321,-19.531,4.395,-7.812,-52.734,0.000
1737556973.325,-76.172,2.441,-12.695,-72.266,0.000
1737556973.329,-147.949,4.883,-28.320,-119.141,0.000
1737556973.333,-161.133,15.625,-40.039,-124.512,0.000
1737556973.337,-86.914,20.020,-17.090,-95.703,0.000
1737556973.341,-30.762,15.625,-1.465,-62.012,0.000
1737556973.345,-68.848,15.625,-30.273,-64.941,0.000
1737556973.349,-147.949,21.484,-33.203,-119.141,0.000
1737556973.352,-193.848,11.230,-4.883,-155.762,0.000
1737556973.356,-143.555,19.531,12.695,-113.281,0.000
1737556973.356,-143.555,19.531,12.695,-113.281,0.000
1737556973.360,0.000,31.250,5.859,-77.148,0.000
1737556973.364,0.000,29.297,-14.648,-80.078,0.000
1737556973.368,0.000,32.715,-20.508,-132.812,0.000
1737556973.372,0.000,35.645,-11.230,-196.777,0.000
1737556973.376,0.000,41.504,0.977,-212.402,0.000
1737556973.380,0.000,42.969,12.207,-184.570,0.000
1737556973.384,0.000,44.434,16.113,-188.965,0.000
1737556973.388,0.000,41.504,13.672,-234.375,0.000
1737556973.392,0.000,39.062,10.742,-251.465,0.000
1737556973.395,0.000,33.203,0.488,-224.121,0.000
1737556973.399,0.000,27.832,7.324,-189.453,0.000
1737556973.403,0.000,28.320,26.367,-175.293,0.000
1737556973.407,-232.422,23.926,26.367,-202.148,0.000
1737556973.411,-236.328,18.555,22.461,-248.047,0.000
1737556973.415,-166.016,21.484,13.672,-205.078,0.000
1737556973.419,-82.520,24.902,9.277,-122.559,0.000
1737556973.423,-77.148,22.949,-3.906,-80.078,0.000
1737556973.427,-128.906,19.531,-15.137,-84.473,0.000
1737556973.431,-149.902,10.254,1.953,-106.934,0.000
1737556973.434,-88.379,12.207,10.254,-85.449,0.000
1737556973.438,-5.859,16.113,1.465,-47.363,0.000
1737556973.442,45.898,12.207,-8.301,-6.836,0.000
1737556973.446,-29.297,10.254,-18.555,-21.484,0.000
1737556973.450,-110.352,8.301,-39.062,-61.523,0.000
1737556973.454,-46.387,10.254,-54.199,-29.297,0.000
1737556973.458,61.035,16.602,-38.086,32.227,0.000
1737556973.462,107.910,16.602,-25.391,57.129,0.000
1737556973.466,33.203,12.207,-32.715,42.480,0.000
1737556973.470,-34.180,12.695,-60.547,33.691,0.000
1737556973.474,16.113,13.184,-61.523,44.434,0.000
1737556973.477,99.121,6.348,-39.062,73.730,0.000
1737556973.481,125.488,5.859,-20.508,95.215,0.000
1737556973.485,78.125,6.836,-10.742,70.801,0.000
1737556973.489,-18.066,-0.488,-39.551,46.875,0.000
1737556973.493,-21.484,-4.395,-40.039,36.133,0.000
1737556973.497,88.379,-2.441,-15.137,58.594,0.000
1737556973.497,88.379,-2.441,-15.137,58.594,0.000
1737556973.501,159.668,1.953,-10.254,82.031,0.000
1737556973.505,113.770,3.418,-10.742,55.176,0.000
1737556973.509,-3.906,-1.953,-37.598,9.766,0.000
1737556973.513,-47.363,-6.348,-45.410,13.184,0.000
1737556973.517,16.113,-6.348,-37.109,60.059,0.000
1737556973.520,83.984,0.488,-52.246,104.492,0.000
1737556973.524,68.359,5.371,-32.715,100.098,0.000
1737556973.528,-20.508,-6.348,-8.301,38.086,0.000
1737556973.532,-60.059,-14.648,-3.418,19.043,0.000
1737556973.536,7.812,-13.184,-5.371,51.270,0.000
1737556973.540,78.613,-18.555,-11.230,73.730,0.000
1737556973.544,75.684,-7.812,-42.480,86.426,0.000
1737556973.548,-21.973,-12.207,-85.938,69.336,0.000
1737556973.552,-83.008,-41.504,-65.430,19.531,0.000
1737556973.556,-37.598,-43.457,-30.273,13.672,0.000
1737556973.560,33.691,-28.320,-22.949,55.176,0.000
1737556973.563,29.785,-25.879,-26.367,61.035,0.000
1737556973.567,-36.133,-28.320,-35.156,26.367,0.000
1737556973.571,-76.660,-27.344,-28.320,23.926,0.000
1737556973.575,-56.152,-28.320,-46.875,14.648,0.000
1737556973.579,47.852,-21.973,-72.266,36.133,0.000
1737556973.583,88.867,-31.250,-46.875,33.691,0.000
1737556973.587,-29.297,-49.316,-20.508,-28.320,0.000
1737556973.591,-122.559,-57.617,-20.508,-65.918,0.000
1737556973.595,-50.781,-57.129,-33.691,-24.414,0.000
1737556973.599,41.504,-41.504,-43.457,35.645,0.000
1737556973.603,51.758,-47.363,-50.781,21.973,0.000
1737556973.606,-54.199,-72.754,-52.246,-3.906,0.000
1737556973.610,-142.090,-83.984,-63.965,-21.973,0.000
1737556973.614,-83.984,-79.590,-75.195,-24.414,0.000
1737556973.618,-16.602,-94.727,-97.656,11.230,0.000
1737556973.622,-17.578,-117.676,-122.559,15.137,0.000
1737556973.626,-83.984,-140.625,-146.973,-37.598,0.000
1737556973.630,-172.852,-155.273,-159.668,-96.191,0.000
1737556973.634,-159.668,-158.691,-119.141,-105.469,0.000
1737556973.638,-72.754,-176.270,-114.746,-87.891,0.000
1737556973.638,-72.754,-176.270,-114.746,-87.891,0.000
1737556973.642,0.000,-185.547,-139.648,-87.402,0.000
1737556973.646,0.000,-209.961,-156.250,-140.625,0.000
1737556973.649,0.000,-237.305,-191.406,-180.176,0.000
1737556973.653,0.000,-247.070,-265.137,-165.039,0.000
1737556973.657,0.000,-284.668,-304.199,-160.645,0.000
1737556973.661,0.000,-344.238,-239.746,-250.488,0.000
1737556973.665,0.000,-399.414,-262.207,-353.516,0.000
1737556973.669,0.000,-451.172,-368.652,-414.551,0.000
1737556973.673,0.000,-520.508,-448.242,-502.441,0.000
1737556973.677,0.000,-590.820,-532.715,-454.590,0.000
1737556973.681,0.000,-651.367,-607.422,-380.859,0.000
1737556973.685,0.000,-796.875,-694.824,-643.066,0.000
1737556973.688,-951.172,-957.031,-841.309,-937.012,0.000
1737556973.692,-1000.000,-1000.000,-984.375,-1000.000,0.000
1737556973.696,-992.188,-996.582,-1000.000,-993.652,0.000
1737556973.700,-1000.000,-1000.000,-996.094,-1000.000,0.000
1737556973.704,-1000.000,-1000.000,-1000.000,-1000.000,0.000
1737556973.708,-1000.000,-1000.000,-1000.000,-1000.000,0.000
1737556973.712,-1000.000,-1000.000,-1000.000,-1000.000,0.000
1737556973.716,-1000.000,-1000.000,-1000.000,-1000.000,0.000
1737556973.720,-1000.000,-1000.000,-1000.000,-1000.000,0.000
1737556973.724,-1000.000,-1000.000,-1000.000,-1000.000,0.000
1737556973.727,-1000.000,-1000.000,-1000.000,-1000.000,0.000
1737556973.731,-1000.000,-1000.000,-1000.000,-1000.000,0.000
1737556973.735,0.000,-1000.000,0.000,-1000.000,0.000
1737556973.739,0.000,-1000.000,0.000,-1000.000,0.000
1737556973.743,0.000,-1000.000,0.000,-1000.000,0.000
1737556973.747,0.000,-1000.000,0.000,-1000.000,0.000
1737556973.751,0.000,-1000.000,0.000,-1000.000,0.000
1737556973.755,0.000,-1000.000,0.000,-1000.000,0.000
1737556973.759,0.000,-1000.000,0.000,-1000.000,0.000
1737556973.763,0.000,-1000.000,0.000,-1000.000,0.000
1737556973.767,0.000,-1000.000,0.000,-1000.000,0.000
1737556973.770,0.000,-1000.000,0.000,-1000.000,0.000
1737556973.774,0.000,-1000.000,0.000,-1000.000,0.000
1737556973.778,0.000,-1000.000,0.000,-1000.000,0.000
1737556973.778,0.000,-1000.000,0.000,-1000.000,0.000
1737556973.782,-1000.000,-1000.000,-1000.000,-1000.000,0.000
1737556973.786,-1000.000,-1000.000,-1000.000,-1000.000,0.000
1737556973.790,-1000.000,-1000.000,-1000.000,-1000.000,0.000
1737556973.794,-1000.000,-1000.000,-1000.000,-1000.000,0.000
1737556973.798,-1000.000,-1000.000,-1000.000,-1000.000,0.000
1737556973.802,-1000.000,-1000.000,-1000.000,-1000.000,0.000
1737556973.806,-1000.000,-1000.000,-1000.000,-1000.000,0.000
1737556973.809,-1000.000,-1000.000,-1000.000,-1000.000,0.000
1737556973.813,-1000.000,-1000.000,-1000.000,-1000.000,0.000
1737556973.817,-1000.000,-1000.000,-1000.000,-1000.000,0.000
1737556973.821,-1000.000,-1000.000,-1000.000,-1000.000,0.000
1737556973.825,-1000.000,-1000.000,-1000.000,-1000.000,0.000
1737556973.829,-1000.000,-1000.000,-1000.000,-1000.000,0.000
1737556973.833,-1000.000,-1000.000,-975.098,-1000.000,0.000
1737556973.837,-1000.000,-1000.000,-924.316,-1000.000,0.000
1737556973.841,-1000.000,-1000.000,-879.883,-1000.000,0.000
1737556973.845,-1000.000,-1000.000,-823.242,-1000.000,0.000
1737556973.849,-1000.000,-1000.000,-713.867,-1000.000,0.000
1737556973.852,-1000.000,-1000.000,-644.531,-1000.000,0.000
1737556973.856,-1000.000,-1000.000,-542.969,-1000.000,0.000
1737556973.860,-1000.000,-1000.000,-404.297,-1000.000,0.000
1737556973.864,-1000.000,-1000.000,-355.469,-1000.000,0.000
1737556973.868,-1000.000,-1000.000,-300.781,-1000.000,0.000
1737556973.872,-1000.000,-1000.000,-202.637,-1000.000,0.000
1737556973.876,-1000.000,-1000.000,-141.602,-1000.000,0.000
1737556973.880,-1000.000,-1000.000,-54.688,-1000.000,0.000
1737556973.884,-1000.000,-1000.000,194.336,-1000.000,0.000
1737556973.888,-999.512,-1000.000,305.176,-1000.000,0.000
1737556973.891,-997.559,-1000.000,340.332,-1000.000,0.000
1737556973.895,-1000.000,-1000.000,401.855,-1000.000,0.000
1737556973.899,-940.430,-1000.000,497.559,-1000.000,0.000
1737556973.903,-868.164,-989.746,656.738,-996.582,0.000
1737556973.907,-902.832,-993.164,749.023,-1000.000,0.000
1737556973.911,-869.141,-971.191,821.289,-959.961,0.000
1737556973.915,-804.688,-868.652,948.730,-872.559,0.000
1737556973.919,-751.953,-782.715,941.895,-846.680,0.000
1737556973.919,-751.953,-782.715,941.895,-846.680,0.000
1737556973.923,-689.941,-751.465,935.547,-836.426,0.000
1737556973.927,-736.328,-697.266,974.121,-793.945,0.000
1737556973.931,-692.383,-627.930,970.703,-687.988,0.000
1737556973.934,-515.137,-558.594,970.215,-578.613,0.000
1737556973.938,-377.441,-493.652,971.191,-500.977,0.000
1737556973.942,-354.004,-455.078,970.703,-461.426,0.000
1737556973.946,-369.629,-420.410,970.703,-421.875,0.000
1737556973.950,-289.062,-298.828,970.703,-346.680,0.000
1737556973.954,-225.098,-176.758,970.703,-281.738,0.000
1737556973.958,-189.941,-201.660,970.703,-291.016,0.000
1737556973.962,-133.789,-174.805,970.703,-267.090,0.000
1737556973.966,-80.566,-84.961,970.703,-166.504,0.000
1737556973.970,-16.602,-8.301,970.703,-55.664,0.000
1737556973.973,-28.320,-36.133,970.703,-56.152,0.000
1737556973.977,-49.805,-73.242,970.703,-96.680,0.000
1737556973.981,41.992,-8.301,970.703,-13.672,0.000
1737556973.985,69.824,51.758,970.703,12.695,0.000
1737556973.989,53.223,152.832,970.703,12.207,0.000
1737556973.993,201.660,247.070,970.703,147.461,0.000
1737556973.997,317.383,278.320,970.703,220.215,0.000
1737556974.001,299.805,292.969,970.703,166.504,0.000
1737556974.005,281.738,303.223,970.703,164.062,0.000
1737556974.009,253.906,363.281,970.703,208.008,0.000
1737556974.012,217.773,376.953,970.703,197.266,0.000
1737556974.016,242.676,333.496,970.703,187.988,0.000
1737556974.020,293.945,298.828,970.703,219.727,0.000
1737556974.024,280.273,275.391,970.703,237.793,0.000
1737556974.028,226.074,305.664,970.703,258.789,0.000
1737556974.032,160.645,235.840,970.703,194.336,0.000
1737556974.036,13.184,105.469,970.703,16.602,0.000
1737556974.040,29.785,164.062,970.703,15.625,0.000
1737556974.044,118.652,231.445,970.703,89.355,0.000
1737556974.048,68.359,247.070,970.703,104.004,0.000
1737556974.052,53.223,261.230,970.703,122.070,0.000
1737556974.055,148.926,285.645,970.703,179.688,0.000
1737556974.059,256.836,325.684,970.703,283.691,0.000
1737556974.059,256.836,325.684,970.703,283.691,0.000
1737556974.063,265.137,361.816,970.703,306.152,0.000
1737556974.067,273.438,410.645,970.703,328.613,0.000
1737556974.071,305.176,455.566,970.703,384.766,0.000
1737556974.075,300.293,486.328,970.703,366.699,0.000
1737556974.079,408.691,520.020,970.703,418.945,0.000
1737556974.083,466.309,538.574,970.703,477.051,0.000
1737556974.087,349.609,517.578,970.703,438.965,0.000
1737556974.091,306.641,518.555,970.703,418.945,0.000
1737556974.095,362.793,530.762,970.703,438.477,0.000
1737556974.098,441.895,523.926,970.703,475.098,0.000
1737556974.102,452.148,503.906,970.703,471.680,0.000
1737556974.106,336.426,480.469,970.703,408.203,0.000
1737556974.110,282.715,457.520,970.703,406.738,0.000
1737556974.114,374.512,468.750,970.703,475.586,0.000
1737556974.118,395.996,446.777,970.703,458.984,0.000
1737556974.122,348.145,417.480,970.703,390.137,0.000
1737556974.126,297.852,462.891,969.727,370.117,0.000
1737556974.130,250.488,438.965,970.215,349.121,0.000
1737556974.134,294.922,403.320,971.191,370.605,0.000
1737556974.138,380.859,441.406,930.176,408.691,0.000
1737556974.141,415.039,391.602,887.695,381.836,0.000
1737556974.145,307.617,370.117,902.832,345.703,0.000
1737556974.149,200.684,409.180,877.441,283.203,0.000
1737556974.153,198.730,370.117,802.734,221.191,0.000
1737556974.157,279.785,358.398,765.625,267.090,0.000
1737556974.161,299.316,344.727,729.980,327.148,0.000
1737556974.165,183.105,291.992,659.668,228.027,0.000
1737556974.169,79.102,243.164,610.352,104.980,0.000
1737556974.173,54.199,216.797,567.383,67.871,0.000
1737556974.177,118.652,192.383,548.828,93.262,0.000
1737556974.180,186.523,187.500,560.547,143.066,0.000
1737556974.184,177.246,249.023,572.266,193.848,0.000
1737556974.188,172.852,291.992,605.957,217.773,0.000
1737556974.192,146.484,312.500,611.816,186.035,0.000
1737556974.196,166.504,325.195,585.449,204.590,0.000
1737556974.200,256.348,338.867,611.816,214.844,0.000
1737556974.200,256.348,338.867,611.816,214.844,0.000
1737556974.204,0.000,354.980,0.000,203.125,0.000
1737556974.208,0.000,385.254,0.000,240.723,0.000
1737556974.212,0.000,440.430,0.000,322.754,0.000
1737556974.216,0.000,467.285,0.000,386.719,0.000
1737556974.220,0.000,445.312,0.000,359.375,0.000
1737556974.223,0.000,456.055,0.000,355.957,0.000
1737556974.227,0.000,542.480,0.000,334.473,0.000
1737556974.231,0.000,580.566,0.000,321.289,0.000
1737556974.235,0.000,558.105,0.000,378.906,0.000
1737556974.239,0.000,553.711,0.000,441.406,0.000
1737556974.243,0.000,548.828,0.000,442.871,0.000
1737556974.247,0.000,551.270,0.000,407.227,0.000
1737556974.251,251.465,563.477,756.836,391.113,0.000
1737556974.255,197.754,593.262,750.000,425.293,0.000
1737556974.259,281.738,562.500,713.867,427.246,0.000
1737556974.262,365.723,515.625,649.414,377.930,0.000
1737556974.266,369.629,501.465,611.328,347.656,0.000
1737556974.270,409.668,501.953,610.352,357.910,0.000
1737556974.274,369.629,505.859,609.375,379.395,0.000
1737556974.278,336.914,503.906,595.215,407.227,0.000
1737556974.282,394.043,520.508,598.633,449.219,0.000
1737556974.286,472.656,518.555,576.660,431.152,0.000
1737556974.290,440.918,495.117,545.898,396.484,0.000
1737556974.294,367.676,498.047,536.133,446.777,0.000
1737556974.298,469.238,520.020,510.254,520.996,0.000
1737556974.301,499.512,521.973,492.188,515.625,0.000
1737556974.305,423.340,501.953,520.508,496.094,0.000
1737556974.309,365.723,509.766,533.691,497.559,0.000
1737556974.313,395.020,532.715,502.930,499.023,0.000
1737556974.317,465.820,543.945,489.258,540.527,0.000
1737556974.321,510.254,555.176,483.887,597.168,0.000
1737556974.325,471.680,558.594,455.078,619.629,0.000
1737556974.329,435.059,566.895,422.363,584.961,0.000
1737556974.333,495.117,572.754,407.227,555.664,0.000
1737556974.337,535.156,563.477,373.047,558.594,0.000
1737556974.340,519.531,551.270,336.914,562.988,0.000
1737556974.340,519.531,551.270,336.914,562.988,0.000
1737556974.344,485.352,541.016,337.891,592.285,0.000
1737556974.348,438.965,522.949,332.031,575.195,0.000
1737556974.352,444.824,539.551,292.969,580.566,0.000
1737556974.356,458.008,544.434,258.789,582.520,0.000
1737556974.360,472.168,522.461,254.883,533.691,0.000
1737556974.364,483.887,510.254,236.816,529.785,0.000
1737556974.368,410.156,495.117,203.613,520.020,0.000
1737556974.372,406.250,498.535,181.641,500.000,0.000
1737556974.376,483.887,494.141,156.250,544.434,0.000
1737556974.380,507.812,477.539,135.254,577.637,0.000
1737556974.383,494.141,479.980,120.605,575.684,0.000
1737556974.387,427.246,481.445,82.031,536.133,0.000
1737556974.391,406.250,473.633,64.941,505.859,0.000
1737556974.395,432.129,466.309,56.641,541.504,0.000
1737556974.399,478.027,458.984,7.812,587.402,0.000
1737556974.403,487.793,446.289,0.977,595.215,0.000
1737556974.407,438.965,422.363,16.602,530.273,0.000
1737556974.411,389.648,408.691,8.301,464.355,0.000
1737556974.415,413.574,418.457,0.000,459.473,0.000
1737556974.419,493.164,430.176,-20.508,516.602,0.000
1737556974.422,490.723,428.711,-34.668,516.602,0.000
1737556974.426,391.602,417.480,-34.180,457.031,0.000
1737556974.430,378.906,413.086,-38.574,438.477,0.000
1737556974.434,432.617,414.551,-66.406,478.027,0.000
1737556974.438,497.070,414.551,-99.609,543.457,0.000
1737556974.442,507.324,408.203,-101.074,514.160,0.000
1737556974.446,409.668,405.273,-82.031,441.406,0.000
1737556974.450,371.582,395.996,-51.758,447.266,0.000
1737556974.454,421.387,395.508,-38.574,494.141,0.000
1737556974.458,485.352,405.762,-56.641,504.883,0.000
1737556974.462,499.512,401.367,-87.891,510.742,0.000
1737556974.465,461.914,396.973,-76.172,506.348,0.000
1737556974.469,407.715,399.902,-68.848,476.074,0.000
1737556974.473,386.719,400.879,-82.031,459.473,0.000
1737556974.477,456.543,398.438,-74.219,471.680,0.000
1737556974.481,496.094,392.578,-74.219,496.582,0.000
1737556974.481,496.094,392.578,-74.219,496.582,0.000
1737556974.485,452.637,386.230,-74.219,490.723,0.000
1737556974.489,406.250,376.953,-68.359,465.820,0.000
1737556974.493,383.301,367.676,-75.195,430.176,0.000
1737556974.497,428.711,359.375,-72.754,460.938,0.000
1737556974.501,494.629,352.539,-53.711,500.488,0.000
1737556974.505,453.613,348.633,-45.410,473.633,0.000
1737556974.508,357.910,339.844,-60.547,436.035,0.000
1737556974.512,370.605,333.984,-72.266,434.570,0.000
1737556974.516,433.105,329.102,-73.242,461.426,0.000
1737556974.520,473.633,322.266,-74.707,502.441,0.000
1737556974.524,444.336,317.383,-66.895,483.887,0.000
1737556974.528,334.473,310.059,-70.312,431.152,0.000
1737556974.532,313.477,305.176,-67.871,424.805,0.000
1737556974.536,396.973,303.223,-44.434,455.078,0.000
1737556974.540,449.707,297.363,-37.109,478.027,0.000
1737556974.544,395.020,289.551,-34.180,431.641,0.000
1737556974.548,309.570,292.480,-19.531,381.836,0.000
1737556974.551,317.871,289.551,-18.555,395.996,0.000
1737556974.555,370.117,288.086,-32.227,432.129,0.000
1737556974.559,435.059,288.574,-37.109,470.215,0.000
1737556974.563,435.059,280.762,-36.133,466.309,0.000
1737556974.567,349.121,274.414,-33.203,409.180,0.000
1737556974.571,331.543,270.508,-31.738,376.465,0.000
1737556974.575,362.305,262.695,-34.180,404.297,0.000
1737556974.579,420.898,258.301,-40.527,426.758,0.000
1737556974.583,431.641,260.254,-42.480,421.875,0.000
1737556974.587,354.980,261.719,-28.809,403.320,0.000
1737556974.591,326.172,259.277,-12.695,411.621,0.000
1737556974.594,395.020,256.836,-29.297,438.965,0.000
1737556974.598,492.188,264.648,-52.246,511.719,0.000
1737556974.602,516.602,265.625,-15.137,567.383,0.000
1737556974.606,465.820,256.348,17.090,540.527,0.000
1737556974.610,431.641,250.488,-0.488,511.719,0.000
1737556974.614,481.445,244.629,6.348,538.574,0.000
1737556974.618,547.363,251.953,25.879,591.797,0.000
1737556974.622,591.797,252.930,27.344,607.422,0.000
1737556974.622,591.797,252.930,27.344,607.422,0.000
1737556974.626,535.156,238.281,17.090,589.355,0.000
1737556974.630,469.238,236.328,13.184,579.590,0.000
1737556974.633,521.484,242.188,22.949,589.355,0.000
1737556974.637,600.586,240.234,39.062,616.211,0.000
1737556974.641,629.395,240.234,29.297,642.090,0.000
1737556974.645,575.684,240.723,19.043,620.605,0.000
1737556974.649,492.676,228.027,27.344,593.262,0.000
1737556974.653,462.891,217.285,32.227,585.449,0.000
1737556974.657,518.555,220.215,43.945,575.195,0.000
1737556974.661,535.156,218.262,74.219,548.828,0.000
1737556974.665,433.105,201.660,114.258,504.395,0.000
1737556974.669,302.246,187.988,133.301,457.520,0.000
1737556974.673,271.973,187.500,139.648,410.645,0.000
1737556974.676,317.383,195.801,141.113,379.883,0.000
1737556974.680,318.848,196.289,129.883,377.930,0.000
1737556974.684,246.094,191.895,107.910,329.590,0.000
1737556974.688,125.977,186.523,67.871,246.582,0.000
1737556974.692,107.910,190.430,23.438,226.562,0.000
1737556974.696,215.332,191.895,-34.180,259.766,0.000
1737556974.700,291.504,191.406,-125.977,306.152,0.000
1737556974.704,247.070,201.172,-165.527,300.293,0.000
1737556974.708,147.461,187.012,-120.605,238.770,0.000
1737556974.712,152.344,177.246,-95.215,216.797,0.000
1737556974.715,224.609,183.105,-113.281,235.352,0.000
1737556974.719,291.992,182.617,-119.629,255.859,0.000
1737556974.723,257.324,178.223,-114.746,244.629,0.000
1737556974.727,166.504,185.547,-114.746,210.449,0.000
1737556974.731,127.441,187.988,-111.328,184.570,0.000
1737556974.735,167.480,186.035,-109.863,181.641,0.000
1737556974.739,271.973,196.777,-130.859,220.703,0.000
1737556974.743,260.254,188.965,-122.559,203.125,0.000
1737556974.747,132.324,171.875,-83.496,131.348,0.000
1737556974.751,65.918,170.898,-61.523,112.305,0.000
1737556974.755,124.023,167.969,-43.945,151.367,0.000
1737556974.758,192.871,164.551,-37.598,194.824,0.000
1737556974.762,200.195,162.109,-60.059,191.406,0.000
1737556974.762,200.195,162.109,-60.059,191.406,0.000
1737556974.766,134.766,163.574,0.000,0.000,0.000
1737556974.770,97.168,166.016,0.000,0.000,0.000
1737556974.774,102.539,155.762,0.000,0.000,0.000
1737556974.778,161.621,152.832,0.000,0.000,0.000
1737556974.782,226.074,161.621,0.000,0.000,0.000
1737556974.786,110.352,164.551,0.000,0.000,0.000
1737556974.790,34.180,158.203,0.000,0.000,0.000
1737556974.794,82.520,149.414,0.000,0.000,0.000
1737556974.797,145.996,145.020,0.000,0.000,0.000
1737556974.801,186.035,151.367,0.000,0.000,0.000
1737556974.805,132.324,149.902,0.000,0.000,0.000
1737556974.809,48.828,140.137,0.000,0.000,0.000
1737556974.813,61.523,142.578,-18.066,49.316,0.000
1737556974.817,146.484,144.531,-8.789,104.980,0.000
1737556974.821,183.105,140.625,-21.973,148.438,0.000
1737556974.825,104.492,136.719,-36.133,122.070,0.000
1737556974.829,31.250,138.184,-59.082,83.984,0.000
1737556974.833,40.527,134.766,-76.172,84.473,0.000
1737556974.837,125.000,129.883,-79.102,127.441,0.000
1737556974.840,198.730,137.207,-72.754,154.297,0.000
1737556974.844,133.789,132.812,-57.617,111.816,0.000
1737556974.848,52.734,118.164,-52.734,60.059,0.000
1737556974.852,45.410,115.234,-49.316,69.336,0.000
1737556974.856,136.230,116.211,-60.547,119.629,0.000
1737556974.860,172.363,119.629,-82.031,133.789,0.000
1737556974.864,116.699,115.723,-74.707,104.980,0.000
1737556974.868,35.156,108.887,-50.781,63.965,0.000
1737556974.872,-17.090,106.445,-39.551,77.148,0.000
1737556974.876,98.633,108.398,-36.621,101.562,0.000
1737556974.880,189.941,113.770,-83.008,121.582,0.000
1737556974.883,138.672,118.164,-98.633,114.258,0.000
1737556974.887,56.641,115.234,-42.969,53.223,0.000
1737556974.891,44.922,111.328,-33.691,39.551,0.000
1737556974.895,115.234,111.816,-35.645,120.605,0.000
1737556974.899,180.176,111.816,-18.066,164.551,0.000
1737556974.903,133.789,112.305,-20.020,124.512,0.000
1737556974.903,133.789,112.305,-20.020,124.512,0.000
1737556974.907,22.461,105.957,-35.645,84.961,0.000
1737556974.911,22.949,104.004,-32.715,36.133,0.000
1737556974.915,101.562,109.375,-28.809,72.266,0.000
1737556974.919,190.918,109.375,-46.387,158.691,0.000
1737556974.923,210.449,105.957,-72.266,160.156,0.000
1737556974.926,84.961,101.562,-88.379,77.148,0.000
1737556974.930,-3.418,102.539,-68.848,44.922,0.000
1737556974.934,77.148,102.051,-38.574,110.352,0.000
1737556974.938,163.574,101.074,-45.410,154.297,0.000
1737556974.942,162.109,98.145,-54.199,149.414,0.000
1737556974.946,103.516,88.867,-31.250,116.699,0.000
1737556974.950,61.035,86.426,-41.504,66.895,0.000
1737556974.954,65.430,91.309,-55.664,80.078,0.000
1737556974.958,128.418,92.773,-35.156,123.047,0.000
1737556974.962,164.551,88.867,-22.949,140.137,0.000
1737556974.965,91.797,88.379,-14.160,105.957,0.000
1737556974.969,19.043,90.332,-26.367,51.270,0.000
1737556974.973,40.039,88.379,-46.875,61.035,0.000
1737556974.977,136.230,91.309,-47.363,133.301,0.000
1737556974.981,176.758,89.844,-51.270,153.320,0.000
1737556974.985,101.074,84.473,-56.152,94.238,0.000
1737556974.989,4.395,87.402,-60.059,45.898,0.000
1737556974.993,69.824,93.262,-49.805,53.711,0.000
1737556974.997,142.578,90.820,-39.062,150.879,0.000
1737556975.001,161.133,83.008,-48.340,213.867,0.000
1737556975.005,103.027,79.590,-43.945,132.324,0.000
1737556975.008,-0.488,73.730,-37.109,38.086,0.000
1737556975.012,18.066,80.566,-39.062,30.762,0.000
1737556975.016,105.957,88.379,-52.734,104.004,0.000
1737556975.020,182.617,83.984,-61.035,140.137,0.000
1737556975.024,127.441,78.125,-71.289,107.910,0.000
1737556975.028,34.668,75.684,-83.984,66.895,0.000
1737556975.032,22.949,86.426,-59.082,57.617,0.000
1737556975.036,54.688,87.891,-23.438,86.914,0.000
1737556975.040,132.324,77.637,-23.926,109.375,0.000
1737556975.044,140.625,76.660,-42.480,92.285,0.000
1737556975.044,140.625,76.660,-42.480,92.285,0.000
1737556975.048,30.273,69.336,-49.316,24.414,0.000
1737556975.051,-15.625,55.176,-45.410,5.371,0.000
1737556975.055,32.227,53.711,-48.340,83.496,0.000
1737556975.059,103.516,60.059,-45.898,125.000,0.000
1737556975.063,104.492,63.965,-47.852,95.215,0.000
1737556975.067,29.785,62.012,-55.664,42.480,0.000
1737556975.071,7.324,60.059,-61.035,15.137,0.000
1737556975.075,82.520,61.523,-69.824,53.711,0.000
1737556975.079,145.996,65.918,-80.078,119.629,0.000
1737556975.083,117.676,68.359,-86.914,121.094,0.000
1737556975.087,28.320,62.988,-60.059,69.336,0.000
1737556975.090,-39.062,57.617,-37.598,23.926,0.000
1737556975.094,16.602,55.176,-44.922,55.664,0.000
1737556975.098,116.211,57.617,-44.922,139.648,0.000
1737556975.102,128.418,58.105,-41.504,127.930,0.000
1737556975.106,51.758,50.293,-31.250,32.715,0.000
1737556975.110,-17.578,49.805,-31.250,-13.184,0.000
1737556975.114,26.367,55.176,-35.156,24.902,0.000
1737556975.118,127.930,62.012,-43.457,104.004,0.000
1737556975.122,126.953,62.500,-58.105,111.328,0.000
1737556975.126,30.273,56.641,-71.289,44.434,0.000
1737556975.129,-39.062,53.223,-71.777,3.418,0.000
1737556975.133,14.648,60.059,-65.918,23.438,0.000
1737556975.137,116.699,68.359,-72.266,108.887,0.000
1737556975.141,142.090,62.988,-57.617,131.836,0.000
1737556975.145,64.453,55.664,-36.621,62.500,0.000
1737556975.149,-15.625,50.781,-32.715,12.207,0.000
1737556975.153,-0.488,46.387,-41.992,25.879,0.000
1737556975.157,109.375,53.223,-53.223,93.262,0.000
1737556975.161,155.273,61.035,-66.406,122.559,0.000
1737556975.165,30.762,62.988,-53.223,77.148,0.000
1737556975.169,-42.480,62.012,-43.457,10.254,0.000
1737556975.172,27.344,62.988,-53.711,16.602,0.000
1737556975.176,120.605,59.082,-55.176,97.656,0.000
1737556975.180,161.133,58.594,-53.711,145.508,0.000
1737556975.184,120.117,62.012,-61.035,104.004,0.000
1737556975.184,120.117,62.012,-61.035,104.004,0.000
1737556975.188,14.648,56.641,-64.941,50.293,0.000
1737556975.192,-42.480,48.340,-67.871,48.828,0.000
1737556975.196,52.734,47.852,-67.383,76.660,0.000
1737556975.200,148.926,57.129,-51.758,119.629,0.000
1737556975.204,117.188,60.059,-36.621,116.699,0.000
1737556975.208,23.438,54.688,-38.574,47.852,0.000
1737556975.212,-26.855,49.805,-46.875,28.320,0.000
1737556975.215,59.082,52.734,-45.410,78.125,0.000
1737556975.219,162.598,56.641,-50.781,117.676,0.000
1737556975.223,139.648,54.199,-52.734,109.863,0.000
1737556975.227,21.973,52.734,-56.641,57.617,0.000
1737556975.231,-6.348,50.781,-72.754,38.574,0.000
1737556975.235,86.426,50.293,-62.500,90.820,0.000
1737556975.239,120.605,54.199,-36.621,137.695,0.000
1737556975.243,107.422,50.293,-26.855,102.051,0.000
1737556975.247,8.789,38.086,-36.133,47.852,0.000
1737556975.251,-54.199,41.016,-47.852,19.531,0.000
1737556975.255,51.758,50.293,-41.016,66.895,0.000
1737556975.258,149.902,52.734,-32.227,128.418,0.000
1737556975.262,150.391,50.293,-32.715,125.488,0.000
1737556975.266,56.152,42.969,-41.504,68.359,0.000
1737556975.270,-46.387,33.691,-48.828,18.555,0.000
1737556975.274,3.418,35.645,-52.246,36.133,0.000
1737556975.278,107.910,47.363,-54.688,91.797,0.000
1737556975.282,0.000,50.781,-57.129,117.188,0.000
1737556975.286,0.000,48.340,-59.570,54.199,0.000
1737556975.290,0.000,43.945,-54.688,7.812,0.000
1737556975.294,0.000,41.504,-55.176,48.340,0.000
1737556975.297,0.000,43.457,-51.270,116.699,0.000
1737556975.301,0.000,45.898,-41.992,127.441,0.000
1737556975.305,0.000,45.898,-44.922,56.152,0.000
1737556975.309,0.000,39.551,-51.270,4.395,0.000
1737556975.313,0.000,42.969,-56.641,23.926,0.000
1737556975.317,0.000,46.387,-53.711,83.984,0.000
1737556975.321,0.000,40.527,-50.293,108.887,0.000
1737556975.325,0.000,32.227,-54.688,58.594,0.000
1737556975.325,0.000,32.227,-54.688,58.594,0.000
1737556975.329,-15.625,27.344,-51.270,10.254,0.000
1737556975.333,-9.766,32.715,-55.176,29.297,0.000
1737556975.337,85.449,37.109,-67.871,96.191,0.000
1737556975.340,132.324,35.645,-61.523,125.000,0.000
1737556975.344,53.711,35.645,-49.805,62.988,0.000
1737556975.348,-77.637,36.133,-48.828,1.465,0.000
1737556975.352,-73.242,38.574,-49.316,-0.977,0.000
1737556975.356,57.617,41.992,-43.457,57.617,0.000
1737556975.360,112.305,44.434,-43.457,109.863,0.000
1737556975.364,73.242,40.039,-49.316,89.844,0.000
1737556975.368,-10.742,40.039,-61.035,28.809,0.000
1737556975.372,-22.461,41.504,-62.012,20.020,0.000
1737556975.376,23.926,39.551,-48.340,59.570,0.000
1737556975.380,76.660,41.504,-40.039,102.539,0.000
1737556975.383,47.363,38.574,-39.551,103.516,0.000
1737556975.387,-27.832,31.738,-52.734,12.207,0.000
1737556975.391,-16.113,37.109,-60.059,-27.344,0.000
1737556975.395,63.477,48.340,-52.246,29.785,0.000
1737556975.399,114.258,49.805,-50.293,83.496,0.000
1737556975.403,88.867,46.387,-51.270,83.496,0.000
1737556975.407,-9.766,40.527,-56.152,65.430,0.000
1737556975.411,-69.336,32.715,-60.059,-5.371,0.000
1737556975.415,17.090,36.133,-48.340,3.906,0.000
1737556975.419,127.441,46.387,-41.016,88.379,0.000
1737556975.422,110.352,40.527,-43.457,83.984,0.000
1737556975.426,0.977,35.156,-45.410,11.719,0.000
1737556975.430,-46.875,34.180,-47.363,-29.785,0.000
1737556975.434,14.160,39.551,-56.152,20.020,0.000
1737556975.438,90.332,44.434,-58.105,83.984,0.000
1737556975.442,78.125,34.180,-39.062,87.402,0.000
1737556975.446,-15.137,24.902,-33.203,7.812,0.000
1737556975.450,-66.895,23.438,-48.828,-27.344,0.000
1737556975.454,-16.602,25.879,-57.129,8.789,0.000
1737556975.458,84.473,30.273,-46.387,62.988,0.000
1737556975.461,102.051,33.691,-35.156,80.566,0.000
1737556975.465,20.996,31.250,-39.062,16.113,0.000
1737556975.465,20.996,31.250,-39.062,16.113,0.000
1737556975.469,-62.988,33.203,-48.828,-23.926,0.000
1737556975.473,-33.691,41.016,-59.570,11.719,0.000
1737556975.477,98.633,39.551,-63.477,80.078,0.000
1737556975.481,98.145,36.133,-66.406,86.914,0.000
1737556975.485,0.000,32.227,-55.664,17.578,0.000
1737556975.489,-41.504,25.391,-52.246,-25.391,0.000
1737556975.493,-36.621,26.855,-55.176,2.930,0.000
1737556975.497,55.664,29.785,-48.340,71.777,0.000
1737556975.501,116.699,25.391,-44.434,103.516,0.000
1737556975.504,36.621,23.438,-44.922,50.781,0.000
1737556975.508,-16.602,21.973,-57.129,-6.836,0.000
1737556975.512,-19.531,22.949,-60.059,-3.418,0.000
1737556975.516,22.949,32.715,0.000,71.289,0.000
1737556975.520,89.355,33.691,0.000,96.191,0.000
1737556975.524,37.109,25.879,0.000,30.273,0.000
1737556975.528,-49.805,24.902,0.000,-10.742,0.000
1737556975.532,-44.434,26.855,0.000,-4.395,0.000
1737556975.536,46.387,34.668,0.000,50.293,0.000
1737556975.540,118.164,40.527,0.000,89.355,0.000
1737556975.543,76.660,35.156,0.000,57.617,0.000
1737556975.547,-23.926,27.832,0.000,-4.395,0.000
1737556975.551,-66.895,25.391,0.000,-17.090,0.000
1737556975.555,26.855,26.855,0.000,43.457,0.000
1737556975.559,106.445,26.367,0.000,73.730,0.000
1737556975.563,70.312,22.949,-35.156,66.406,0.000
1737556975.567,-18.066,24.902,-39.551,12.695,0.000
1737556975.571,-36.621,30.762,-46.875,-7.324,0.000
1737556975.575,50.781,32.227,-60.059,51.758,0.000
1737556975.579,82.031,26.367,-62.012,109.375,0.000
1737556975.583,37.109,20.508,-51.270,84.961,0.000
1737556975.586,-34.180,17.090,-62.012,-4.883,0.000
1737556975.590,-31.738,19.043,-61.035,-30.762,0.000
1737556975.594,47.363,20.996,-30.273,8.789,0.000
1737556975.598,121.094,24.414,-29.785,78.125,0.000
1737556975.602,119.629,28.809,-41.504,105.469,0.000
1737556975.606,12.695,21.973,-55.664,17.578,0.000
1737556975.606,12.695,21.973,-55.664,17.578,0.000
1737556975.610,-55.664,18.066,-67.383,-39.551,0.000
1737556975.614,-19.531,26.855,-50.293,7.324,0.000
1737556975.618,66.895,28.320,-39.551,63.477,0.000
1737556975.622,82.031,26.855,-53.223,76.172,0.000
1737556975.626,-15.625,23.926,-66.895,29.785,0.000
1737556975.629,-60.547,22.949,-61.523,-12.695,0.000
1737556975.633,-8.301,23.926,-64.941,-0.488,0.000
1737556975.637,86.914,22.461,-65.918,66.406,0.000
1737556975.641,90.820,21.973,-52.246,99.609,0.000
1737556975.645,4.395,19.043,-45.898,40.039,0.000
1737556975.649,-37.598,17.578,-45.410,0.000,0.000
1737556975.653,-37.109,17.090,-45.410,0.488,0.000
1737556975.657,52.246,19.043,-48.340,57.617,0.000
1737556975.661,132.324,23.438,-52.246,98.633,0.000
1737556975.665,28.320,22.949,-48.340,48.828,0.000
1737556975.669,-62.012,21.484,-56.641,9.766,0.000
1737556975.672,-30.762,22.461,-58.105,-4.883,0.000
1737556975.676,90.820,25.391,-46.387,36.133,0.000
1737556975.680,133.301,29.785,-46.387,105.957,0.000
1737556975.684,13.184,26.367,-46.875,72.266,0.000
1737556975.688,-56.641,17.090,-41.016,-2.930,0.000
1737556975.692,-20.508,18.066,-37.598,7.812,0.000
1737556975.696,72.754,31.250,-36.133,70.801,0.000
1737556975.700,135.742,36.133,-34.668,95.215,0.000
1737556975.704,65.430,29.297,-48.340,58.594,0.000
1737556975.708,-31.250,25.391,-74.219,-4.883,0.000
1737556975.712,-39.551,25.391,-67.383,-30.273,0.000
1737556975.715,2.441,20.020,-34.668,15.625,0.000
1737556975.719,89.844,23.438,-23.438,80.566,0.000
1737556975.723,84.961,25.879,-37.598,67.383,0.000
1737556975.727,-36.621,18.555,-43.945,-11.719,0.000
1737556975.731,-49.805,14.648,-40.527,-26.367,0.000
1737556975.735,41.016,19.531,-43.457,27.344,0.000
1737556975.739,122.559,23.926,-48.340,84.473,0.000
1737556975.743,107.422,19.531,-54.199,98.633,0.000
1737556975.747,-19.043,20.508,-59.082,21.973,0.000
1737556975.747,-19.043,20.508,-59.082,21.973,0.000
1737556975.751,-109.375,17.090,0.000,0.000,0.000
1737556975.754,-22.461,17.578,0.000,0.000,0.000
1737556975.758,104.004,23.926,0.000,0.000,0.000
1737556975.762,94.727,20.996,0.000,0.000,0.000
1737556975.766,-23.438,16.113,0.000,0.000,0.000
1737556975.770,-64.941,16.113,0.000,0.000,0.000
1737556975.774,20.996,19.043,0.000,0.000,0.000
1737556975.778,104.980,20.996,0.000,0.000,0.000
1737556975.782,96.680,23.926,0.000,0.000,0.000
1737556975.786,-5.859,20.020,0.000,0.000,0.000
1737556975.790,-54.688,11.719,0.000,0.000,0.000
1737556975.793,-19.043,16.602,0.000,0.000,0.000
1737556975.797,65.430,23.438,-39.062,71.777,0.000
1737556975.801,118.164,19.043,-49.805,62.012,0.000
1737556975.805,-6.836,7.812,-67.383,-6.348,0.000
1737556975.809,-63.477,5.859,-61.523,-39.551,0.000
1737556975.813,-9.277,13.184,-50.293,-3.418,0.000
1737556975.817,53.711,23.438,-52.246,50.293,0.000
1737556975.821,92.285,20.996,-50.293,83.984,0.000
1737556975.825,14.648,12.207,-50.293,41.992,0.000
1737556975.829,-51.758,10.742,-54.199,-30.762,0.000
1737556975.833,-30.762,14.160,-52.734,-44.434,0.000
1737556975.836,49.805,15.137,-43.945,19.043,0.000
1737556975.840,98.633,13.672,-33.203,68.359,0.000
1737556975.844,15.137,15.137,-41.504,33.691,0.000
1737556975.848,-97.168,12.695,-64.453,-28.809,0.000
1737556975.852,-66.895,13.672,-69.824,-38.086,0.000
1737556975.856,39.062,15.625,-55.176,23.438,0.000
1737556975.860,97.656,19.043,-41.504,81.543,0.000
1737556975.864,50.293,14.648,-42.480,41.504,0.000
1737556975.868,-50.293,11.230,-61.035,-18.555,0.000
1737556975.872,-69.824,11.719,-69.336,-26.855,0.000
1737556975.876,48.828,15.625,-60.547,23.438,0.000
1737556975.879,102.539,20.508,-43.945,74.219,0.000
1737556975.883,22.461,14.160,-31.250,38.574,0.000
1737556975.887,-39.062,9.766,-36.133,-34.180,0.000
1737556975.887,-39.062,9.766,-36.133,-34.180,0.000
1737556975.891,-49.316,12.207,-45.898,-40.527,0.000
1737556975.895,3.906,15.137,-40.039,12.695,0.000
1737556975.899,86.426,20.996,-37.109,82.520,0.000
1737556975.903,59.570,19.043,-41.992,75.684,0.000
1737556975.907,-52.734,6.836,-43.457,-12.207,0.000
1737556975.911,-57.129,9.277,-50.781,-34.668,0.000
1737556975.915,22.461,16.602,-46.875,30.762,0.000
1737556975.919,93.750,11.719,-33.203,104.492,0.000
1737556975.922,90.332,6.836,-26.855,94.238,0.000
1737556975.926,-10.742,10.254,-27.832,2.441,0.000
1737556975.930,-63.965,18.555,-49.316,-31.738,0.000
1737556975.934,-9.277,19.043,-55.664,16.602,0.000
1737556975.938,47.852,16.113,-44.922,69.336,0.000
1737556975.942,64.453,11.719,-34.180,71.777,0.000
1737556975.946,-1.953,4.883,-29.297,1.953,0.000
1737556975.950,-74.707,1.953,-27.344,-20.020,0.000
1737556975.954,-3.418,6.836,-33.203,20.020,0.000
1737556975.958,94.238,19.531,-37.598,60.547,0.000
1737556975.962,94.238,19.043,-33.203,72.266,0.000
1737556975.965,8.301,7.324,-36.133,-5.371,0.000
1737556975.969,-62.988,1.465,-30.273,-46.387,0.000
1737556975.973,-32.715,1.465,-24.902,15.625,0.000
1737556975.977,59.570,4.395,-25.879,55.176,0.000
1737556975.981,54.199,3.418,-26.367,52.246,0.000
1737556975.985,0.977,2.930,-37.598,2.441,0.000
1737556975.989,-64.453,4.883,-48.828,-37.109,0.000
1737556975.993,-87.891,1.465,-47.363,-28.320,0.000
1737556975.997,22.461,9.766,-41.016,53.711,0.000
1737556976.001,101.562,20.996,-47.363,100.586,0.000
1737556976.004,45.410,12.695,-52.246,29.785,0.000
1737556976.008,-49.805,2.930,-39.551,-13.184,0.000
1737556976.012,-54.199,10.254,-21.973,-4.395,0.000
1737556976.016,33.691,10.254,-20.020,34.668,0.000
1737556976.020,70.312,6.348,-35.645,83.496,0.000
1737556976.024,5.859,8.301,-45.898,43.945,0.000
1737556976.028,-60.059,5.371,-37.598,-24.414,0.000
1737556976.028,-60.059,5.371,-37.598,-24.414,0.000
1737556976.032,-51.270,9.277,-37.109,-20.996,0.000
1737556976.036,34.668,14.160,-48.340,37.109,0.000
1737556976.040,86.914,16.602,-38.574,76.172,0.000
1737556976.044,67.383,16.113,-23.926,60.059,0.000
1737556976.047,-11.719,14.648,-30.273,3.418,0.000
1737556976.051,-58.594,13.672,-44.922,-27.344,0.000
1737556976.055,2.930,16.602,-34.180,24.902,0.000
1737556976.059,101.074,21.973,-36.621,65.430,0.000
1737556976.063,69.824,16.113,-49.805,52.246,0.000
1737556976.067,-54.688,12.695,-49.316,-2.930,0.000
1737556976.071,-64.453,18.555,-49.805,-21.484,0.000
1737556976.075,28.809,22.461,-39.062,20.508,0.000
1737556976.079,106.934,19.531,-28.809,65.918,0.000
1737556976.083,73.730,10.742,-26.855,60.547,0.000
1737556976.087,-29.785,10.742,-38.574,1.465,0.000
1737556976.090,-77.637,12.207,-48.828,-24.414,0.000
1737556976.094,-18.555,11.230,-44.434,10.742,0.000
1737556976.098,91.309,16.113,-41.016,56.641,0.000
1737556976.102,104.004,13.672,-43.945,59.570,0.000
1737556976.106,-54.199,5.371,-51.758,8.789,0.000
1737556976.110,-128.418,0.977,-52.734,-34.180,0.000
1737556976.114,-29.297,-1.465,-49.805,-26.855,0.000
1737556976.118,84.473,3.418,-41.992,41.504,0.000
1737556976.122,74.707,6.348,-37.598,58.594,0.000
1737556976.126,0.000,-1.953,-55.664,-4.883,0.000
1737556976.130,0.000,0.000,-74.707,-18.066,0.000
1737556976.133,0.000,5.371,-59.570,1.953,0.000
1737556976.137,0.000,3.906,-30.273,20.996,0.000
1737556976.141,0.000,-1.953,-20.020,37.109,0.000
1737556976.145,0.000,-3.418,-21.973,4.883,0.000
1737556976.149,0.000,-1.953,-33.691,-29.297,0.000
1737556976.153,0.000,-10.742,-48.828,-11.230,0.000
1737556976.157,0.000,-0.977,-47.852,36.621,0.000
1737556976.161,0.000,11.230,-39.551,55.664,0.000
1737556976.165,0.000,3.906,-35.645,16.113,0.000
1737556976.169,0.000,0.000,-37.598,-21.973,0.000
1737556976.169,0.000,0.000,-37.598,-21.973,0.000
1737556976.172,-25.391,9.766,-40.527,-9.277,0.000
1737556976.176,56.152,10.742,-41.992,40.527,0.000
1737556976.180,84.961,14.160,-41.016,70.801,0.000
1737556976.184,4.883,18.066,-31.738,23.438,0.000
1737556976.188,-74.219,5.371,-35.156,-40.527,0.000
1737556976.192,-76.172,2.930,-41.504,-41.992,0.000
1737556976.196,12.695,5.371,-34.668,39.551,0.000
1737556976.200,78.125,4.395,-28.320,104.004,0.000
1737556976.204,27.832,4.395,-33.203,67.871,0.000
1737556976.208,-43.457,-0.488,-38.086,-18.066,0.000
1737556976.211,-44.922,4.395,-31.250,-46.875,0.000
1737556976.215,8.301,11.230,-27.832,20.508,0.000
1737556976.219,49.316,6.348,-26.855,76.172,0.000
1737556976.223,28.320,3.906,-28.320,60.547,0.000
1737556976.227,-62.500,0.977,-40.527,-4.883,0.000
1737556976.231,-99.121,0.488,-42.480,-40.527,0.000
1737556976.235,-1.953,4.883,-24.414,3.418,0.000
1737556976.239,92.285,9.277,-27.344,67.383,0.000
1737556976.243,67.871,8.301,-40.527,64.453,0.000
1737556976.247,-40.039,-2.441,-39.062,-11.230,0.000
1737556976.251,-74.707,-2.441,-34.668,-41.504,0.000
1737556976.254,-0.977,-0.977,-29.785,-7.812,0.000
1737556976.258,29.297,-1.465,-25.391,60.059,0.000
1737556976.262,44.922,2.441,-31.250,67.871,0.000
1737556976.266,-15.625,-1.953,-45.898,-8.789,0.000
1737556976.270,-87.402,-4.883,-45.898,-44.922,0.000
1737556976.274,-12.695,3.906,-39.062,-6.836,0.000
1737556976.278,83.008,7.324,-37.598,62.988,0.000
1737556976.282,87.402,7.812,-27.832,73.730,0.000
1737556976.286,-17.578,2.930,-31.250,7.812,0.000
1737556976.290,-87.402,0.488,-48.828,-32.227,0.000
1737556976.293,-0.488,8.301,-45.898,6.836,0.000
1737556976.297,85.449,7.812,-25.391,45.898,0.000
1737556976.301,41.992,6.348,-17.090,51.758,0.000
1737556976.305,-9.766,12.207,-18.555,11.230,0.000
1737556976.309,-71.289,11.230,-31.738,-43.457,0.000
1737556976.309,-71.289,11.230,-31.738,-43.457,0.000
1737556976.313,-57.617,10.742,-47.363,-11.719,0.000
1737556976.317,63.477,15.625,-38.574,62.012,0.000
1737556976.321,93.750,13.184,-31.738,65.918,0.000
1737556976.325,10.742,6.836,-38.574,6.836,0.000
1737556976.329,-65.918,2.930,-39.062,-39.062,0.000
1737556976.333,-41.504,1.953,-34.668,-31.738,0.000
1737556976.336,70.312,11.230,-33.691,28.809,0.000
1737556976.340,116.211,12.207,-34.668,67.383,0.000
1737556976.344,3.906,3.906,-28.320,23.438,0.000
1737556976.348,-104.980,4.395,-28.320,-31.738,0.000
1737556976.352,-51.758,7.324,-30.762,-26.855,0.000
1737556976.356,46.875,14.160,-34.668,34.180,0.000
1737556976.360,95.215,15.137,-41.016,70.801,0.000
1737556976.364,47.852,0.000,-45.410,35.156,0.000
1737556976.368,-47.852,-5.371,-43.945,-35.645,0.000
1737556976.372,-50.293,2.441,-35.645,-45.898,0.000
1737556976.376,45.898,15.137,-32.227,26.855,0.000
1737556976.379,92.773,20.508,-30.762,82.031,0.000
1737556976.383,23.438,15.137,-29.297,27.832,0.000
1737556976.387,-60.547,12.207,-34.668,-48.340,0.000
1737556976.391,-74.707,4.395,-40.527,-65.430,0.000
1737556976.395,22.949,3.906,-36.133,-1.953,0.000
1737556976.399,111.328,10.254,-30.273,61.523,0.000
1737556976.403,56.641,9.277,-34.180,39.062,0.000
1737556976.407,-65.918,6.836,-36.621,-45.410,0.000
1737556976.411,-86.426,7.812,-36.133,-75.195,0.000
1737556976.415,-16.113,9.277,-43.457,-11.230,0.000
1737556976.419,57.129,10.742,-52.246,47.852,0.000
1737556976.422,56.152,10.254,-44.434,27.344,0.000
1737556976.426,-47.363,-1.953,-30.273,-35.156,0.000
1737556976.430,-83.496,-8.301,-31.250,-46.387,0.000
1737556976.434,-15.625,-2.441,-36.621,-5.859,0.000
1737556976.438,46.387,5.859,-31.738,54.688,0.000
1737556976.442,33.203,9.277,-29.785,56.152,0.000
1737556976.446,-27.832,2.930,-33.203,-13.184,0.000
1737556976.450,-61.035,-0.488,-36.133,-52.734,0.000
1737556976.450,-61.035,-0.488,-36.133,-52.734,0.000
1737556976.454,-42.480,4.883,-37.598,-25.391,0.000
1737556976.458,25.391,7.324,-1.465,23.926,0.000
1737556976.462,68.359,11.719,26.855,56.152,0.000
1737556976.465,-16.113,19.531,19.531,2.930,0.000
1737556976.469,-90.820,26.367,53.711,-47.363,0.000
1737556976.473,-28.809,49.805,67.383,-14.160,0.000
1737556976.477,30.762,31.250,103.027,14.160,0.000
1737556976.481,37.598,93.750,102.051,44.922,0.000
1737556976.485,-65.918,168.945,-32.227,1.953,0.000
1737556976.489,-210.938,46.875,-89.844,-107.422,0.000
1737556976.493,-229.980,-20.996,-22.461,-136.719,0.000
1737556976.497,-208.008,30.762,37.598,-123.535,0.000
1737556976.501,-200.684,95.215,176.270,-156.250,0.000
1737556976.504,-221.191,231.445,272.461,-164.551,0.000
1737556976.508,-280.273,326.660,214.355,-192.871,0.000
1737556976.512,-302.246,394.043,295.898,-242.188,0.000
1737556976.516,-262.695,509.277,514.648,-213.379,0.000
1737556976.520,-212.891,620.117,725.586,-190.430,0.000
1737556976.524,-248.535,687.500,873.047,-246.582,0.000
1737556976.528,-309.570,729.004,951.172,-302.734,0.000
1737556976.532,-340.820,754.395,970.703,-303.711,0.000
1737556976.536,-263.184,766.113,969.238,-262.695,0.000
1737556976.540,-160.645,759.277,970.703,-223.633,0.000
1737556976.543,-197.266,741.699,970.703,-260.742,0.000
1737556976.547,-260.254,715.820,970.703,-326.660,0.000
1737556976.551,-256.348,688.965,970.703,-324.707,0.000
1737556976.555,-147.949,663.574,971.191,-246.094,0.000
1737556976.559,-41.504,635.742,968.750,-179.199,0.000
1737556976.563,-88.867,598.145,970.703,-216.309,0.000
1737556976.567,-189.941,559.570,964.844,-257.812,0.000
1737556976.571,-164.062,527.832,888.672,-250.977,0.000
1737556976.575,-53.223,491.211,784.180,-180.664,0.000
1737556976.579,57.617,469.238,691.406,-62.988,0.000
1737556976.583,57.617,440.918,587.891,-41.016,0.000
1737556976.586,-54.199,390.137,526.367,-105.957,0.000
1737556976.590,-78.613,352.539,489.746,-111.816,0.000
1737556976.590,-78.613,352.539,489.746,-111.816,0.000
1737556976.594,10.254,327.148,411.133,-60.547,0.000
1737556976.598,113.770,297.852,343.750,19.043,0.000
1737556976.602,104.492,266.602,264.648,64.941,0.000
1737556976.606,5.859,228.027,169.434,-10.254,0.000
1737556976.610,-18.066,190.430,97.656,-33.691,0.000
1737556976.614,58.594,161.133,72.266,32.715,0.000
1737556976.618,154.297,133.301,41.016,77.637,0.000
1737556976.622,139.648,113.770,-5.371,95.703,0.000
1737556976.626,76.660,96.191,-36.133,90.820,0.000
1737556976.629,37.109,70.312,-105.957,46.387,0.000
1737556976.633,50.781,56.152,-166.016,37.109,0.000
1737556976.637,127.441,42.480,-177.246,107.422,0.000
1737556976.641,163.574,20.508,-197.754,137.207,0.000
1737556976.645,104.004,1.465,-215.332,85.938,0.000
1737556976.649,34.668,-9.277,-219.238,51.758,0.000
1737556976.653,58.105,-5.859,-233.887,80.566,0.000
1737556976.657,153.320,-10.254,-262.695,141.602,0.000
1737556976.661,194.824,-22.949,-313.477,169.922,0.000
1737556976.665,96.680,-39.062,-313.477,111.328,0.000
1737556976.668,11.230,-55.664,-255.859,37.109,0.000
1737556976.672,28.320,-56.152,-254.883,37.598,0.000
1737556976.676,127.930,-50.781,-289.551,111.816,0.000
1737556976.680,187.012,-60.059,-277.344,163.574,0.000
1737556976.684,106.934,-72.266,-253.906,105.957,0.000
1737556976.688,2.930,-84.473,-269.043,40.527,0.000
1737556976.692,17.090,-94.238,-290.039,57.129,0.000
1737556976.696,123.535,-83.984,-290.039,112.793,0.000
1737556976.700,165.527,-73.242,-294.434,152.344,0.000
1737556976.704,91.309,-72.754,-308.594,114.258,0.000
1737556976.708,1.465,-71.777,-308.594,63.965,0.000
1737556976.711,3.418,-76.172,-279.785,50.293,0.000
1737556976.715,100.098,-81.055,-242.676,80.078,0.000
1737556976.719,155.762,-71.289,-259.277,140.137,0.000
1737556976.723,119.629,-69.824,-273.438,117.676,0.000
1737556976.727,25.391,-79.590,-256.836,33.203,0.000
1737556976.731,-23.438,-79.102,-258.301,14.648,0.000
1737556976.731,-23.438,-79.102,-258.301,14.648,0.000
1737556976.735,45.410,-73.242,-251.953,78.125,0.000
1737556976.739,130.371,-65.430,-244.629,124.023,0.000
1737556976.743,80.078,-68.848,-221.680,88.867,0.000
1737556976.747,-13.184,-71.289,-206.543,30.762,0.000
1737556976.751,-28.320,-73.730,-222.168,11.230,0.000
1737556976.754,20.020,-70.801,-220.215,43.945,0.000
1737556976.758,119.629,-64.453,-209.961,121.582,0.000
1737556976.762,100.586,-61.523,-202.148,99.609,0.000
1737556976.766,-13.184,-59.082,-203.125,-4.883,0.000
1737556976.770,-64.941,-65.430,-207.520,-47.852,0.000
1737556976.774,-2.441,-57.129,-193.848,13.672,0.000
1737556976.778,109.375,-42.480,-186.523,97.656,0.000
1737556976.782,106.445,-41.992,-192.871,111.816,0.000
1737556976.786,-5.371,-46.875,-187.500,29.785,0.000
1737556976.790,-73.730,-56.641,-177.246,-25.879,0.000
1737556976.793,-21.484,-57.129,-168.457,13.672,0.000
1737556976.797,77.148,-51.758,-156.250,71.777,0.000
1737556976.801,97.656,-45.410,-149.902,90.820,0.000
1737556976.805,1.465,-44.434,-157.227,33.691,0.000
1737556976.809,-70.801,-50.293,-164.062,-13.184,0.000
1737556976.813,-23.926,-52.246,-157.715,0.000,0.000
1737556976.817,56.641,-50.781,-165.039,49.805,0.000
1737556976.821,74.707,-39.062,-177.734,87.402,0.000
1737556976.825,-10.742,-41.016,-172.363,31.250,0.000
1737556976.829,-83.984,-56.152,-150.879,-46.875,0.000
1737556976.833,-45.898,-54.688,-120.605,-20.996,0.000
1737556976.836,64.941,-47.852,-118.164,55.664,0.000
1737556976.840,111.328,-39.062,-116.699,81.055,0.000
1737556976.844,31.250,-39.062,-116.211,52.734,0.000
1737556976.848,-61.035,-50.293,-138.184,-7.812,0.000
1737556976.852,-76.172,-58.105,-135.254,-35.645,0.000
1737556976.856,14.648,-53.223,-107.422,45.410,0.000
1737556976.860,89.355,-42.480,-104.492,111.816,0.000
1737556976.864,31.738,-49.316,-111.816,72.266,0.000
1737556976.868,-68.359,-60.059,-123.047,-5.859,0.000
1737556976.872,-72.754,-62.988,-116.211,-30.762,0.000
1737556976.872,-72.754,-62.988,-116.211,-30.762,0.000
1737556976.876,33.691,-52.246,-94.238,33.203,0.000
1737556976.879,112.793,-40.527,-90.820,93.262,0.000
1737556976.883,70.312,-48.828,-89.355,55.176,0.000
1737556976.887,-29.785,-55.664,-115.234,-10.254,0.000
1737556976.891,-67.871,-50.781,-149.902,-2.930,0.000
1737556976.895,20.996,-49.805,-136.719,25.391,0.000
1737556976.899,87.402,-36.621,-95.215,54.199,0.000
1737556976.903,68.359,-27.832,-73.242,60.059,0.000
1737556976.907,12.207,-34.668,-80.566,1.953,0.000
1737556976.911,-52.734,-43.457,-83.984,-36.621,0.000
1737556976.915,-6.836,-46.387,-81.055,17.578,0.000
1737556976.918,83.008,-41.016,-80.566,88.379,0.000
1737556976.922,62.988,-31.738,-87.402,58.105,0.000
1737556976.926,-40.527,-28.320,-106.445,-5.859,0.000
1737556976.930,-93.262,-32.715,-127.930,-19.531,0.000
1737556976.934,-18.555,-32.227,-104.492,9.277,0.000
1737556976.938,87.402,-28.320,-67.871,56.641,0.000
1737556976.942,95.215,-24.902,-82.520,54.688,0.000
1737556976.946,-44.434,-34.180,-98.633,1.953,0.000
1737556976.950,-125.000,-44.434,-71.777,-25.879,0.000
1737556976.954,-37.598,-33.203,-46.387,-4.883,0.000
1737556976.958,68.848,-23.438,-51.270,35.156,0.000
1737556976.961,82.520,-22.461,-71.289,51.758,0.000
1737556976.965,-1.465,-21.484,-86.914,1.465,0.000
1737556976.969,-78.125,-28.809,-83.496,-43.945,0.000
1737556976.973,-36.133,-33.691,-79.590,-21.973,0.000
1737556976.977,48.828,-23.438,-71.289,33.691,0.000
1737556976.981,46.875,-22.949,-55.176,54.688,0.000
1737556976.985,-35.156,-31.250,-51.758,-5.859,0.000
1737556976.989,-92.285,-30.762,-63.965,-53.711,0.000
1737556976.993,-66.895,-28.809,-71.289,-34.668,0.000
1737556976.997,37.598,-19.531,-82.031,27.832,0.000
1737556977.001,106.934,-13.184,-93.750,60.547,0.000
1737556977.004,7.812,-26.855,-78.613,7.324,0.000
1737556977.008,-88.867,-36.133,-73.242,-45.410,0.000
1737556977.012,-93.262,-31.738,-79.590,-38.574,0.000
1737556977.012,-93.262,-31.738,-79.590,-38.574,0.000
1737556977.016,-1.465,-22.461,-58.594,18.066,0.000
1737556977.020,69.824,-14.648,-51.758,62.988,0.000
1737556977.024,19.043,-23.926,-64.941,13.672,0.000
1737556977.028,-71.289,-30.762,-71.289,-51.270,0.000
1737556977.032,-83.008,-26.367,-64.941,-42.969,0.000
1737556977.036,42.969,-14.648,-45.410,29.297,0.000
1737556977.040,95.703,-7.324,-55.664,71.777,0.000
1737556977.043,28.809,-15.625,-66.406,23.438,0.000
1737556977.047,-55.176,-19.043,-58.105,-31.250,0.000
1737556977.051,-67.871,-17.090,-62.988,-42.969,0.000
1737556977.055,31.250,-13.184,-67.383,20.020,0.000
1737556977.059,104.004,-3.906,-58.105,96.191,0.000
1737556977.063,0.000,-9.277,-45.410,0.000,0.000
1737556977.067,0.000,-20.508,-53.711,0.000,0.000
1737556977.071,0.000,-18.555,-48.828,0.000,0.000
1737556977.075,0.000,-13.672,-41.504,0.000,0.000
1737556977.079,0.000,-6.836,-61.035,0.000,0.000
1737556977.083,0.000,5.371,-78.125,0.000,0.000
1737556977.086,0.000,-3.906,-71.777,0.000,0.000
1737556977.090,0.000,-16.602,-41.016,0.000,0.000
1737556977.094,0.000,-7.812,-23.438,0.000,0.000
1737556977.098,0.000,1.953,-30.273,0.000,0.000
1737556977.102,0.000,-3.418,-45.898,0.000,0.000
1737556977.106,0.000,-8.301,-59.082,0.000,0.000
1737556977.110,-86.914,-8.789,-63.477,-23.926,0.000
1737556977.114,-43.457,-12.207,-52.734,-27.832,0.000
1737556977.118,50.781,-4.395,-31.250,51.270,0.000
1737556977.122,82.031,4.883,-32.227,63.965,0.000
1737556977.126,-4.395,2.441,-40.527,-7.812,0.000
1737556977.129,-50.293,-4.395,-42.480,-42.969,0.000
1737556977.133,-5.859,-9.277,-46.875,1.953,0.000
1737556977.137,87.402,-2.441,-54.688,86.426,0.000
1737556977.141,68.359,-5.371,-64.453,97.656,0.000
1737556977.145,-31.738,-16.602,-63.477,-9.277,0.000
1737556977.149,-92.773,-11.719,-56.641,-83.984,0.000
1737556977.153,-58.594,-4.395,-45.898,-40.527,0.000
1737556977.153,-58.594,-4.395,-45.898,-40.527,0.000
1737556977.157,56.152,-5.371,0.000,37.598,0.000
1737556977.161,79.102,-11.230,0.000,71.289,0.000
1737556977.165,6.836,6.348,0.000,36.133,0.000
1737556977.169,-76.172,12.695,0.000,-22.949,0.000
1737556977.172,-76.660,-6.836,0.000,-36.133,0.000
1737556977.176,23.438,-8.789,0.000,31.738,0.000
1737556977.180,56.641,1.953,0.000,51.758,0.000
1737556977.184,-43.457,55.176,0.000,-23.926,0.000
1737556977.188,-142.578,62.988,0.000,-81.543,0.000
1737556977.192,-184.570,-0.977,0.000,-125.000,0.000
1737556977.196,-164.062,8.301,0.000,-109.863,0.000
1737556977.200,-163.086,32.227,0.000,-83.984,0.000
1737556977.204,-209.473,45.898,30.762,-137.207,0.000
1737556977.208,-302.734,61.523,22.461,-222.168,0.000
1737556977.211,-351.074,67.383,13.672,-231.445,0.000
1737556977.215,-264.160,88.379,48.340,-174.316,0.000
1737556977.219,-164.551,114.258,80.566,-136.230,0.000
1737556977.223,-198.730,135.254,98.633,-168.945,0.000
1737556977.227,-299.805,145.020,126.953,-250.000,0.000
1737556977.231,-299.316,161.621,166.016,-279.297,0.000
1737556977.235,-212.891,186.523,179.688,-235.840,0.000
1737556977.239,-170.410,198.730,190.430,-193.848,0.000
1737556977.243,-168.945,207.031,199.219,-195.312,0.000
1737556977.247,-213.379,208.984,191.895,-256.836,0.000
1737556977.251,-216.797,206.543,0.000,-280.762,0.000
1737556977.254,-133.789,199.707,0.000,-208.008,0.000
1737556977.258,-37.109,186.035,0.000,-127.930,0.000
1737556977.262,-17.090,173.340,0.000,-106.445,0.000
1737556977.266,-86.914,159.180,0.000,-147.461,0.000
1737556977.270,-115.234,137.207,0.000,-171.875,0.000
1737556977.274,-61.523,110.840,0.000,-133.301,0.000
1737556977.278,45.410,95.703,0.000,-20.996,0.000
1737556977.282,82.031,89.844,0.000,11.719,0.000
1737556977.286,5.371,73.242,0.000,-57.617,0.000
1737556977.290,-35.156,49.316,0.000,-83.984,0.000
1737556977.293,5.371,34.668,0.000,-31.738,0.000
1737556977.293,5.371,34.668,0.000,-31.738,0.000
1737556977.297,95.703,27.344,-34.668,81.055,0.000
1737556977.301,93.262,9.277,-74.219,95.215,0.000
1737556977.305,18.555,-13.184,-82.031,3.418,0.000
1737556977.309,7.812,-16.113,-62.988,-13.672,0.000
1737556977.313,47.852,-8.301,-105.957,60.547,0.000
1737556977.317,140.137,-9.277,-147.461,115.723,0.000
1737556977.321,167.969,-22.461,-125.000,108.398,0.000
1737556977.325,95.703,-35.645,-86.426,67.871,0.000
1737556977.329,21.484,-43.457,-79.102,16.602,0.000
1737556977.333,18.555,-42.480,-102.539,21.484,0.000
1737556977.336,108.398,-41.016,-103.027,92.773,0.000
1737556977.340,155.762,-45.410,-94.727,140.137,0.000
1737556977.344,102.539,-51.758,-118.652,83.984,0.000
1737556977.348,31.250,-53.711,-144.531,16.602,0.000
1737556977.352,28.809,-55.176,-143.555,20.020,0.000
1737556977.356,123.047,-55.664,-133.789,94.238,0.000
1737556977.360,180.176,-64.453,-125.488,152.344,0.000
1737556977.364,109.375,-71.777,-121.094,112.305,0.000
1737556977.368,4.883,-72.266,-115.234,37.109,0.000
1737556977.372,-4.883,-72.754,-119.141,15.137,0.000
1737556977.375,100.098,-65.430,-116.211,72.754,0.000
1737556977.379,139.648,-63.965,-104.980,124.512,0.000
1737556977.383,77.637,-68.848,-118.652,93.750,0.000
1737556977.387,1.465,-78.125,-134.766,20.996,0.000
1737556977.391,-15.625,-74.219,-143.555,10.254,0.000
1737556977.395,79.590,-66.895,-136.230,64.453,0.000
1737556977.399,152.344,-62.012,-120.117,120.117,0.000
1737556977.403,90.820,-59.570,-119.629,84.473,0.000
1737556977.407,-7.812,-63.477,-124.023,-5.371,0.000
1737556977.411,-22.949,-62.012,-110.352,-10.742,0.000
1737556977.415,42.480,-52.734,-110.840,62.988,0.000
1737556977.418,121.582,-43.457,-128.418,120.605,0.000
1737556977.422,124.512,-52.246,-109.375,98.633,0.000
1737556977.426,15.137,-65.430,-101.074,17.578,0.000
1737556977.430,-43.457,-57.617,-104.492,-6.836,0.000
1737556977.434,39.062,-48.828,-82.031,43.945,0.000
1737556977.434,39.062,-48.828,-82.031,43.945,0.000
1737556977.438,0.000,-45.898,0.000,88.379,0.000
1737556977.442,0.000,-41.992,0.000,70.312,0.000
1737556977.446,0.000,-41.992,0.000,1.953,0.000
1737556977.450,0.000,-52.246,0.000,-25.391,0.000
1737556977.454,0.000,-41.992,0.000,9.277,0.000
1737556977.458,0.000,-34.668,0.000,55.664,0.000
1737556977.462,0.000,-42.480,0.000,75.684,0.000
1737556977.465,0.000,-40.039,0.000,16.602,0.000
1737556977.469,0.000,-44.434,0.000,-25.879,0.000
1737556977.473,0.000,-45.410,0.000,2.930,0.000
1737556977.477,0.000,-39.062,0.000,44.434,0.000
1737556977.481,0.000,-37.109,0.000,59.570,0.000
1737556977.485,135.742,-41.504,-64.941,0.000,0.000
1737556977.489,111.816,-47.852,-76.172,0.000,0.000
1737556977.493,14.160,-40.527,-105.469,0.000,0.000
1737556977.497,-44.922,-31.738,-132.324,0.000,0.000
1737556977.501,1.953,-33.691,-106.445,0.000,0.000
1737556977.505,80.566,-23.438,-70.801,0.000,0.000
1737556977.508,84.473,-20.508,-74.219,0.000,0.000
1737556977.512,4.883,-42.969,-97.656,0.000,0.000
1737556977.516,-25.391,-52.734,-94.727,0.000,0.000
1737556977.520,-9.277,-42.480,-54.199,0.000,0.000
1737556977.524,39.062,-28.809,-44.434,0.000,0.000
1737556977.528,80.566,-29.785,-67.383,0.000,0.000
1737556977.532,-63.965,-30.762,-71.289,-19.043,0.000
1737556977.536,39.551,-21.484,-68.359,75.684,0.000
1737556977.540,100.098,-23.438,-69.824,89.355,0.000
1737556977.544,19.043,-32.227,-68.848,-2.441,0.000
1737556977.548,-80.566,-33.203,-62.988,-54.688,0.000
1737556977.551,-79.102,-30.273,-41.504,-56.641,0.000
1737556977.555,-15.137,-30.762,-25.879,8.789,0.000
1737556977.559,56.641,-27.832,-33.203,56.152,0.000
1737556977.563,41.992,-25.879,-41.992,41.016,0.000
1737556977.567,-51.270,-23.438,-79.102,4.883,0.000
1737556977.571,-66.895,-17.578,-105.469,-1.465,0.000
1737556977.575,9.277,-22.461,-71.289,32.715,0.000
1737556977.575,9.277,-22.461,-71.289,32.715,0.000
1737556977.579,79.102,-27.344,-45.898,77.148,0.000
1737556977.583,39.062,-26.367,-34.180,52.246,0.000
1737556977.587,-54.199,-30.273,-34.180,-27.344,0.000
1737556977.590,-77.148,-31.738,-38.086,-57.129,0.000
1737556977.594,5.859,-19.043,-29.297,-8.301,0.000
1737556977.598,86.426,-11.230,-36.621,45.898,0.000
1737556977.602,68.848,-9.277,-57.129,51.270,0.000
1737556977.606,-14.160,-20.020,-56.152,-6.348,0.000
1737556977.610,-68.359,-28.320,-52.246,-25.879,0.000
1737556977.614,-44.434,-20.996,-72.266,11.230,0.000
1737556977.618,51.758,-13.672,-76.172,54.199,0.000
1737556977.622,81.055,0.488,-43.457,68.848,0.000
1737556977.626,-0.488,1.465,-10.742,4.395,0.000
1737556977.630,-61.523,-15.625,-13.184,-54.199,0.000
1737556977.633,-20.508,-17.090,-26.855,-22.461,0.000
1737556977.637,55.176,-17.090,-39.551,40.527,0.000
1737556977.641,65.430,-18.555,-35.156,60.059,0.000
1737556977.645,4.395,-11.230,-38.574,-4.883,0.000
1737556977.649,-72.754,-7.812,-77.148,-43.457,0.000
1737556977.653,-43.945,-1.465,-74.219,12.695,0.000
1737556977.657,40.527,1.465,-34.180,60.547,0.000
1737556977.661,48.828,-1.465,-20.020,46.875,0.000
1737556977.665,-21.484,-2.441,-28.809,5.371,0.000
1737556977.669,-78.613,-3.418,-33.691,-28.809,0.000
1737556977.672,-57.129,-1.465,-29.785,-14.648,0.000
1737556977.676,20.020,1.953,-31.738,16.602,0.000
1737556977.680,41.016,-4.395,-33.203,38.086,0.000
1737556977.684,-10.254,-8.789,-50.293,23.438,0.000
1737556977.688,-49.316,-9.277,-60.059,-30.762,0.000
1737556977.692,-67.871,-9.277,-39.062,-34.180,0.000
1737556977.696,3.418,-7.812,-33.203,27.344,0.000
1737556977.700,72.754,-4.395,-56.641,84.473,0.000
1737556977.704,10.742,-16.113,-57.129,27.832,0.000
1737556977.708,-91.309,-35.645,-35.645,-69.824,0.000
1737556977.712,-85.449,-27.344,-24.902,-62.500,0.000
1737556977.715,-6.836,-10.254,-10.254,11.230,0.000
1737556977.715,-6.836,-10.254,-10.254,11.230,0.000
1737556977.719,47.363,-5.371,-9.766,57.617,0.000
1737556977.723,24.902,-7.324,-27.832,43.457,0.000
1737556977.727,-63.477,-9.766,-38.086,-11.719,0.000
1737556977.731,-87.402,-14.160,-33.691,-39.551,0.000
1737556977.735,27.832,-11.230,-28.320,11.719,0.000
1737556977.739,93.750,-3.418,-42.480,69.824,0.000
1737556977.743,20.020,-4.883,-59.570,47.852,0.000
1737556977.747,-61.523,-8.789,-34.180,-28.809,0.000
1737556977.751,-66.895,-10.254,-14.648,-62.012,0.000
1737556977.754,19.531,-0.488,-29.297,0.000,0.000
1737556977.758,88.379,1.953,-36.621,68.359,0.000
1737556977.762,53.223,-8.789,-42.480,53.223,0.000
1737556977.766,0.000,-12.695,-26.367,-21.973,0.000
1737556977.770,0.000,-8.301,-19.043,-41.016,0.000
1737556977.774,0.000,9.277,-24.902,8.789,0.000
1737556977.778,0.000,11.719,-22.461,52.734,0.000
1737556977.782,0.000,1.465,-25.879,42.969,0.000
1737556977.786,0.000,0.977,-29.297,-23.926,0.000
1737556977.790,0.000,-1.465,-37.598,-55.664,0.000
1737556977.794,0.000,-5.371,-66.895,-13.184,0.000
1737556977.797,0.000,3.418,-64.941,36.133,0.000
1737556977.801,0.000,2.441,-51.758,46.387,0.000
1737556977.805,0.000,-4.883,-58.594,-4.883,0.000
1737556977.809,0.000,-7.324,-39.551,-47.852,0.000
1737556977.813,-79.102,-7.812,-31.738,-33.691,0.000
1737556977.817,64.453,-0.488,-22.949,18.066,0.000
1737556977.821,80.078,2.930,-23.926,51.270,0.000
1737556977.825,-38.086,-2.441,-33.691,-6.836,0.000
1737556977.829,-84.473,-9.277,-30.273,-61.035,0.000
1737556977.833,-42.480,-8.789,-27.344,-26.367,0.000
1737556977.837,23.438,-13.184,-33.203,27.344,0.000
1737556977.840,61.035,-14.160,-47.852,54.199,0.000
1737556977.844,-5.859,-7.812,-54.688,10.742,0.000
1737556977.848,-91.797,-12.695,-71.289,-35.156,0.000
1737556977.852,-73.242,-22.949,-68.359,0.000,0.000
1737556977.856,30.762,-19.531,-43.945,33.691,0.000
1737556977.856,30.762,-19.531,-43.945,33.691,0.000
1737556977.860,76.172,-14.648,-29.785,28.320,0.000
1737556977.864,-4.883,-28.320,-21.484,-9.766,0.000
1737556977.868,-83.984,-34.668,-20.020,-49.805,0.000
1737556977.872,-81.543,-33.203,11.719,-51.270,0.000
1737556977.876,17.578,-25.391,8.301,22.461,0.000
1737556977.879,80.566,-9.766,2.441,79.590,0.000
1737556977.883,14.648,2.441,20.020,51.270,0.000
1737556977.887,-99.609,-22.461,8.301,-27.344,0.000
1737556977.891,-122.559,-52.246,48.828,-73.730,0.000
1737556977.895,-26.855,-10.254,100.586,-31.738,0.000
1737556977.899,35.645,31.738,64.941,14.648,0.000
1737556977.903,-61.523,8.301,-35.156,-33.691,0.000
1737556977.907,-209.473,-19.531,-36.133,-149.902,0.000
1737556977.911,-271.484,-12.695,-6.348,-196.289,0.000
1737556977.915,-225.098,17.578,9.766,-156.250,0.000
1737556977.919,-147.949,32.227,21.973,-119.141,0.000
1737556977.922,-177.246,35.156,24.414,-145.508,0.000
1737556977.926,-267.578,53.711,27.344,-201.660,0.000
1737556977.930,-300.781,65.918,10.254,-230.957,0.000
1737556977.934,-235.352,71.777,28.320,-194.824,0.000
1737556977.938,-160.645,81.543,54.199,-155.273,0.000
1737556977.942,-165.039,82.031,51.270,-173.828,0.000
1737556977.946,-250.488,77.148,32.227,-245.605,0.000
1737556977.950,-257.324,74.707,40.039,-267.578,0.000
1737556977.954,-160.156,70.801,66.895,-178.711,0.000
1737556977.958,-68.359,64.941,32.227,-93.750,0.000
1737556977.962,-38.086,52.734,-20.020,-76.172,0.000
1737556977.965,-94.238,37.109,6.348,-129.395,0.000
1737556977.969,-125.000,30.762,43.457,-128.418,0.000
1737556977.973,-76.660,29.785,50.293,-69.336,0.000
1737556977.977,15.137,23.438,41.504,-7.324,0.000
1737556977.981,81.543,15.625,-18.555,44.434,0.000
1737556977.985,18.066,-3.906,-33.691,5.859,0.000
1737556977.989,-57.129,-14.648,-47.363,-59.570,0.000
1737556977.993,10.254,-8.301,-69.824,7.324,0.000
1737556977.997,122.070,-15.625,-12.207,100.586,0.000
1737556977.997,122.070,-15.625,-12.207,100.586,0.000
1737556978.001,169.434,-24.902,18.066,83.984,0.000
1737556978.005,97.168,-24.414,-17.090,53.223,0.000
1737556978.008,15.137,-32.715,-38.574,38.086,0.000
1737556978.012,42.969,-35.645,-31.250,47.852,0.000
1737556978.016,136.230,-26.367,-46.875,122.559,0.000
1737556978.020,182.129,-20.508,-57.617,170.410,0.000
1737556978.024,126.465,-22.949,-75.684,118.652,0.000
1737556978.028,47.852,-32.227,-94.238,72.266,0.000
1737556978.032,44.434,-27.344,-96.680,87.891,0.000
1737556978.036,128.418,-21.973,-100.586,148.926,0.000
1737556978.040,187.500,-23.926,-75.684,190.430,0.000
1737556978.044,142.090,-25.879,-46.387,145.020,0.000
1737556978.047,47.363,-29.297,-47.852,76.660,0.000
1737556978.051,40.039,-28.320,-56.152,60.059,0.000
1737556978.055,123.535,-30.273,-55.664,108.887,0.000
1737556978.059,176.270,-37.109,-54.688,159.668,0.000
1737556978.063,139.648,-43.457,-68.848,133.301,0.000
1737556978.067,43.457,-48.828,-75.195,68.848,0.000
1737556978.071,4.395,-51.758,-74.219,37.109,0.000
1737556978.075,76.172,-47.363,-62.012,92.285,0.000
1737556978.079,133.301,-41.992,-54.688,164.551,0.000
1737556978.083,103.516,-42.969,-80.078,138.184,0.000
1737556978.086,21.484,-42.969,-91.309,51.270,0.000
1737556978.090,-15.625,-42.480,-62.988,13.672,0.000
1737556978.094,60.059,-34.668,-49.805,71.289,0.000
1737556978.098,158.691,-27.344,-60.059,126.953,0.000
1737556978.102,125.000,-28.809,-53.223,87.891,0.000
1737556978.106,14.648,-39.062,-37.598,4.883,0.000
1737556978.110,-28.320,-40.039,-37.598,-6.836,0.000
1737556978.114,15.137,-28.809,-49.805,55.176,0.000
1737556978.118,94.727,-22.461,-51.758,105.957,0.000
1737556978.122,101.074,-20.508,-49.805,92.285,0.000
1737556978.126,18.555,-23.926,-38.574,37.109,0.000
1737556978.129,-42.969,-30.762,-43.945,-19.043,0.000
1737556978.133,-21.484,-25.879,-53.711,2.930,0.000
1737556978.137,69.336,-13.672,-49.316,78.125,0.000
1737556978.137,69.336,-13.672,-49.316,78.125,0.000
1737556978.141,0.000,-7.812,-47.363,87.891,0.000
1737556978.145,0.000,-21.484,-38.086,29.297,0.000
1737556978.149,0.000,-35.156,-34.668,-25.879,0.000
1737556978.153,0.000,-25.391,-38.574,-25.391,0.000
1737556978.157,0.000,-17.578,-52.246,35.645,0.000
1737556978.161,0.000,-17.090,-51.758,67.871,0.000
1737556978.165,0.000,-16.602,-39.062,22.461,0.000
1737556978.169,0.000,-17.090,-54.199,-38.086,0.000
1737556978.172,0.000,-18.555,-47.852,-35.156,0.000
1737556978.176,0.000,-16.602,-45.898,43.457,0.000
1737556978.180,0.000,-8.789,-47.363,71.777,0.000
1737556978.184,0.000,-9.766,-28.320,4.395,0.000
1737556978.188,-65.918,-20.996,-32.715,-58.105,0.000
1737556978.192,-54.199,-19.043,-36.621,-47.363,0.000
1737556978.196,27.832,-14.160,-28.320,28.320,0.000
1737556978.200,58.105,-10.254,-42.480,75.195,0.000
1737556978.204,16.602,-10.254,-53.711,50.781,0.000
1737556978.208,-66.406,-20.020,-36.133,-7.812,0.000
1737556978.212,-71.289,-21.484,-33.203,-29.785,0.000
1737556978.215,21.973,-10.254,-32.715,17.090,0.000
1737556978.219,83.984,-0.977,-18.555,51.270,0.000
1737556978.223,34.668,-10.254,-35.156,38.574,0.000
1737556978.227,-65.918,-20.508,-44.434,-17.578,0.000
1737556978.231,-63.477,-20.020,-33.203,-39.551,0.000
1737556978.235,20.508,-12.207,-34.668,20.020,0.000
1737556978.239,77.148,-9.277,-22.949,73.242,0.000
1737556978.243,59.570,-16.602,-5.859,51.758,0.000
1737556978.247,-50.293,-20.996,-1.953,-10.742,0.000
1737556978.251,-92.773,-14.648,-18.066,-22.461,0.000
1737556978.255,14.160,-2.930,-37.109,24.902,0.000
1737556978.258,85.449,-4.883,-27.832,59.082,0.000
1737556978.262,52.734,-13.672,-13.672,53.223,0.000
1737556978.266,-29.297,-21.973,-17.090,-2.930,0.000
1737556978.270,-67.383,-27.832,-28.320,-33.691,0.000
1737556978.274,-13.184,-22.461,-27.832,5.859,0.000
1737556978.278,78.613,-16.113,-24.414,44.434,0.000
1737556978.278,78.613,-16.113,-24.414,44.434,0.000
1737556978.282,0.000,-21.484,0.000,33.203,0.000
1737556978.286,0.000,-21.484,0.000,-18.555,0.000
1737556978.290,0.000,-4.395,0.000,-30.762,0.000
1737556978.294,0.000,-3.418,0.000,0.488,0.000
1737556978.297,0.000,-7.812,0.000,48.340,0.000
1737556978.301,0.000,-11.230,0.000,54.199,0.000
1737556978.305,0.000,-20.996,0.000,-7.812,0.000
1737556978.309,0.000,-14.648,0.000,-32.227,0.000
1737556978.313,0.000,-9.277,0.000,-16.602,0.000
1737556978.317,0.000,-11.719,0.000,32.227,0.000
1737556978.321,0.000,-13.184,0.000,50.781,0.000
1737556978.325,0.000,-11.719,0.000,-1.465,0.000
1737556978.329,-64.453,-1.953,-31.738,-45.898,0.000
1737556978.333,-57.617,6.836,-60.059,-33.691,0.000
1737556978.336,23.438,11.230,-62.500,53.711,0.000
1737556978.340,62.012,0.977,-31.250,71.777,0.000
1737556978.344,-6.836,-12.207,-25.391,-21.973,0.000
1737556978.348,-78.125,-9.277,-18.555,-59.570,0.000
1737556978.352,-63.965,-3.906,-9.277,-39.551,0.000
1737556978.356,16.113,-4.395,-16.113,9.766,0.000
1737556978.360,62.012,-8.301,-30.273,46.387,0.000
1737556978.364,9.766,-5.371,-35.156,10.254,0.000
1737556978.368,-67.383,-10.254,-28.809,-32.715,0.000
1737556978.372,-64.941,-11.230,-45.898,-17.578,0.000
1737556978.376,28.320,4.395,-22.461,34.180,0.000
1737556978.379,75.195,4.883,-27.832,54.199,0.000
1737556978.383,-14.160,-7.812,-12.695,32.227,0.000
1737556978.387,-96.191,-14.648,-23.926,-26.367,0.000
1737556978.391,-64.453,-14.648,-38.574,-48.340,0.000
1737556978.395,2.441,-8.301,-22.949,16.113,0.000
1737556978.399,69.336,-2.441,-28.809,73.730,0.000
1737556978.403,50.293,-2.930,-37.598,58.105,0.000
1737556978.407,-63.965,-13.184,-22.949,-12.695,0.000
1737556978.411,-112.793,-12.695,0.000,-67.383,0.000
1737556978.415,-32.227,-2.441,0.977,-12.207,0.000
1737556978.418,86.426,0.000,-33.691,69.336,0.000
1737556978.418,86.426,0.000,-33.691,69.336,0.000
1737556978.422,0.000,-1.465,-49.805,56.641,0.000
1737556978.426,0.000,-8.789,-27.832,-4.395,0.000
1737556978.430,0.000,-17.578,2.441,-39.551,0.000
1737556978.434,0.000,-12.695,-0.488,1.465,0.000
1737556978.438,0.000,-11.230,-6.836,59.082,0.000
1737556978.442,0.000,-11.719,-13.672,56.152,0.000
1737556978.446,0.000,-9.766,-41.992,0.977,0.000
1737556978.450,0.000,-10.254,-53.711,-39.062,0.000
1737556978.454,0.000,-6.348,-26.367,-5.859,0.000
1737556978.458,0.000,-0.977,-1.953,38.086,0.000
1737556978.461,0.000,-0.488,-20.508,30.273,0.000
1737556978.465,0.000,-2.930,-27.344,-6.348,0.000
1737556978.469,-81.055,-8.301,-11.719,-47.363,0.000
1737556978.473,-39.551,-6.836,-28.809,-21.484,0.000
1737556978.477,60.547,1.465,-31.738,58.594,0.000
1737556978.481,74.219,-0.977,-24.902,65.430,0.000
1737556978.485,-18.555,-7.324,-47.363,3.906,0.000
1737556978.489,-76.172,-5.371,-54.688,-36.133,0.000
1737556978.493,-40.527,-5.859,-21.973,-19.531,0.000
1737556978.497,45.410,-0.977,4.883,20.020,0.000
1737556978.501,49.316,18.066,-0.977,29.297,0.000
1737556978.504,-19.043,16.602,6.836,6.836,0.000
1737556978.508,-69.336,11.230,-5.859,-40.527,0.000
1737556978.512,-45.410,19.043,-4.395,-46.387,0.000
1737556978.516,1.465,16.113,9.277,4.883,0.000
1737556978.520,-2.930,10.254,0.977,19.531,0.000
1737556978.524,-70.312,11.230,4.883,-65.430,0.000
1737556978.528,-177.734,9.277,10.254,-150.391,0.000
1737556978.532,-234.375,7.812,11.719,-179.688,0.000
1737556978.536,-130.371,22.949,11.230,-124.023,0.000
1737556978.540,-81.055,29.785,5.859,-110.352,0.000
1737556978.543,-244.141,26.855,17.090,-209.473,0.000
1737556978.547,-338.379,36.621,40.527,-242.676,0.000
1737556978.551,-316.895,38.086,37.598,-254.395,0.000
1737556978.555,-225.586,41.504,34.180,-214.844,0.000
1737556978.559,-139.648,56.641,52.246,-159.668,0.000
1737556978.559,-139.648,56.641,52.246,-159.668,0.000
1737556978.563,-188.965,49.316,49.316,-195.801,0.000
1737556978.567,-262.207,39.551,26.855,-243.164,0.000
1737556978.571,-243.652,38.574,23.926,-213.867,0.000
1737556978.575,-155.273,34.180,38.574,-139.160,0.000
1737556978.579,-62.012,23.438,43.945,-96.680,0.000
1737556978.583,-62.012,10.254,37.109,-97.168,0.000
1737556978.586,-136.230,5.859,1.953,-101.074,0.000
1737556978.590,-130.859,-0.977,-3.906,-80.566,0.000
1737556978.594,-8.789,-5.859,28.320,-27.832,0.000
1737556978.598,51.758,-7.324,34.668,41.992,0.000
1737556978.602,12.695,-15.137,26.855,42.969,0.000
1737556978.606,-27.344,-26.367,8.789,0.000,0.000
1737556978.610,-10.254,-30.762,-25.879,-1.953,0.000
1737556978.614,64.941,-26.855,-54.199,60.059,0.000
1737556978.618,149.902,-23.926,-52.734,130.859,0.000
1737556978.622,123.535,-33.203,-36.621,141.113,0.000
1737556978.626,42.969,-36.621,-39.062,87.891,0.000
1737556978.629,37.109,-40.527,-32.715,59.082,0.000
1737556978.633,90.820,-43.457,-13.184,61.035,0.000
1737556978.637,163.086,-41.016,-39.062,128.418,0.000
1737556978.641,144.043,-41.992,-76.660,174.805,0.000
1737556978.645,48.340,-41.992,-53.711,90.332,0.000
1737556978.649,14.648,-40.527,-43.457,47.363,0.000
1737556978.653,77.148,-33.691,-52.734,87.891,0.000
1737556978.657,159.668,-28.320,-48.340,143.066,0.000
1737556978.661,168.457,-30.273,-41.504,151.855,0.000
1737556978.665,88.379,-30.273,-43.945,83.496,0.000
1737556978.669,6.836,-29.297,-53.223,44.434,0.000
1737556978.672,38.086,-31.738,-57.617,78.125,0.000
1737556978.676,140.137,-20.996,-66.895,143.555,0.000
1737556978.680,174.805,-14.160,-65.430,154.297,0.000
1737556978.684,88.379,-19.531,-49.805,91.797,0.000
1737556978.688,-4.883,-20.508,-49.316,40.527,0.000
1737556978.692,23.438,-20.020,-62.988,48.828,0.000
1737556978.696,116.211,-13.184,-54.688,91.309,0.000
1737556978.700,147.949,-10.254,-46.875,121.094,0.000
1737556978.700,147.949,-10.254,-46.875,121.094,0.000
1737556978.704,0.000,-16.602,-65.430,96.191,0.000
1737556978.708,0.000,-19.043,-80.566,42.969,0.000
1737556978.711,0.000,-13.672,-61.035,25.879,0.000
1737556978.715,0.000,-16.113,-33.691,57.617,0.000
1737556978.719,0.000,-19.531,-31.250,102.539,0.000
1737556978.723,0.000,-12.207,-43.945,57.617,0.000
1737556978.727,0.000,-10.254,-35.645,-15.625,0.000
1737556978.731,0.000,-11.230,-35.156,2.441,0.000
1737556978.735,0.000,-15.137,-49.805,51.758,0.000
1737556978.739,0.000,-15.625,-50.781,83.496,0.000
1737556978.743,0.000,-13.672,-49.805,55.176,0.000
1737556978.747,0.000,-22.949,-36.621,-25.879,0.000
1737556978.751,-71.289,-25.391,-36.133,-42.969,0.000
1737556978.754,-9.766,-14.160,-38.086,13.672,0.000
1737556978.758,70.801,-10.254,-28.320,73.730,0.000
1737556978.762,44.434,-14.648,-27.344,73.242,0.000
1737556978.766,-44.434,-13.184,-22.461,-3.418,0.000
1737556978.770,-46.387,-3.906,-24.414,-27.344,0.000
1737556978.774,16.113,-3.418,-48.828,13.184,0.000
1737556978.778,67.871,-6.836,-33.203,62.012,0.000
1737556978.782,21.484,-10.742,-4.883,37.598,0.000
1737556978.786,-73.730,-18.555,-12.207,-45.898,0.000
1737556978.790,-75.684,-16.602,-20.020,-66.895,0.000
1737556978.793,-24.902,-10.742,-20.996,-15.137,0.000
1737556978.797,72.266,-3.906,-19.043,46.387,0.000
1737556978.801,92.285,-6.836,-29.785,40.039,0.000
1737556978.805,7.812,-14.160,-26.855,-0.977,0.000
1737556978.809,-50.293,-13.184,-18.555,-45.410,0.000
1737556978.813,-25.879,-4.395,-23.438,-50.293,0.000
1737556978.817,64.941,13.184,-30.762,30.762,0.000
1737556978.821,83.984,14.648,-39.551,51.758,0.000
1737556978.825,-20.996,0.488,-52.246,-7.324,0.000
1737556978.829,-84.961,0.488,-62.500,-43.945,0.000
1737556978.833,-34.180,6.836,-50.293,-39.062,0.000
1737556978.836,44.922,6.348,-19.043,12.695,0.000
1737556978.840,62.500,5.371,-3.906,47.363,0.000
1737556978.840,62.500,5.371,-3.906,47.363,0.000
1737556978.844,-7.812,3.418,-12.207,-9.277,0.000
1737556978.848,-62.500,-0.977,-19.043,-79.590,0.000
1737556978.852,-41.016,0.000,-19.531,-65.918,0.000
1737556978.856,42.480,7.324,-16.602,8.301,0.000
1737556978.860,65.918,12.695,-16.602,49.316,0.000
1737556978.864,8.789,13.184,-26.855,20.020,0.000
1737556978.868,-60.547,7.324,-45.410,-38.574,0.000
1737556978.872,-51.270,0.000,-30.762,-51.270,0.000
1737556978.875,46.387,2.930,-12.695,11.719,0.000
1737556978.879,85.938,3.418,-14.648,59.082,0.000
1737556978.883,25.879,0.977,-8.789,0.488,0.000
1737556978.887,-59.570,1.465,-18.066,-55.664,0.000
1737556978.891,-60.547,-1.953,-23.438,-42.480,0.000
1737556978.895,25.391,0.488,-25.879,16.113,0.000
1737556978.899,85.449,7.324,-40.039,69.824,0.000
1737556978.903,-11.719,-6.348,-29.785,37.109,0.000
1737556978.907,-84.961,-17.578,-28.809,-30.762,0.000
1737556978.911,-50.781,-12.207,-29.785,-63.965,0.000
1737556978.915,8.301,-8.301,-9.277,-17.578,0.000
1737556978.918,69.336,-4.883,-11.719,47.852,0.000
1737556978.922,54.688,-2.930,-25.391,33.691,0.000
1737556978.926,-37.598,-4.395,-17.090,-17.578,0.000
1737556978.930,-91.797,-10.254,-3.906,-49.316,0.000
1737556978.934,-10.254,-6.348,-1.465,-16.113,0.000
1737556978.938,58.105,0.488,-11.230,41.992,0.000
1737556978.942,39.062,-0.977,-17.578,55.176,0.000
1737556978.946,-42.969,-8.789,-21.484,-7.324,0.000
1737556978.950,-77.148,-12.695,-30.273,-74.707,0.000
1737556978.954,-12.207,-12.207,-35.156,-21.973,0.000
1737556978.958,41.992,-15.625,-25.879,63.965,0.000
1737556978.961,46.875,-9.277,-11.719,44.434,0.000
1737556978.965,-30.273,-2.930,-4.883,-10.254,0.000
1737556978.969,-92.285,-10.742,-12.207,-41.016,0.000
1737556978.973,-30.762,-10.254,-23.438,-3.906,0.000
1737556978.977,79.102,2.930,-34.668,63.477,0.000
1737556978.981,74.219,4.395,-51.270,54.688,0.000
1737556978.981,74.219,4.395,-51.270,54.688,0.000
1737556978.985,-34.668,-9.766,-30.762,-13.672,0.000
1737556978.989,-84.961,-22.949,4.395,-57.617,0.000
1737556978.993,-34.668,-20.508,11.230,-33.203,0.000
1737556978.997,43.457,-3.418,0.488,17.578,0.000
1737556979.000,49.805,4.395,-12.695,32.715,0.000
1737556979.004,-39.551,-1.465,-30.762,-22.461,0.000
1737556979.008,-79.590,-1.465,-43.945,-51.270,0.000
1737556979.012,-38.086,0.977,-36.621,-23.438,0.000
1737556979.016,54.688,7.324,-32.715,41.504,0.000
1737556979.020,88.867,6.348,-20.996,63.477,0.000
1737556979.024,-25.391,-1.953,-5.859,9.766,0.000
1737556979.028,-86.426,-2.441,-13.184,-47.852,0.000
1737556979.032,-62.500,-5.371,-10.742,-63.477,0.000
1737556979.036,2.441,-3.906,-6.836,14.160,0.000
1737556979.040,74.707,-3.418,-15.137,63.965,0.000
1737556979.043,16.113,-7.812,-24.902,9.277,0.000
1737556979.047,-73.242,-8.789,-32.227,-42.480,0.000
1737556979.051,-56.641,-3.906,-25.391,-13.184,0.000
