timestamps,TP9,AF7,AF8,TP10,Right AUX
1737564213.873,-85.938,-52.246,-17.578,-99.121,0.000
1737564213.876,-5.371,-55.664,10.742,-73.730,0.000
1737564213.880,42.969,-54.688,29.785,-4.883,0.000
1737564213.884,-35.645,28.320,6.348,29.785,0.000
1737564213.888,-70.312,50.293,-27.832,-10.254,0.000
1737564213.892,-17.578,22.949,-44.922,-59.570,0.000
1737564213.896,-10.254,17.090,-29.785,19.043,0.000
1737564213.900,59.570,34.668,0.977,74.219,0.000
1737564213.904,14.160,-1.465,-20.020,-24.414,0.000
1737564213.908,-19.531,-35.645,-18.555,-25.879,0.000
1737564213.912,-4.395,8.301,15.137,17.090,0.000
1737564213.916,-20.508,-4.395,5.859,0.000,0.000
1737564213.919,-73.730,-41.504,-0.488,-62.012,0.000
1737564213.923,-67.383,-49.805,4.883,-49.805,0.000
1737564213.927,44.434,22.461,4.883,30.273,0.000
1737564213.931,88.867,77.637,15.625,24.414,0.000
1737564213.935,-32.715,-12.695,-28.320,-25.879,0.000
1737564213.939,-112.305,-35.156,-55.176,-37.109,0.000
1737564213.943,-27.344,-5.371,-55.176,-67.383,0.000
1737564213.947,79.102,-33.691,-22.461,-10.254,0.000
1737564213.951,60.059,-6.836,28.809,30.762,0.000
1737564213.955,-58.594,20.996,6.348,2.930,0.000
1737564213.958,25.879,18.066,-20.996,46.387,0.000
1737564213.962,93.750,40.527,29.297,74.219,0.000
1737564213.966,0.000,12.207,14.648,-24.902,0.000
1737564213.970,0.000,-16.602,-14.648,-104.980,0.000
1737564213.974,0.000,11.230,2.930,-64.453,0.000
1737564213.978,0.000,-4.395,0.977,-4.883,0.000
1737564213.982,0.000,-6.836,-8.301,18.555,0.000
1737564213.986,0.000,17.090,7.812,15.137,0.000
1737564213.990,0.000,6.348,3.418,-37.598,0.000
1737564213.994,0.000,-26.367,0.000,-111.816,0.000
1737564213.998,0.000,-9.766,-11.230,-170.898,0.000
1737564214.001,0.000,30.762,-41.992,-52.246,0.000
1737564214.005,0.000,47.852,-5.371,96.680,0.000
1737564214.009,0.000,7.324,20.996,70.801,0.000
1737564214.013,94.727,-6.348,-25.879,-10.254,0.000
1737564214.017,21.484,14.160,-9.766,8.301,0.000
1737564214.021,-7.324,8.789,33.691,-38.574,0.000
1737564214.025,-26.855,-18.066,23.926,-105.469,0.000
1737564214.029,1.953,-20.508,-20.020,2.930,0.000
1737564214.033,-16.113,13.672,-3.906,-11.230,0.000
1737564214.037,-32.227,18.066,38.086,2.930,0.000
1737564214.041,47.363,1.465,33.203,73.242,0.000
1737564214.044,85.938,-8.789,34.668,80.566,0.000
1737564214.048,65.918,19.043,32.715,87.891,0.000
1737564214.052,68.359,36.621,5.859,22.461,0.000
1737564214.056,6.348,37.109,-30.762,-20.508,0.000
1737564214.060,0.000,60.059,0.000,123.535,0.000
1737564214.064,0.000,50.293,0.000,176.758,0.000
1737564214.068,0.000,21.484,0.000,61.523,0.000
1737564214.072,0.000,12.207,0.000,-6.348,0.000
1737564214.076,0.000,14.648,0.000,-20.508,0.000
1737564214.080,0.000,31.738,0.000,-33.203,0.000
1737564214.083,0.000,36.133,0.000,5.371,0.000
1737564214.087,0.000,23.438,0.000,51.270,0.000
1737564214.091,0.000,25.391,0.000,50.781,0.000
1737564214.095,0.000,17.578,0.000,50.293,0.000
1737564214.099,0.000,14.160,0.000,81.055,0.000
1737564214.103,0.000,35.645,0.000,55.664,0.000
1737564214.107,66.406,26.367,29.297,28.809,0.000
1737564214.111,173.828,16.602,10.742,13.184,0.000
1737564214.115,35.156,12.695,-6.836,-20.996,0.000
1737564214.119,-10.254,18.555,-19.531,58.594,0.000
1737564214.123,7.324,32.227,7.812,47.363,0.000
1737564214.126,28.320,2.930,15.625,-25.879,0.000
1737564214.130,51.270,1.465,27.832,28.809,0.000
1737564214.134,57.129,20.508,40.039,-34.668,0.000
1737564214.138,125.488,24.902,15.625,-77.637,0.000
1737564214.142,82.031,23.926,10.254,5.371,0.000
1737564214.146,-17.578,-16.113,9.277,45.410,0.000
1737564214.150,7.324,-31.250,9.766,9.277,0.000
1737564214.154,-16.602,16.602,-7.324,-21.484,0.000
1737564214.158,-42.969,23.438,-46.387,-45.410,0.000
1737564214.162,20.996,24.414,-14.160,-36.621,0.000
1737564214.166,33.691,32.715,4.883,-17.578,0.000
1737564214.169,29.785,8.789,-0.977,8.789,0.000
1737564214.173,-35.156,-15.137,49.316,64.453,0.000
1737564214.177,-55.664,7.324,65.430,55.176,0.000
1737564214.181,-22.949,25.391,7.812,-7.324,0.000
1737564214.185,-27.832,36.133,-23.926,-31.250,0.000
1737564214.189,-22.949,24.414,-14.160,3.418,0.000
1737564214.193,-41.016,2.441,-1.465,-44.922,0.000
1737564214.197,23.926,5.859,-4.395,-173.828,0.000
1737564214.201,-111.816,12.695,3.418,-16.602,0.000
1737564214.205,-17.090,33.691,6.836,47.363,0.000
1737564214.208,23.438,41.016,19.043,-73.730,0.000
1737564214.212,94.727,47.852,33.691,65.918,0.000
1737564214.216,61.035,32.227,30.273,94.238,0.000
1737564214.220,-153.320,-3.906,-2.930,-133.301,0.000
1737564214.224,-107.910,-28.320,-9.766,-159.180,0.000
1737564214.228,-34.180,-15.137,-16.113,-247.559,0.000
1737564214.232,-26.855,25.391,-26.367,-36.621,0.000
1737564214.236,-5.859,18.066,-6.348,-38.574,0.000
1737564214.240,33.691,-6.348,16.113,29.297,0.000
1737564214.244,40.527,18.555,42.969,182.617,0.000
1737564214.248,105.957,51.758,57.129,133.789,0.000
1737564214.251,107.910,21.484,34.668,99.121,0.000
1737564214.255,-20.020,-9.766,20.020,11.230,0.000
1737564214.259,34.668,11.719,22.461,58.105,0.000
1737564214.263,33.691,15.625,-12.207,6.836,0.000
1737564214.267,-29.785,23.926,-36.133,-27.832,0.000
1737564214.271,30.762,36.133,-4.883,41.016,0.000
1737564214.275,57.129,24.902,72.754,84.473,0.000
1737564214.279,33.203,10.254,60.547,13.184,0.000
1737564214.283,-5.371,0.977,5.371,-2.441,0.000
1737564214.287,4.883,-32.715,28.320,24.414,0.000
1737564214.290,2.930,-4.395,41.016,-2.930,0.000
1737564214.294,-15.625,36.133,13.184,-15.625,0.000
1737564214.298,27.832,44.434,9.766,5.859,0.000
1737564214.302,-3.418,14.160,-6.348,-70.801,0.000
1737564214.306,-88.867,-5.859,13.672,1.953,0.000
1737564214.310,-39.062,10.254,33.203,17.578,0.000
1737564214.314,73.242,43.457,37.109,58.105,0.000
1737564214.318,63.965,39.551,26.855,38.086,0.000
1737564214.322,-31.738,-15.137,5.371,-87.402,0.000
1737564214.326,-34.180,-18.066,-1.465,-13.672,0.000
1737564214.330,-42.480,3.418,-11.230,5.859,0.000
1737564214.333,-60.547,-40.039,13.672,-59.082,0.000
1737564214.337,17.090,-6.836,10.254,42.480,0.000
1737564214.341,55.176,29.297,-5.371,39.551,0.000
1737564214.345,7.812,29.297,-2.930,-51.758,0.000
1737564214.349,-25.879,27.832,-7.812,-25.879,0.000
1737564214.353,-13.184,19.043,28.809,20.508,0.000
1737564214.357,18.555,9.277,20.996,-15.625,0.000
1737564214.361,34.180,-12.207,-16.602,-33.691,0.000
1737564214.365,-30.762,-19.043,0.000,29.297,0.000
1737564214.369,-52.246,-13.672,17.578,81.543,0.000
1737564214.373,0.977,-3.906,18.555,21.973,0.000
1737564214.376,24.414,-5.371,1.953,-24.902,0.000
1737564214.380,36.621,12.207,-14.160,1.953,0.000
1737564214.384,-1.465,14.160,-11.230,45.898,0.000
1737564214.388,-7.324,26.367,19.043,12.207,0.000
1737564214.392,62.012,16.113,24.902,-59.570,0.000
1737564214.396,-20.996,-8.301,1.465,-39.062,0.000
1737564214.400,-20.508,4.395,2.930,-14.160,0.000
1737564214.404,25.879,-1.953,0.000,71.289,0.000
1737564214.408,-68.848,6.348,15.625,149.902,0.000
1737564214.412,34.180,15.137,22.461,27.344,0.000
1737564214.415,34.668,-3.906,5.371,-51.270,0.000
1737564214.419,-1.953,-8.301,1.465,6.348,0.000
1737564214.423,31.738,12.695,14.648,6.836,0.000
1737564214.427,-35.156,17.090,14.160,27.344,0.000
1737564214.431,-54.199,18.066,-0.488,14.160,0.000
1737564214.435,-30.273,13.672,2.441,-39.062,0.000
1737564214.439,-32.715,-36.133,-8.789,-48.828,0.000
1737564214.443,28.809,2.930,-35.645,17.578,0.000
1737564214.447,57.617,23.438,-26.367,57.617,0.000
1737564214.451,-6.836,-19.531,16.113,-32.227,0.000
1737564214.455,-109.375,-17.090,26.855,-81.055,0.000
1737564214.458,-122.070,12.695,15.625,-70.801,0.000
1737564214.462,-48.340,39.551,13.672,-52.734,0.000
1737564214.466,-31.738,3.418,-4.883,7.812,0.000
1737564214.470,-24.414,-25.879,-13.184,9.277,0.000
1737564214.474,-7.812,7.324,-37.109,-71.777,0.000
1737564214.478,-30.273,17.090,-25.391,-67.383,0.000
1737564214.482,0.000,-20.996,0.488,-62.012,0.000
1737564214.486,0.000,-53.223,-20.508,-47.363,0.000
1737564214.490,0.000,-6.836,-8.301,15.625,0.000
1737564214.494,0.000,26.855,6.348,20.508,0.000
1737564214.498,0.000,-14.648,-45.898,-94.238,0.000
1737564214.501,0.000,-1.465,-48.828,-126.953,0.000
1737564214.505,0.000,22.949,-2.441,-35.645,0.000
1737564214.509,0.000,27.832,5.859,22.949,0.000
1737564214.513,0.000,23.438,-0.488,9.277,0.000
1737564214.517,0.000,11.719,-0.488,0.488,0.000
1737564214.521,0.000,-20.508,11.230,-6.836,0.000
1737564214.525,0.000,-35.645,14.648,-13.184,0.000
1737564214.529,5.371,-23.926,-12.207,-0.488,0.000
1737564214.533,58.594,1.465,-63.477,-54.688,0.000
1737564214.537,17.090,17.090,-57.617,-50.781,0.000
1737564214.540,-86.914,0.000,-23.926,7.324,0.000
1737564214.544,-45.410,-8.789,-3.418,43.457,0.000
1737564214.548,29.297,9.277,17.090,40.039,0.000
1737564214.552,59.082,21.484,27.344,-0.977,0.000
1737564214.556,7.324,-10.254,7.812,-40.527,0.000
1737564214.560,-31.250,2.441,-24.414,23.438,0.000
1737564214.564,-13.672,22.461,-13.184,-0.977,0.000
1737564214.568,2.441,-1.465,-4.883,-44.922,0.000
1737564214.572,-7.324,1.953,-8.789,47.852,0.000
1737564214.576,40.039,21.973,11.719,90.332,0.000
1737564214.580,96.680,32.715,26.855,10.742,0.000
1737564214.583,48.828,20.996,5.371,-19.531,0.000
1737564214.587,26.855,-7.812,-12.695,36.133,0.000
1737564214.591,28.809,5.859,-6.348,54.688,0.000
1737564214.595,7.812,41.992,3.418,26.367,0.000
1737564214.599,15.625,18.555,4.395,30.762,0.000
1737564214.603,10.742,-18.555,-7.324,27.344,0.000
1737564214.607,67.383,7.812,2.930,48.340,0.000
1737564214.611,68.359,34.180,17.578,4.395,0.000
1737564214.615,-15.625,5.859,-6.836,-22.949,0.000
1737564214.619,-2.930,-11.719,-14.648,14.648,0.000
1737564214.623,54.688,20.996,-21.973,44.434,0.000
1737564214.626,25.391,36.133,-31.250,81.543,0.000
1737564214.630,4.883,17.578,-12.207,53.711,0.000
1737564214.634,18.555,-4.883,8.301,-11.230,0.000
1737564214.638,20.020,-6.836,19.531,39.062,0.000
1737564214.642,24.414,-5.859,1.465,58.105,0.000
1737564214.646,19.531,-11.719,-18.066,28.809,0.000
1737564214.650,48.340,14.160,19.531,32.227,0.000
1737564214.654,51.758,55.176,55.176,29.297,0.000
1737564214.658,-17.578,0.977,-4.395,-10.742,0.000
1737564214.662,-58.594,-15.137,-36.621,-11.230,0.000
1737564214.665,-28.320,-10.742,0.488,40.527,0.000
1737564214.669,27.832,-46.875,10.742,26.855,0.000
1737564214.673,37.109,-3.418,12.207,36.621,0.000
1737564214.677,53.711,20.996,18.555,61.523,0.000
1737564214.681,25.879,28.320,-4.883,45.410,0.000
1737564214.685,16.602,33.203,-27.832,19.043,0.000
1737564214.689,-27.344,3.418,-23.438,21.484,0.000
1737564214.693,-59.082,10.742,-38.086,-17.578,0.000
1737564214.697,-4.883,17.090,-24.414,-28.320,0.000
1737564214.701,6.348,3.906,1.465,-7.812,0.000
1737564214.705,-4.395,-10.742,7.324,21.484,0.000
1737564214.708,68.359,-11.719,21.484,59.570,0.000
1737564214.712,51.758,8.789,18.066,51.270,0.000
1737564214.716,0.000,8.301,-34.180,-21.484,0.000
1737564214.720,0.000,-1.953,-22.461,-25.879,0.000
1737564214.724,0.000,-10.254,20.996,6.836,0.000
1737564214.728,0.000,-13.184,-15.137,-0.488,0.000
1737564214.732,0.000,3.418,-12.695,27.344,0.000
1737564214.736,0.000,-11.230,21.973,32.227,0.000
1737564214.740,0.000,-25.879,4.883,-5.371,0.000
1737564214.744,0.000,-6.348,-11.230,-19.531,0.000
1737564214.748,0.000,-2.930,-9.277,1.465,0.000
1737564214.751,0.000,-2.930,-3.906,51.270,0.000
1737564214.755,0.000,20.508,13.672,52.246,0.000
1737564214.759,0.000,26.367,17.090,48.828,0.000
1737564214.763,-106.934,-2.930,10.254,19.531,0.000
1737564214.767,-56.641,-31.250,13.184,-30.273,0.000
1737564214.771,29.297,-17.578,5.371,-9.277,0.000
1737564214.775,24.414,33.203,-14.160,-32.715,0.000
1737564214.779,9.277,35.156,-12.695,-109.863,0.000
1737564214.783,-80.566,20.508,-1.465,-48.828,0.000
1737564214.787,-11.230,12.207,-8.789,-28.320,0.000
1737564214.790,6.836,-0.488,0.977,-37.598,0.000
1737564214.794,-171.875,10.254,0.000,-57.617,0.000
1737564214.798,-202.148,26.855,-14.648,-28.320,0.000
1737564214.802,20.020,8.789,-6.348,-77.637,0.000
1737564214.806,71.777,-9.766,2.930,-51.270,0.000
1737564214.810,-41.504,-27.832,-5.371,53.223,0.000
1737564214.814,-123.535,-11.230,-4.395,45.410,0.000
1737564214.818,11.719,30.273,18.555,-11.719,0.000
1737564214.822,50.781,9.277,12.695,-16.602,0.000
1737564214.826,-111.816,-4.395,-4.883,-5.859,0.000
1737564214.830,-34.668,19.043,0.000,-49.805,0.000
1737564214.833,79.590,-0.488,10.254,71.289,0.000
1737564214.837,46.875,-6.348,7.324,86.914,0.000
1737564214.841,-34.668,-7.812,14.160,58.105,0.000
1737564214.845,-1.465,2.441,22.949,60.547,0.000
1737564214.849,30.762,15.137,-1.465,18.066,0.000
1737564214.853,-12.695,2.441,-13.672,-19.531,0.000
1737564214.857,9.766,-0.488,-0.488,3.418,0.000
1737564214.861,12.207,3.418,10.742,33.691,0.000
1737564214.865,-40.039,-3.418,2.441,37.598,0.000
1737564214.869,18.555,-5.371,-23.926,45.410,0.000
1737564214.873,78.125,1.465,-16.602,37.109,0.000
1737564214.876,24.414,21.484,4.395,-41.504,0.000
1737564214.880,-63.477,19.043,-14.648,-87.402,0.000
1737564214.884,-14.160,18.555,-8.789,-36.621,0.000
1737564214.888,17.578,23.438,-1.465,18.066,0.000
1737564214.892,-18.066,-2.930,16.602,48.340,0.000
1737564214.896,-0.977,-27.832,24.902,7.324,0.000
1737564214.900,15.625,5.371,-10.742,-25.879,0.000
1737564214.904,10.254,23.926,-23.438,-27.344,0.000
1737564214.908,-20.020,27.344,-6.836,-0.977,0.000
1737564214.912,-19.531,25.879,-7.324,-8.789,0.000
1737564214.915,-23.926,8.301,-12.695,-53.223,0.000
1737564214.919,-44.922,1.953,-3.418,-51.270,0.000
1737564214.923,10.742,-26.855,7.324,-18.555,0.000
1737564214.927,4.395,-21.484,4.395,55.176,0.000
1737564214.931,-56.641,21.973,-16.113,9.766,0.000
1737564214.935,24.902,-0.977,0.488,-78.125,0.000
1737564214.939,41.992,-34.668,18.555,-63.477,0.000
1737564214.943,-46.875,14.160,20.020,-8.301,0.000
1737564214.947,-13.184,37.109,-4.395,-1.465,0.000
1737564214.951,0.000,-20.996,-26.367,12.695,0.000
1737564214.955,0.000,1.465,-19.043,-9.277,0.000
1737564214.958,0.000,24.414,-9.766,-10.742,0.000
1737564214.962,0.000,-1.465,-8.301,3.906,0.000
1737564214.966,0.000,7.812,6.348,38.574,0.000
1737564214.970,0.000,11.719,12.207,66.895,0.000
1737564214.974,0.000,-14.648,-10.742,2.930,0.000
1737564214.978,0.000,-37.598,-13.184,-13.184,0.000
1737564214.982,0.000,-14.648,-4.395,17.090,0.000
1737564214.986,0.000,19.531,-8.789,7.324,0.000
1737564214.990,0.000,6.836,-20.020,-20.020,0.000
1737564214.994,0.000,-3.906,0.488,-28.809,0.000
1737564214.998,81.055,15.625,20.996,-2.930,0.000
1737564215.001,24.414,21.973,1.953,4.395,0.000
1737564215.005,-27.344,-13.184,0.000,21.973,0.000
1737564215.009,-43.457,-35.156,-4.883,29.297,0.000
1737564215.013,52.734,4.395,-22.949,52.246,0.000
1737564215.017,121.582,21.484,5.371,70.801,0.000
1737564215.021,52.734,11.719,35.645,33.203,0.000
1737564215.025,-42.480,16.113,-6.836,16.602,0.000
1737564215.029,-49.805,5.371,-40.039,-20.020,0.000
1737564215.033,0.000,13.672,-20.020,-43.457,0.000
1737564215.037,10.742,17.090,0.000,-11.719,0.000
1737564215.040,-2.930,0.488,-3.418,32.227,0.000
1737564215.044,15.625,-25.879,1.465,30.762,0.000
1737564215.048,36.133,-42.969,4.395,12.207,0.000
1737564215.052,-7.324,0.977,-4.395,0.488,0.000
1737564215.056,-8.301,35.645,-7.812,0.000,0.000
1737564215.060,16.602,13.672,-8.789,-10.742,0.000
1737564215.064,18.066,-36.621,-11.230,-1.465,0.000
1737564215.068,29.785,12.207,-23.438,9.766,0.000
1737564215.072,-11.230,41.504,-14.648,-16.113,0.000
1737564215.076,-54.688,3.418,1.465,-22.949,0.000
1737564215.080,-4.395,-19.531,-15.137,-17.578,0.000
1737564215.083,5.859,-12.695,9.277,6.348,0.000
1737564215.087,22.461,49.805,35.156,74.219,0.000
1737564215.091,-21.973,19.043,-32.715,-41.016,0.000
1737564215.095,-94.727,-30.762,-41.504,-125.000,0.000
1737564215.099,-19.043,-15.137,0.000,-60.547,0.000
1737564215.103,-13.672,-25.879,-32.715,-16.113,0.000
1737564215.107,-21.484,-17.090,-29.785,-9.277,0.000
1737564215.111,3.418,10.254,19.043,-9.766,0.000
1737564215.115,-6.348,16.602,1.465,-32.715,0.000
1737564215.119,-43.945,18.555,-27.344,-59.082,0.000
1737564215.122,-12.695,15.625,-25.391,-28.809,0.000
1737564215.126,30.273,-21.973,-16.602,-47.852,0.000
1737564215.130,-3.906,-32.715,11.230,-2.441,0.000
1737564215.134,-55.176,-5.371,4.883,14.160,0.000
1737564215.138,-23.438,16.602,-28.320,-56.641,0.000
1737564215.142,17.090,43.457,-23.926,-19.531,0.000
1737564215.146,7.812,23.926,-17.090,7.812,0.000
1737564215.150,-39.551,-19.043,-21.973,28.320,0.000
1737564215.154,-36.621,-28.320,-4.883,21.973,0.000
1737564215.158,13.184,-7.812,8.301,-8.301,0.000
1737564215.162,6.836,-2.441,0.488,-2.930,0.000
1737564215.165,-41.992,-14.648,-15.137,-1.953,0.000
1737564215.169,-19.531,-5.859,-3.906,-17.578,0.000
1737564215.173,55.664,2.441,-15.625,-13.672,0.000
1737564215.177,51.270,11.719,-27.344,3.906,0.000
1737564215.181,18.066,26.367,-29.297,-4.883,0.000
1737564215.185,-28.809,7.324,-33.691,-4.395,0.000
1737564215.189,8.301,-14.160,8.789,57.129,0.000
1737564215.193,26.855,12.695,20.508,51.270,0.000
1737564215.197,-20.020,12.695,-19.043,-34.668,0.000
1737564215.201,9.766,-4.883,-18.555,-41.016,0.000
1737564215.205,21.484,-16.602,2.930,12.695,0.000
1737564215.208,32.715,-12.695,16.602,36.133,0.000
1737564215.212,24.902,6.836,16.113,25.879,0.000
1737564215.216,20.020,-0.488,-3.418,-26.367,0.000
1737564215.220,60.547,-30.762,-25.391,-19.043,0.000
1737564215.224,11.230,16.113,-13.184,25.391,0.000
1737564215.228,-34.668,60.059,9.766,46.387,0.000
1737564215.232,0.000,24.414,0.000,44.922,0.000
1737564215.236,0.000,-41.016,0.000,6.348,0.000
1737564215.240,0.000,-41.504,0.000,-34.180,0.000
1737564215.244,0.000,0.000,0.000,-26.855,0.000
1737564215.247,0.000,20.508,0.000,26.367,0.000
1737564215.251,0.000,7.812,0.000,8.789,0.000
1737564215.255,0.000,-9.766,0.000,-12.207,0.000
1737564215.259,0.000,0.000,0.000,31.250,0.000
1737564215.263,0.000,13.184,0.000,75.684,0.000
1737564215.267,0.000,7.812,0.000,29.297,0.000
1737564215.271,0.000,-25.391,0.000,-49.805,0.000
1737564215.275,0.000,-33.203,0.000,-61.035,0.000
1737564215.279,-27.832,3.418,13.184,-31.250,0.000
1737564215.283,8.789,4.395,8.301,-4.395,0.000
1737564215.287,-9.277,-7.812,-8.301,6.348,0.000
1737564215.290,8.301,5.859,-12.207,3.418,0.000
1737564215.294,9.277,2.441,-2.441,17.090,0.000
1737564215.298,-8.789,2.441,17.090,29.297,0.000
1737564215.302,6.836,11.230,11.230,10.254,0.000
1737564215.306,1.953,-0.488,-11.230,-26.855,0.000
1737564215.310,-13.184,-2.441,-18.066,-19.043,0.000
1737564215.314,-45.410,-25.391,-22.461,0.977,0.000
1737564215.318,4.395,-55.176,-19.043,-30.762,0.000
1737564215.322,24.414,-30.273,-22.461,-11.230,0.000
1737564215.326,-39.062,-8.789,-21.973,49.316,0.000
1737564215.330,-9.766,2.441,-8.789,39.062,0.000
1737564215.333,11.719,-1.953,8.789,-12.207,0.000
1737564215.337,-13.672,-0.977,28.809,-6.348,0.000
1737564215.341,-49.316,22.461,20.508,13.184,0.000
1737564215.345,-35.156,-0.488,-2.441,8.301,0.000
1737564215.349,52.734,-28.320,-11.230,-47.363,0.000
1737564215.353,-2.930,-12.207,-18.555,-59.082,0.000
1737564215.357,-63.965,-9.277,-14.160,-18.066,0.000
1737564215.361,-5.371,-15.625,-5.371,-21.973,0.000
1737564215.365,5.859,-16.602,-7.812,-20.508,0.000
1737564215.369,-12.207,-26.855,-23.926,2.930,0.000
1737564215.372,-49.316,-24.902,-29.297,-23.438,0.000
1737564215.376,-4.395,4.395,-1.953,-18.066,0.000
1737564215.380,84.473,-5.371,1.465,34.180,0.000
1737564215.384,-36.621,-51.270,-30.273,26.855,0.000
1737564215.388,-90.820,-21.973,-40.039,-53.223,0.000
1737564215.392,-26.367,20.020,-24.414,-62.988,0.000
1737564215.396,-7.812,2.441,-14.648,-27.832,0.000
1737564215.400,2.441,-4.395,5.371,-20.996,0.000
1737564215.404,6.836,5.371,22.461,30.273,0.000
1737564215.408,15.137,5.371,3.418,48.828,0.000
1737564215.412,10.742,4.395,10.742,18.555,0.000
1737564215.415,-5.859,-10.742,20.020,-5.371,0.000
1737564215.419,-32.715,-12.207,-3.906,-20.508,0.000
1737564215.423,-23.926,-9.766,-19.043,-20.996,0.000
1737564215.427,-22.461,-19.043,-1.953,5.859,0.000
1737564215.431,7.812,-7.812,10.254,5.371,0.000
1737564215.435,20.996,-0.488,1.953,-18.555,0.000
1737564215.439,-15.137,-4.883,-2.930,-20.996,0.000
1737564215.443,6.348,6.348,-9.766,10.742,0.000
1737564215.447,0.000,20.508,-19.043,-8.301,0.000
1737564215.451,-7.324,5.859,-5.859,-17.578,0.000
1737564215.455,36.133,3.418,14.160,20.508,0.000
1737564215.458,-4.395,-3.418,-11.719,13.672,0.000
1737564215.462,2.930,-0.977,-18.555,-17.090,0.000
1737564215.466,0.000,-4.883,-19.531,-13.184,0.000
1737564215.470,0.000,-30.762,-21.484,19.531,0.000
1737564215.474,0.000,-27.832,-2.441,35.645,0.000
1737564215.478,0.000,-4.883,-6.348,-1.465,0.000
1737564215.482,0.000,15.625,-5.859,-48.828,0.000
1737564215.486,0.000,-3.906,-7.812,-55.664,0.000
1737564215.490,0.000,-24.902,-23.438,-48.828,0.000
1737564215.494,0.000,-8.301,-13.672,-28.320,0.000
1737564215.497,0.000,15.137,-6.348,-9.766,0.000
1737564215.501,0.000,-2.441,-30.762,-37.109,0.000
1737564215.505,0.000,-36.621,-11.719,21.973,0.000
1737564215.509,0.000,-9.277,16.602,62.500,0.000
1737564215.513,6.836,21.484,-14.160,3.418,0.000
1737564215.517,-50.781,7.324,-30.762,-34.668,0.000
1737564215.521,-60.547,-3.418,-28.320,-37.598,0.000
1737564215.525,-36.133,-6.836,-33.691,-18.066,0.000
1737564215.529,-12.695,-7.324,-31.250,-18.066,0.000
1737564215.533,15.137,-25.879,-22.949,-46.875,0.000
1737564215.537,24.414,-49.316,-15.137,-72.266,0.000
1737564215.540,8.301,-25.391,-31.738,-49.805,0.000
1737564215.544,31.738,25.391,1.953,3.906,0.000
1737564215.548,24.414,47.363,32.715,67.871,0.000
1737564215.552,-51.270,4.395,-1.465,64.941,0.000
1737564215.556,-15.625,-33.691,-31.250,-23.438,0.000
1737564215.560,28.809,-26.367,0.000,-10.254,0.000
1737564215.564,-78.125,-0.488,0.000,45.898,0.000
1737564215.568,-9.277,0.000,0.000,-13.672,0.000
1737564215.572,62.500,-43.457,0.000,-43.457,0.000
1737564215.576,-21.484,-30.273,0.000,-34.668,0.000
1737564215.580,-4.883,20.508,0.000,-29.297,0.000
1737564215.583,22.461,4.395,0.000,-14.160,0.000
1737564215.587,-61.035,-10.254,0.000,-23.438,0.000
1737564215.591,-41.992,3.906,0.000,-7.324,0.000
1737564215.595,10.742,-1.465,0.000,2.441,0.000
1737564215.599,11.719,6.348,0.000,-20.996,0.000
1737564215.603,-5.371,1.953,0.000,-14.160,0.000
1737564215.607,0.000,6.348,-32.715,17.090,0.000
1737564215.611,0.000,5.371,-16.113,11.719,0.000
1737564215.615,0.000,-14.648,9.277,15.137,0.000
1737564215.619,0.000,-24.902,-5.371,32.227,0.000
1737564215.622,0.000,4.395,-29.785,25.391,0.000
1737564215.626,0.000,21.973,-39.551,16.113,0.000
1737564215.630,0.000,14.160,-22.949,-37.109,0.000
1737564215.634,0.000,13.184,20.508,-47.363,0.000
1737564215.638,0.000,5.371,27.344,13.672,0.000
1737564215.642,0.000,19.531,1.465,13.672,0.000
1737564215.646,0.000,0.977,-21.973,-4.883,0.000
1737564215.650,0.000,-35.156,-36.133,-10.254,0.000
1737564215.654,-28.320,-48.340,0.000,0.000,0.000
1737564215.658,-5.859,-36.621,0.000,0.000,0.000
1737564215.662,56.152,7.324,0.000,0.000,0.000
1737564215.665,69.336,14.160,0.000,0.000,0.000
1737564215.669,117.676,4.395,0.000,0.000,0.000
1737564215.673,56.152,14.648,0.000,0.000,0.000
1737564215.677,-62.500,1.465,0.000,0.000,0.000
1737564215.681,-14.648,-15.625,0.000,0.000,0.000
1737564215.685,-5.371,-11.230,0.000,0.000,0.000
1737564215.689,26.367,-14.648,0.000,0.000,0.000
1737564215.693,19.043,-19.531,0.000,0.000,0.000
1737564215.697,8.301,3.906,0.000,0.000,0.000
1737564215.701,11.230,12.695,-20.020,-2.930,0.000
1737564215.705,-36.133,8.301,-2.441,19.043,0.000
1737564215.708,-11.719,-7.324,14.648,-16.113,0.000
1737564215.712,8.789,5.859,20.020,17.578,0.000
1737564215.716,-20.996,0.977,4.883,-8.301,0.000
1737564215.720,8.789,-32.715,1.953,-43.945,0.000
1737564215.724,50.293,-16.113,2.930,0.977,0.000
1737564215.728,46.875,20.020,-2.930,19.531,0.000
1737564215.732,-18.066,6.836,-28.809,-3.906,0.000
1737564215.736,-8.789,-15.137,-56.641,-37.109,0.000
1737564215.740,-11.719,-19.043,-30.762,-69.336,0.000
1737564215.744,-7.324,4.395,-8.789,-24.414,0.000
1737564215.747,-6.836,8.301,-11.230,18.066,0.000
1737564215.751,-24.902,1.953,-19.043,20.020,0.000
1737564215.755,1.953,3.418,-15.625,7.324,0.000
1737564215.759,-9.277,-22.949,-20.020,-15.137,0.000
1737564215.763,-4.883,-18.555,-27.832,-8.789,0.000
1737564215.767,28.320,-1.465,-4.395,33.691,0.000
1737564215.771,-17.090,-22.949,2.930,31.250,0.000
1737564215.775,-71.289,-23.438,7.324,-67.383,0.000
1737564215.779,-53.223,24.902,10.742,-89.844,0.000
1737564215.783,20.508,14.160,-4.395,-25.391,0.000
1737564215.787,55.176,-17.090,-7.812,33.203,0.000
1737564215.790,40.527,2.930,-20.508,21.973,0.000
1737564215.794,-3.906,19.043,-8.301,-13.184,0.000
1737564215.798,-38.574,-9.766,-9.766,-37.109,0.000
1737564215.802,-43.945,-41.016,-31.250,-51.758,0.000
1737564215.806,-19.043,-29.297,-15.137,-11.719,0.000
1737564215.810,19.043,8.789,13.184,30.273,0.000
1737564215.814,-24.414,13.672,4.395,-3.906,0.000
1737564215.818,-12.207,1.953,-21.973,7.812,0.000
1737564215.822,53.223,-5.859,-18.066,37.109,0.000
1737564215.826,2.930,-13.184,-5.371,20.020,0.000
1737564215.829,0.977,-6.836,-7.324,-28.809,0.000
1737564215.833,11.719,-14.160,-11.230,-46.387,0.000
1737564215.837,-23.926,-22.949,-10.742,-11.719,0.000
1737564215.841,-11.719,-9.766,-14.160,6.348,0.000
1737564215.845,16.113,12.207,-24.902,37.109,0.000
1737564215.849,34.180,18.555,-11.719,26.367,0.000
1737564215.853,-24.902,-7.324,-17.578,-36.133,0.000
1737564215.857,-85.449,-0.488,-24.414,-50.781,0.000
1737564215.861,-41.992,2.441,-0.488,-40.039,0.000
1737564215.865,24.414,-5.371,21.973,28.809,0.000
1737564215.869,4.395,3.418,13.184,63.477,0.000
1737564215.872,-36.133,-16.113,-17.578,-39.551,0.000
1737564215.876,-18.555,-20.020,-16.602,-73.730,0.000
1737564215.880,-9.277,-14.160,-12.695,-34.180,0.000
1737564215.884,14.648,7.812,-12.695,0.000,0.000
1737564215.888,-2.441,14.160,0.000,24.414,0.000
1737564215.892,-14.160,-11.719,0.000,-6.348,0.000
1737564215.896,-6.348,-13.184,0.000,-23.926,0.000
1737564215.900,-6.348,-21.973,0.000,-37.109,0.000
1737564215.904,3.418,-23.926,0.000,-11.230,0.000
1737564215.908,5.859,-12.207,0.000,17.090,0.000
1737564215.912,-14.648,-2.930,0.000,3.906,0.000
1737564215.915,0.000,-8.789,0.000,-11.230,0.000
1737564215.919,21.484,-29.785,0.000,-17.578,0.000
1737564215.923,59.082,1.953,0.000,-5.859,0.000
1737564215.927,-37.598,6.836,0.000,-2.441,0.000
1737564215.931,-71.289,-0.977,0.000,-0.977,0.000
1737564215.935,8.789,-9.277,-1.465,-3.906,0.000
1737564215.939,5.371,-26.367,-30.273,0.000,0.000
1737564215.943,12.695,-30.273,-21.973,-36.621,0.000
1737564215.947,-7.324,-8.301,-7.324,-47.852,0.000
1737564215.951,-52.734,4.395,-5.371,-9.766,0.000
1737564215.954,-35.645,-3.418,-13.672,-26.855,0.000
1737564215.958,-18.066,-23.438,-32.715,-22.949,0.000
1737564215.962,-16.602,-9.277,-28.809,17.578,0.000
1737564215.966,8.789,9.277,-9.766,1.953,0.000
1737564215.970,-3.418,-10.742,-7.812,-40.527,0.000
1737564215.974,-13.672,-22.461,-17.090,-20.020,0.000
1737564215.978,-2.930,-31.738,-16.113,14.160,0.000
1737564215.982,-0.488,-9.277,0.000,3.906,0.000
1737564215.986,42.480,15.625,0.000,-3.418,0.000
1737564215.990,61.035,-3.418,0.000,34.180,0.000
1737564215.994,-27.344,-15.137,0.000,51.270,0.000
1737564215.997,-38.086,-6.348,0.000,11.719,0.000
1737564216.001,-18.066,0.977,0.000,-60.059,0.000
1737564216.005,-8.789,-20.996,0.000,-43.945,0.000
1737564216.009,28.809,-33.203,0.000,56.641,0.000
1737564216.013,-31.738,-23.438,0.000,45.410,0.000
1737564216.017,-69.824,-2.441,0.000,-32.227,0.000
1737564216.021,-67.383,10.742,0.000,-33.203,0.000
1737564216.025,-12.695,-9.766,0.000,-2.930,0.000
1737564216.029,0.000,-7.812,-15.625,9.277,0.000
1737564216.033,0.000,12.207,0.000,8.301,0.000
1737564216.037,0.000,8.789,2.441,21.484,0.000
1737564216.040,0.000,-15.625,-20.508,13.184,0.000
1737564216.044,0.000,-40.527,-59.570,14.160,0.000
1737564216.048,0.000,-41.504,-42.969,-23.926,0.000
1737564216.052,0.000,-28.320,1.465,-35.645,0.000
1737564216.056,0.000,-25.391,10.742,4.883,0.000
1737564216.060,0.000,-14.160,0.488,21.484,0.000
1737564216.064,0.000,-4.395,-10.742,37.109,0.000
1737564216.068,0.000,-1.953,-15.625,28.809,0.000
1737564216.072,0.000,2.441,-18.066,15.137,0.000
1737564216.076,37.109,-6.836,-14.648,-6.836,0.000
1737564216.079,-6.836,-10.742,-2.930,3.906,0.000
1737564216.083,-3.418,-1.953,4.883,-3.906,0.000
1737564216.087,29.785,20.020,-18.555,-11.719,0.000
1737564216.091,-17.578,20.996,-29.785,57.129,0.000
1737564216.095,-8.301,-21.484,-36.621,-12.695,0.000
1737564216.099,22.461,-33.691,-39.551,-55.664,0.000
1737564216.103,0.488,-21.484,-19.043,-3.906,0.000
1737564216.107,-1.953,-5.371,-5.371,-5.859,0.000
1737564216.111,-23.926,-2.441,-0.488,27.832,0.000
1737564216.115,-28.320,-15.137,-2.441,36.133,0.000
1737564216.119,22.949,-25.879,4.883,-16.113,0.000
1737564216.122,0.000,-20.996,8.789,-20.020,0.000
1737564216.126,0.000,-8.789,-9.277,17.090,0.000
1737564216.130,0.000,5.859,-20.020,18.066,0.000
1737564216.134,0.000,10.742,-14.648,-38.574,0.000
1737564216.138,0.000,1.465,-13.672,-51.270,0.000
1737564216.142,0.000,-0.977,-20.996,0.977,0.000
1737564216.146,0.000,-1.953,-25.879,29.785,0.000
1737564216.150,0.000,-18.066,-15.625,0.977,0.000
1737564216.154,0.000,-27.344,7.324,-35.645,0.000
1737564216.158,0.000,-10.742,5.859,-25.879,0.000
1737564216.162,0.000,4.395,-5.371,-4.883,0.000
1737564216.165,0.000,-0.977,0.488,-3.418,0.000
1737564216.169,-7.812,-13.184,7.812,8.301,0.000
1737564216.173,-18.066,0.977,5.859,-37.598,0.000
1737564216.177,-27.832,3.906,-6.348,-46.387,0.000
1737564216.181,21.484,4.883,-15.137,7.324,0.000
1737564216.185,25.391,-2.930,-21.973,15.137,0.000
1737564216.189,-43.457,-45.898,-30.273,0.488,0.000
1737564216.193,-51.758,-41.016,-21.484,-25.879,0.000
1737564216.197,-29.297,-5.859,-7.324,-82.520,0.000
1737564216.201,-43.457,0.977,-3.418,-84.473,0.000
1737564216.204,-14.648,-4.395,-8.789,-34.180,0.000
1737564216.208,8.789,-20.508,1.465,14.160,0.000
1737564216.212,-17.578,-28.809,8.301,25.879,0.000
1737564216.216,0.000,-14.648,-17.090,-5.859,0.000
1737564216.220,0.000,-17.578,-31.250,-34.668,0.000
1737564216.224,0.000,-24.414,-21.973,-48.340,0.000
1737564216.228,0.000,-9.766,-12.695,-6.348,0.000
1737564216.232,0.000,-5.859,-9.766,35.156,0.000
1737564216.236,0.000,-12.695,-16.602,-33.691,0.000
1737564216.240,0.000,-16.113,-20.996,-51.270,0.000
1737564216.244,0.000,-13.184,-3.906,-3.906,0.000
1737564216.247,0.000,-20.508,-10.254,-0.488,0.000
1737564216.251,0.000,-25.391,-11.230,-20.020,0.000
1737564216.255,0.000,-23.438,-5.859,-38.574,0.000
1737564216.259,0.000,-12.207,-14.648,-33.691,0.000
1737564216.263,-13.672,-2.930,-7.812,-12.207,0.000
1737564216.267,37.598,14.648,5.371,13.672,0.000
1737564216.271,-36.133,14.160,-2.930,-1.953,0.000
1737564216.275,-49.805,-12.207,-16.113,-44.434,0.000
1737564216.279,-51.270,-21.973,-31.250,-24.902,0.000
1737564216.283,-62.500,-23.926,-23.438,-8.789,0.000
1737564216.287,-54.688,-34.180,-5.859,-18.555,0.000
1737564216.290,-51.270,-23.438,-13.184,6.348,0.000
1737564216.294,-38.574,-18.555,-12.207,-3.906,0.000
1737564216.298,-8.301,-16.113,-8.301,-22.949,0.000
1737564216.302,36.133,1.953,-14.160,-49.316,0.000
1737564216.306,4.395,-1.953,-29.785,-31.738,0.000
1737564216.310,0.000,-7.812,0.000,0.000,0.000
1737564216.314,0.000,-4.395,0.000,0.000,0.000
1737564216.318,0.000,-26.367,0.000,0.000,0.000
1737564216.322,0.000,-46.387,0.000,0.000,0.000
1737564216.326,0.000,-28.809,0.000,0.000,0.000
1737564216.329,0.000,-5.371,0.000,0.000,0.000
1737564216.333,0.000,-17.090,0.000,0.000,0.000
1737564216.337,0.000,-20.508,0.000,0.000,0.000
1737564216.341,0.000,-2.930,0.000,0.000,0.000
1737564216.345,0.000,-7.324,0.000,0.000,0.000
1737564216.349,0.000,-3.418,0.000,0.000,0.000
1737564216.353,0.000,2.441,0.000,0.000,0.000
1737564216.357,49.805,-10.742,-34.180,-71.777,0.000
1737564216.361,-38.086,-32.715,-28.809,-32.227,0.000
1737564216.365,-85.449,-34.668,-10.742,9.766,0.000
1737564216.369,-4.395,-6.836,14.648,-3.418,0.000
1737564216.372,44.922,10.742,6.836,8.301,0.000
1737564216.376,-16.602,-5.859,-30.273,-50.293,0.000
1737564216.380,-72.266,-41.992,-27.344,-113.281,0.000
1737564216.384,-17.578,-54.199,-14.648,-77.148,0.000
1737564216.388,-4.395,-24.414,-23.926,-38.086,0.000
1737564216.392,-25.391,-8.789,-31.250,-37.109,0.000
1737564216.396,-11.719,0.977,-40.527,-67.871,0.000
1737564216.400,-9.277,-10.254,-31.738,-78.125,0.000
1737564216.404,-33.691,-31.250,-11.230,-39.062,0.000
1737564216.408,-26.855,-30.273,-2.930,-3.906,0.000
1737564216.412,-61.035,-13.672,-13.672,-4.883,0.000
1737564216.415,-34.668,1.953,-25.879,-42.480,0.000
1737564216.419,28.809,-10.742,-27.832,-83.008,0.000
1737564216.423,32.715,-16.113,-25.879,-55.664,0.000
1737564216.427,-27.832,-16.113,-26.855,-22.949,0.000
1737564216.431,-25.391,-12.695,-34.668,-22.949,0.000
1737564216.435,-13.672,-6.348,-23.926,-11.230,0.000
1737564216.439,-11.230,-30.273,-23.438,-53.711,0.000
1737564216.443,-14.160,-30.762,-36.133,-65.918,0.000
1737564216.447,-65.430,-20.508,-20.020,-28.320,0.000
1737564216.451,-24.414,-10.254,-14.648,-25.391,0.000
1737564216.454,20.020,-2.441,-18.066,-53.711,0.000
1737564216.458,-7.812,5.371,-13.672,-31.250,0.000
1737564216.462,-8.789,10.742,-29.297,-0.977,0.000
1737564216.466,-26.855,-19.043,-29.297,-35.645,0.000
1737564216.470,-13.672,-41.992,-27.344,-21.973,0.000
1737564216.474,-21.484,-30.273,-18.066,22.461,0.000
1737564216.478,-3.906,4.883,-6.836,-1.953,0.000
1737564216.482,33.203,-20.508,-32.715,-7.324,0.000
1737564216.486,16.113,-8.789,-11.230,6.836,0.000
1737564216.490,29.297,19.531,12.695,-28.320,0.000
1737564216.494,-32.715,-40.039,-20.020,-56.152,0.000
1737564216.497,-34.668,-55.176,-48.340,-76.660,0.000
1737564216.501,-5.859,-33.691,-18.066,-48.340,0.000
1737564216.505,-73.242,-37.109,4.883,-12.207,0.000
1737564216.509,-38.574,-11.230,-3.906,39.551,0.000
1737564216.513,13.184,21.484,0.000,40.039,0.000
1737564216.517,40.527,31.738,26.855,12.695,0.000
1737564216.521,1.953,-12.695,0.977,14.160,0.000
1737564216.525,-17.578,-43.457,-28.320,-6.836,0.000
1737564216.529,14.648,-35.156,-14.648,-43.945,0.000
1737564216.533,-26.367,-31.738,-52.246,-43.945,0.000
1737564216.536,-3.906,-13.184,-5.859,-38.574,0.000
1737564216.540,19.531,-24.902,37.109,-36.133,0.000
1737564216.544,54.688,-6.348,0.000,-29.297,0.000
1737564216.548,59.082,14.160,0.000,-18.066,0.000
1737564216.552,-34.668,-19.043,0.000,-0.977,0.000
1737564216.556,-84.473,-43.457,0.000,-21.484,0.000
1737564216.560,-32.227,-11.230,0.000,-20.996,0.000
1737564216.564,43.457,38.574,0.000,-62.988,0.000
1737564216.568,72.266,30.762,0.000,-18.066,0.000
1737564216.572,59.082,15.625,0.000,51.758,0.000
1737564216.576,-17.090,-3.418,0.000,-5.371,0.000
1737564216.579,-41.992,-53.711,0.000,-48.828,0.000
1737564216.583,17.090,-42.969,0.000,-19.043,0.000
1737564216.587,59.082,-5.371,0.000,-8.301,0.000
1737564216.591,57.129,-12.207,-1.465,8.301,0.000
1737564216.595,20.020,7.812,53.223,27.344,0.000
1737564216.599,-14.648,-21.973,4.883,-41.016,0.000
1737564216.603,18.066,-76.172,-14.648,-12.695,0.000
1737564216.607,34.668,-29.785,-26.855,17.578,0.000
1737564216.611,49.316,19.531,-45.898,-71.777,0.000
1737564216.615,45.898,-7.324,-7.324,27.344,0.000
1737564216.619,-74.707,1.465,34.668,42.969,0.000
1737564216.622,-51.270,23.438,10.254,-42.969,0.000
1737564216.626,69.824,13.672,-56.152,36.621,0.000
1737564216.630,90.332,-7.324,-43.945,85.449,0.000
1737564216.634,51.270,-37.109,-0.977,23.926,0.000
1737564216.638,28.809,-14.160,13.184,-62.500,0.000
1737564216.642,50.293,38.574,11.719,6.836,0.000
1737564216.646,8.789,21.973,-18.555,41.992,0.000
1737564216.650,-1.953,-9.277,-66.895,-29.297,0.000
1737564216.654,28.809,-38.574,-56.152,-62.012,0.000
1737564216.658,-63.965,-64.453,-25.879,-86.426,0.000
1737564216.661,-63.477,-51.270,-1.465,1.465,0.000
1737564216.665,58.105,25.879,11.230,31.738,0.000
1737564216.669,12.207,5.859,-22.461,-13.672,0.000
1737564216.673,-47.363,-31.250,-7.324,5.859,0.000
1737564216.677,-15.625,-9.766,-4.395,-29.297,0.000
1737564216.681,-6.836,-56.641,-24.902,-55.664,0.000
1737564216.685,0.000,-52.246,-29.297,-47.852,0.000
1737564216.689,0.000,-5.859,-39.062,-59.082,0.000
1737564216.693,0.000,14.648,-51.270,-43.457,0.000
1737564216.697,0.000,-2.930,-43.945,-88.867,0.000
1737564216.701,0.000,-24.902,-34.180,-52.734,0.000
1737564216.704,0.000,10.254,10.254,41.016,0.000
1737564216.708,0.000,-18.555,19.043,9.277,0.000
1737564216.712,0.000,-58.594,-37.109,-50.293,0.000
1737564216.716,0.000,-39.551,-74.219,-80.078,0.000
1737564216.720,0.000,-21.484,-46.387,-10.254,0.000
1737564216.724,0.000,-13.184,-3.906,-22.461,0.000
1737564216.728,0.000,-20.508,-17.090,-1.953,0.000
1737564216.732,-2.441,-24.902,-42.480,0.000,0.000
1737564216.736,-14.648,6.836,-40.039,0.000,0.000
1737564216.740,-14.160,-2.441,-15.625,0.000,0.000
1737564216.744,-48.828,-47.852,-16.602,0.000,0.000
1737564216.747,-42.480,-53.223,-20.508,0.000,0.000
1737564216.751,14.160,-7.324,-29.785,0.000,0.000
1737564216.755,10.254,13.184,-32.715,0.000,0.000
1737564216.759,11.719,-0.488,-42.969,0.000,0.000
1737564216.763,-7.812,-8.301,-54.688,0.000,0.000
1737564216.767,1.953,-11.719,-29.297,0.000,0.000
1737564216.771,-5.859,-1.465,-16.602,0.000,0.000
1737564216.775,-9.766,2.441,-21.973,0.000,0.000
1737564216.779,25.879,-17.578,-12.695,12.207,0.000
1737564216.783,17.090,-3.418,-9.766,-36.621,0.000
1737564216.786,7.812,1.465,-28.320,-4.395,0.000
1737564216.790,-13.184,-5.371,-18.555,17.090,0.000
1737564216.794,-1.465,-0.488,-3.906,21.484,0.000
1737564216.798,50.293,3.418,0.000,13.672,0.000
1737564216.802,41.016,-30.762,-3.418,-30.762,0.000
1737564216.806,14.648,-25.391,-3.906,-36.133,0.000
1737564216.810,17.090,10.742,-6.348,-21.484,0.000
1737564216.814,18.555,22.949,-28.320,-39.551,0.000
1737564216.818,31.250,2.930,-38.574,-25.391,0.000
1737564216.822,41.504,-19.043,-25.391,4.883,0.000
1737564216.826,23.438,-3.418,-14.648,12.207,0.000
1737564216.829,45.410,-3.418,-11.719,25.879,0.000
1737564216.833,32.227,6.348,-7.812,23.926,0.000
1737564216.837,-54.199,1.953,-0.488,48.340,0.000
1737564216.841,-20.020,-15.137,-8.301,14.160,0.000
1737564216.845,9.766,-20.020,-21.484,20.996,0.000
1737564216.849,0.488,-11.719,-37.598,3.906,0.000
1737564216.853,-4.395,-23.926,-28.320,-2.441,0.000
1737564216.857,26.855,-30.273,3.906,-7.812,0.000
1737564216.861,25.391,-13.672,7.324,16.113,0.000
1737564216.865,16.113,13.184,3.906,55.176,0.000
1737564216.869,40.039,18.066,5.371,28.320,0.000
1737564216.872,58.105,6.836,-7.324,6.348,0.000
1737564216.876,28.809,4.395,-9.277,-3.418,0.000
1737564216.880,-35.645,-8.301,7.812,20.996,0.000
1737564216.884,11.719,-15.625,10.254,38.086,0.000
1737564216.888,19.043,-7.324,13.184,28.320,0.000
1737564216.892,-27.832,-0.488,6.836,-7.812,0.000
1737564216.896,1.465,-3.418,-15.625,4.883,0.000
1737564216.900,0.000,-0.977,-35.645,-28.320,0.000
1737564216.904,-113.281,12.207,-39.551,-76.660,0.000
1737564216.908,-115.723,13.184,-8.789,-71.777,0.000
1737564216.911,-57.129,-9.277,9.277,-45.898,0.000
1737564216.915,-47.852,-11.719,21.484,-35.645,0.000
1737564216.919,-63.477,-1.953,4.395,0.000,0.000
1737564216.923,-162.109,-15.137,-26.855,0.000,0.000
1737564216.927,-211.426,-23.438,-6.348,0.000,0.000
1737564216.931,-167.480,-34.668,10.742,0.000,0.000
1737564216.935,-260.742,-14.648,1.953,0.000,0.000
1737564216.939,-252.930,3.418,3.906,0.000,0.000
1737564216.943,-219.727,-19.531,10.742,0.000,0.000
1737564216.947,-207.031,-18.555,4.395,0.000,0.000
1737564216.951,-167.969,10.254,-15.625,0.000,0.000
1737564216.954,-216.309,27.832,7.324,0.000,0.000
1737564216.958,-247.070,-1.953,22.461,0.000,0.000
1737564216.962,-198.730,-50.293,-6.836,0.000,0.000
1737564216.966,0.000,-31.250,0.000,-141.113,0.000
1737564216.970,0.000,3.906,0.000,-160.156,0.000
1737564216.974,0.000,-22.949,0.000,-205.566,0.000
1737564216.978,0.000,-11.230,0.000,-212.402,0.000
1737564216.982,0.000,16.602,0.000,-162.109,0.000
1737564216.986,0.000,2.930,0.000,-86.426,0.000
1737564216.990,0.000,-2.930,0.000,-34.668,0.000
1737564216.994,0.000,-16.113,0.000,-46.387,0.000
1737564216.997,0.000,-37.598,0.000,-48.340,0.000
1737564217.001,0.000,-37.598,0.000,-29.785,0.000
1737564217.005,0.000,-46.387,0.000,6.836,0.000
1737564217.009,0.000,-70.801,0.000,40.039,0.000
1737564217.013,34.668,-53.711,-20.508,32.715,0.000
1737564217.017,33.203,1.465,-62.500,-19.043,0.000
1737564217.021,-1.953,10.742,-72.754,11.719,0.000
1737564217.025,26.855,-15.625,-54.688,82.520,0.000
1737564217.029,34.180,-18.555,-26.367,46.387,0.000
1737564217.033,22.949,-32.715,-36.621,26.855,0.000
1737564217.036,29.785,-49.805,-55.664,48.340,0.000
1737564217.040,7.812,-48.340,-44.434,35.645,0.000
1737564217.044,42.969,-46.387,-42.480,40.039,0.000
1737564217.048,42.969,-43.945,-43.945,64.941,0.000
1737564217.052,28.320,-38.574,-26.367,47.363,0.000
1737564217.056,62.012,-41.504,-23.926,41.016,0.000
1737564217.060,0.000,-53.711,0.000,0.000,0.000
1737564217.064,0.000,-55.176,0.000,0.000,0.000
1737564217.068,0.000,-36.133,0.000,0.000,0.000
1737564217.072,0.000,-29.297,0.000,0.000,0.000
1737564217.076,0.000,-37.598,0.000,0.000,0.000
1737564217.079,0.000,-20.996,0.000,0.000,0.000
1737564217.083,0.000,-19.043,0.000,0.000,0.000
1737564217.087,0.000,-33.203,0.000,0.000,0.000
1737564217.091,0.000,-31.738,0.000,0.000,0.000
1737564217.095,0.000,-41.016,0.000,0.000,0.000
1737564217.099,0.000,-55.176,0.000,0.000,0.000
1737564217.103,0.000,-40.039,0.000,0.000,0.000
1737564217.107,26.855,-39.062,-46.387,47.852,0.000
1737564217.111,25.879,-51.270,-55.664,-20.996,0.000
1737564217.115,99.121,-37.109,-68.359,-20.508,0.000
1737564217.119,70.312,-16.113,-79.590,28.320,0.000
1737564217.122,-7.812,-30.273,-50.781,59.082,0.000
1737564217.126,25.879,-38.574,-5.859,16.113,0.000
1737564217.130,41.016,-9.277,6.348,-4.395,0.000
1737564217.134,14.160,-8.301,-14.648,45.898,0.000
1737564217.138,-3.906,-35.645,-33.691,6.348,0.000
1737564217.142,7.812,-50.781,-33.203,-38.086,0.000
1737564217.146,20.020,-38.086,-48.340,17.578,0.000
1737564217.150,11.719,-20.020,-56.152,72.266,0.000
1737564217.154,-20.508,-31.738,-17.090,28.320,0.000
1737564217.158,-6.348,-36.621,-15.625,-50.293,0.000
1737564217.161,48.340,-40.039,-25.879,-21.484,0.000
1737564217.165,41.016,-33.203,-14.160,18.555,0.000
1737564217.169,-32.227,-22.949,-20.020,33.691,0.000
1737564217.173,-43.945,-42.969,-14.648,27.344,0.000
1737564217.177,3.906,-18.555,-19.531,-7.812,0.000
1737564217.181,19.043,-2.930,-34.668,-25.879,0.000
1737564217.185,-0.977,-8.301,-41.016,-31.250,0.000
1737564217.189,-37.109,-20.996,-34.668,-39.062,0.000
1737564217.193,-48.340,-36.133,-33.203,-40.527,0.000
1737564217.197,-32.715,-34.180,-44.434,-11.230,0.000
1737564217.201,0.000,-35.645,-35.645,-49.805,0.000
1737564217.204,0.000,-15.137,-11.719,-60.059,0.000
1737564217.208,0.000,-18.555,4.883,-20.996,0.000
1737564217.212,0.000,-23.926,-25.391,-58.594,0.000
1737564217.216,0.000,-5.859,-51.758,-57.617,0.000
1737564217.220,0.000,-7.812,-14.648,-12.207,0.000
1737564217.224,0.000,-28.809,3.418,-72.266,0.000
1737564217.228,0.000,-22.949,-0.977,-46.875,0.000
1737564217.232,0.000,-23.926,-13.672,-8.789,0.000
1737564217.236,0.000,-27.832,-26.367,-90.332,0.000
1737564217.240,0.000,0.000,-22.949,-59.082,0.000
1737564217.243,0.000,-3.418,-0.977,28.809,0.000
1737564217.247,-11.719,-23.926,0.000,6.348,0.000
1737564217.251,-41.992,-24.414,0.000,-14.648,0.000
1737564217.255,-57.617,-16.113,0.000,-40.527,0.000
1737564217.259,-37.598,-9.277,0.000,-73.730,0.000
1737564217.263,7.324,-17.090,0.000,-62.012,0.000
1737564217.267,26.855,-10.742,0.000,-48.828,0.000
1737564217.271,-57.129,-18.555,0.000,-35.156,0.000
1737564217.275,-32.227,-19.043,0.000,-34.180,0.000
1737564217.279,-16.602,4.395,0.000,-44.434,0.000
1737564217.283,-70.801,-21.484,0.000,-84.961,0.000
1737564217.286,-2.930,-53.711,0.000,-108.887,0.000
1737564217.290,17.578,-41.016,0.000,-71.777,0.000
1737564217.294,-11.230,-19.043,-16.602,-57.129,0.000
1737564217.298,-15.137,-15.137,-31.250,-74.707,0.000
1737564217.302,-72.266,-9.277,-11.230,-54.199,0.000
1737564217.306,-62.500,-0.977,12.207,-60.059,0.000
1737564217.310,-14.648,-2.930,-4.395,-37.109,0.000
1737564217.314,-4.395,-15.625,-31.738,-40.039,0.000
1737564217.318,-15.625,-28.809,-35.645,-63.477,0.000
1737564217.322,-6.348,-20.996,-22.949,-65.918,0.000
1737564217.326,-3.906,-7.324,-28.809,-74.219,0.000
1737564217.329,-15.137,-13.672,-44.434,-62.988,0.000
1737564217.333,3.418,-15.625,-25.879,-76.660,0.000
1737564217.337,47.852,-11.230,10.254,-60.059,0.000
1737564217.341,13.672,-10.742,3.906,-41.016,0.000
1737564217.345,-77.637,-16.113,-5.859,-69.336,0.000
1737564217.349,-44.922,-21.973,-20.508,-99.121,0.000
1737564217.353,10.742,-19.043,-18.555,-66.406,0.000
1737564217.357,16.602,2.441,-10.254,-72.266,0.000
1737564217.361,-36.621,3.906,-33.203,-88.379,0.000
1737564217.365,-39.062,-20.020,-24.414,-100.586,0.000
1737564217.368,32.227,-6.836,1.465,-110.352,0.000
1737564217.372,60.059,4.395,-14.648,-109.375,0.000
1737564217.376,-15.137,-14.648,7.812,-91.309,0.000
1737564217.380,-58.594,-20.996,24.414,-114.258,0.000
1737564217.384,-22.461,-20.508,-10.254,-122.559,0.000
1737564217.388,2.930,-30.273,-27.344,-128.906,0.000
1737564217.392,-31.738,-25.391,-24.902,-188.477,0.000
1737564217.396,-17.090,-15.625,-14.648,-207.031,0.000
1737564217.400,-26.855,-19.531,-14.160,-168.457,0.000
1737564217.404,-20.020,-23.926,-20.508,-122.559,0.000
1737564217.408,16.602,-19.043,-13.672,-95.215,0.000
1737564217.411,70.312,-7.324,13.184,-44.434,0.000
1737564217.415,51.758,-19.531,7.324,39.551,0.000
1737564217.419,-18.555,-36.621,-24.902,125.977,0.000
1737564217.423,-18.555,-27.832,-24.902,172.852,0.000
1737564217.427,2.930,-17.578,-22.461,271.484,0.000
1737564217.431,14.648,-13.672,-29.297,319.336,0.000
1737564217.435,57.129,-20.996,-40.527,229.980,0.000
1737564217.439,-7.812,-25.879,-29.785,130.859,0.000
1737564217.443,-45.898,-12.207,-6.348,70.312,0.000
1737564217.447,-1.465,-2.441,-8.789,29.785,0.000
1737564217.451,1.465,-12.207,-30.762,6.348,0.000
1737564217.454,-8.789,-26.855,-18.066,-12.207,0.000
1737564217.458,-14.648,-35.645,2.441,-58.594,0.000
1737564217.462,57.129,-26.855,0.000,-81.055,0.000
1737564217.466,32.227,-19.043,-7.324,-75.195,0.000
1737564217.470,-32.715,-22.949,-18.066,-83.496,0.000
1737564217.474,-119.629,-28.320,-26.855,-145.020,0.000
1737564217.478,-58.105,1.465,-35.645,-251.465,0.000
1737564217.482,-74.219,15.625,-23.926,-268.066,0.000
1737564217.486,-141.113,-9.277,-8.789,-190.430,0.000
1737564217.490,-14.648,-16.113,-5.859,-155.762,0.000
1737564217.493,-77.637,-19.531,-15.625,-91.309,0.000
1737564217.497,-51.758,-23.926,-20.996,-142.578,0.000
1737564217.501,19.043,-21.484,-7.324,-204.102,0.000
1737564217.505,-36.621,-22.461,-10.742,-84.473,0.000
1737564217.509,51.758,-14.160,-17.090,-1.953,0.000
1737564217.513,46.387,-5.371,-4.395,-15.137,0.000
1737564217.517,6.836,-0.977,1.465,11.230,0.000
1737564217.521,-43.945,-12.207,-11.230,29.297,0.000
1737564217.525,-41.504,-16.602,-30.273,-15.137,0.000
1737564217.529,-36.621,-4.883,-27.832,16.113,0.000
1737564217.533,-59.570,-17.090,-14.160,55.664,0.000
1737564217.536,2.441,-14.648,-18.555,41.016,0.000
1737564217.540,71.289,-2.441,-14.160,74.219,0.000
1737564217.544,-62.012,-23.926,-5.371,10.742,0.000
1737564217.548,-103.027,-41.504,-16.602,-46.387,0.000
1737564217.552,-83.008,-35.156,-11.230,-61.035,0.000
1737564217.556,-91.309,-23.926,6.836,-90.820,0.000
1737564217.560,-12.695,-10.742,23.438,-62.012,0.000
1737564217.564,-13.672,-1.953,-10.742,-109.375,0.000
1737564217.568,15.625,11.230,-40.527,-65.430,0.000
1737564217.572,72.754,12.695,-11.719,120.117,0.000
1737564217.576,0.000,-33.203,-13.184,211.426,0.000
1737564217.579,0.000,-49.316,-19.043,280.762,0.000
1737564217.583,0.000,-22.949,-12.695,338.867,0.000
1737564217.587,0.000,3.418,-9.766,281.250,0.000
1737564217.591,0.000,18.066,-13.184,118.652,0.000
1737564217.595,0.000,6.348,-11.230,62.012,0.000
1737564217.599,0.000,-12.695,-7.812,62.012,0.000
1737564217.603,0.000,-28.320,4.883,98.145,0.000
1737564217.607,0.000,-25.879,-10.742,148.438,0.000
1737564217.611,0.000,-24.902,-14.648,114.258,0.000
1737564217.615,0.000,-14.160,-7.812,33.203,0.000
1737564217.618,0.000,10.742,-23.438,-10.254,0.000
1737564217.622,-44.434,7.324,-33.691,-64.941,0.000
1737564217.626,-120.117,-9.277,-27.832,-107.910,0.000
1737564217.630,-54.199,-19.531,-20.996,-74.219,0.000
1737564217.634,-46.875,-19.531,-26.855,-140.625,0.000
1737564217.638,-83.984,7.324,-19.043,-295.410,0.000
1737564217.642,-60.059,5.859,-12.207,-248.047,0.000
1737564217.646,-67.871,-8.789,-13.672,-188.965,0.000
1737564217.650,23.438,-4.883,-13.672,-199.707,0.000
1737564217.654,68.848,-0.488,-8.789,-157.227,0.000
1737564217.658,33.691,-4.395,-15.625,-119.141,0.000
1737564217.661,-14.648,-15.625,-17.090,-81.055,0.000
1737564217.665,22.461,-7.324,0.488,-17.578,0.000
1737564217.669,25.391,-2.930,-9.277,-50.781,0.000
1737564217.673,6.836,-12.207,-39.062,-8.789,0.000
1737564217.677,-70.801,-18.066,-35.645,13.184,0.000
1737564217.681,-43.457,-13.184,-34.668,-72.754,0.000
1737564217.685,20.508,-32.715,-18.555,-34.180,0.000
1737564217.689,-19.531,-43.457,11.719,15.625,0.000
1737564217.693,-0.977,-19.043,21.973,36.133,0.000
1737564217.697,-10.742,-11.719,-5.371,13.184,0.000
1737564217.700,12.207,10.254,-48.828,-35.156,0.000
1737564217.704,6.348,9.277,-30.273,-30.762,0.000
1737564217.708,-40.039,-17.578,-2.441,-29.785,0.000
1737564217.712,-11.230,-20.508,-9.766,-39.551,0.000
1737564217.716,11.230,-9.766,-9.766,-15.625,0.000
1737564217.720,-0.488,-7.812,-16.602,130.859,0.000
1737564217.724,-20.508,-18.555,-26.855,310.547,0.000
1737564217.728,-4.395,-15.625,-5.371,345.215,0.000
1737564217.732,-18.555,-7.324,8.789,271.973,0.000
1737564217.736,-42.480,-12.207,-14.160,172.363,0.000
1737564217.740,-43.457,-12.695,-34.668,87.891,0.000
1737564217.743,-20.508,-17.090,-26.855,10.254,0.000
1737564217.747,23.926,-28.320,-3.418,-29.785,0.000
1737564217.751,-23.438,-8.789,-5.859,-57.617,0.000
1737564217.755,-13.672,11.719,-32.715,-85.449,0.000
1737564217.759,41.992,10.742,-26.855,-141.113,0.000
1737564217.763,30.273,-8.789,-8.789,-196.289,0.000
1737564217.767,13.184,-6.836,-6.348,-220.703,0.000
1737564217.771,-6.836,0.000,-16.602,-201.172,0.000
1737564217.775,-11.719,-23.926,-25.879,-151.367,0.000
1737564217.779,-32.715,-16.113,-21.973,-77.148,0.000
1737564217.783,-47.852,-11.230,-18.555,-25.391,0.000
1737564217.786,-7.324,-48.340,-27.344,-3.418,0.000
1737564217.790,-49.316,-34.180,-23.926,32.227,0.000
1737564217.794,-33.203,3.906,-20.020,93.750,0.000
1737564217.798,18.066,5.371,-41.016,122.070,0.000
1737564217.802,-39.551,-6.836,-40.527,171.875,0.000
1737564217.806,-2.930,-5.371,-22.949,260.254,0.000
1737564217.810,29.785,-2.930,-13.184,0.000,0.000
1737564217.814,2.930,-23.926,-14.160,0.000,0.000
1737564217.818,-16.113,-27.344,-15.137,0.000,0.000
1737564217.822,-41.992,-10.254,-9.277,0.000,0.000
1737564217.825,-56.641,-18.555,-11.230,0.000,0.000
1737564217.829,-11.230,-17.578,-16.602,0.000,0.000
1737564217.833,36.621,-20.020,-52.734,0.000,0.000
1737564217.837,-0.488,-37.109,-51.270,0.000,0.000
1737564217.841,-67.871,-45.410,2.930,0.000,0.000
1737564217.845,-34.668,-28.809,17.578,0.000,0.000
1737564217.849,-34.668,-10.742,5.371,0.000,0.000
1737564217.853,-58.594,-1.465,-7.812,0.000,0.000
1737564217.857,-5.859,1.465,-20.996,122.559,0.000
1737564217.861,42.480,4.883,-14.160,74.219,0.000
1737564217.865,0.000,-6.836,-22.461,48.340,0.000
1737564217.868,-41.504,-27.832,-36.621,32.227,0.000
1737564217.872,-19.531,-20.508,-31.738,51.758,0.000
1737564217.876,22.461,-16.602,-9.277,9.766,0.000
1737564217.880,-27.344,-19.043,-6.348,-31.738,0.000
1737564217.884,-4.395,-12.695,-16.602,-21.484,0.000
1737564217.888,40.527,-11.230,-19.531,-22.461,0.000
1737564217.892,0.488,-12.695,-27.344,-33.203,0.000
1737564217.896,-14.160,13.672,-19.043,6.836,0.000
1737564217.900,0.977,12.695,-13.672,7.324,0.000
1737564217.904,0.000,-11.230,-13.672,-5.859,0.000
1737564217.908,0.000,-12.207,-19.531,-15.625,0.000
1737564217.911,0.000,-15.625,-36.133,-40.039,0.000
1737564217.915,0.000,-23.926,-28.320,-57.617,0.000
1737564217.919,0.000,-30.273,-14.648,-91.309,0.000
1737564217.923,0.000,-19.531,-20.996,-99.609,0.000
1737564217.927,0.000,-20.996,-16.602,-83.496,0.000
1737564217.931,0.000,-18.555,-19.043,-59.082,0.000
1737564217.935,0.000,3.418,-11.719,-50.781,0.000
1737564217.939,0.000,21.973,6.836,-46.875,0.000
1737564217.943,0.000,11.230,-11.230,-76.172,0.000
1737564217.947,0.000,-7.812,-30.273,-104.004,0.000
1737564217.950,-41.504,-9.766,-48.828,-88.867,0.000
1737564217.954,1.465,-12.207,-52.246,-93.750,0.000
1737564217.958,-13.672,-10.254,-20.508,-97.168,0.000
1737564217.962,-6.836,-11.230,-2.930,-62.012,0.000
1737564217.966,20.020,-37.109,-4.883,-17.090,0.000
1737564217.970,46.875,-57.617,-17.578,-57.129,0.000
1737564217.974,-49.316,-21.973,-35.156,-86.426,0.000
1737564217.978,-83.496,4.395,-30.762,-65.918,0.000
1737564217.982,-14.160,-17.578,-21.484,-182.129,0.000
1737564217.986,14.160,-22.461,-21.484,-128.906,0.000
1737564217.990,4.883,-11.230,-15.625,-35.156,0.000
1737564217.993,-5.371,-15.625,-8.789,-85.938,0.000
1737564217.997,-9.766,-8.301,-28.809,-61.035,0.000
1737564218.001,5.371,0.488,-31.250,-49.805,0.000
1737564218.005,-8.789,-6.348,-20.996,-82.031,0.000
1737564218.009,8.301,-20.508,-20.020,-43.457,0.000
1737564218.013,37.109,-13.672,-18.066,-9.277,0.000
1737564218.017,14.648,-16.602,-14.648,-41.992,0.000
1737564218.021,9.766,-21.973,9.277,-32.227,0.000
1737564218.025,-19.531,-3.418,20.508,2.930,0.000
1737564218.029,-16.113,-0.977,-8.301,-23.438,0.000
1737564218.033,31.738,-0.977,-20.508,-44.434,0.000
1737564218.036,39.551,-15.625,-6.836,-69.336,0.000
1737564218.040,5.859,-28.809,3.906,-54.199,0.000
1737564218.044,-13.184,-24.414,1.953,-2.930,0.000
1737564218.048,15.625,-17.090,-20.996,-7.812,0.000
1737564218.052,-2.441,-5.371,-24.902,1.953,0.000
1737564218.056,11.719,-0.977,-11.719,9.277,0.000
1737564218.060,-2.441,-12.207,-13.184,-49.316,0.000
1737564218.064,-62.012,-25.879,-22.461,-72.754,0.000
1737564218.068,-25.879,-16.113,-20.508,-59.570,0.000
1737564218.072,13.672,-1.465,-16.113,-39.551,0.000
1737564218.075,-27.832,-11.719,-31.738,-53.223,0.000
1737564218.079,-19.531,-28.809,-48.340,-57.129,0.000
1737564218.083,38.574,-19.043,-32.227,33.203,0.000
1737564218.087,15.137,-37.598,-1.465,51.270,0.000
1737564218.091,-51.758,-59.570,-12.207,-50.293,0.000
1737564218.095,-25.879,-21.973,-28.809,-121.582,0.000
1737564218.099,-25.391,-2.930,-20.996,-108.398,0.000
1737564218.103,-0.488,-11.230,-11.230,-50.293,0.000
1737564218.107,46.387,-10.742,-11.719,-30.273,0.000
1737564218.111,2.441,-20.508,-18.066,-48.828,0.000
1737564218.115,-57.617,-26.855,-24.414,-43.945,0.000
1737564218.118,-15.137,-18.066,-25.391,11.719,0.000
1737564218.122,42.480,-18.066,-4.883,23.438,0.000
1737564218.126,-14.160,-5.371,0.488,-15.137,0.000
1737564218.130,-40.527,-14.648,-21.973,-32.715,0.000
1737564218.134,-16.602,-28.320,-34.180,-69.824,0.000
1737564218.138,12.695,-22.461,-30.273,-48.340,0.000
1737564218.142,16.113,-32.715,-17.578,-33.203,0.000
1737564218.146,24.902,-34.668,-23.926,-67.383,0.000
1737564218.150,-4.395,-22.461,-24.414,-49.316,0.000
1737564218.154,-39.551,-12.207,-12.207,-8.301,0.000
1737564218.158,-24.902,-8.301,-17.578,-23.926,0.000
1737564218.161,28.320,-4.395,-18.555,-37.598,0.000
1737564218.165,44.922,0.000,-0.488,28.809,0.000
1737564218.169,5.859,-11.230,-7.324,23.926,0.000
1737564218.173,-1.953,-26.367,-30.273,-74.219,0.000
1737564218.177,-51.270,-23.438,-32.715,-50.293,0.000
1737564218.181,-36.133,-15.625,-27.344,-12.695,0.000
1737564218.185,2.930,-22.949,-10.254,-2.930,0.000
1737564218.189,35.645,-32.715,-13.184,25.391,0.000
1737564218.193,40.039,-33.203,-25.391,-1.465,0.000
1737564218.197,13.184,-30.762,-27.832,-28.809,0.000
1737564218.200,-28.320,-23.926,-22.461,-25.391,0.000
1737564218.204,-33.691,-4.395,-2.930,-9.766,0.000
1737564218.208,16.602,-8.301,-0.977,-29.297,0.000
1737564218.212,3.906,-18.066,5.371,-32.715,0.000
1737564218.216,21.973,-14.648,-2.441,-38.574,0.000
1737564218.220,-19.043,-6.836,-18.066,-54.199,0.000
1737564218.224,-103.027,-3.418,-14.160,-26.855,0.000
1737564218.228,10.254,-5.371,-3.906,-7.324,0.000
1737564218.232,76.660,-3.906,0.000,17.578,0.000
1737564218.236,-122.070,-14.160,-21.484,-16.602,0.000
1737564218.240,-124.023,-28.320,-28.809,-45.410,0.000
1737564218.243,7.812,-23.926,-19.043,-10.254,0.000
1737564218.247,13.184,-16.113,-8.789,-3.906,0.000
1737564218.251,-0.488,-10.254,-8.789,-51.270,0.000
1737564218.255,15.137,-3.418,-14.648,-21.973,0.000
1737564218.259,-13.184,-28.809,-10.742,-34.668,0.000
1737564218.263,-7.812,-44.434,3.418,-17.578,0.000
1737564218.267,-32.715,0.488,10.742,9.277,0.000
1737564218.271,-27.344,22.949,-14.160,-26.855,0.000
1737564218.275,-9.277,2.930,-28.809,-33.691,0.000
1737564218.279,14.648,-7.812,-26.367,10.742,0.000
1737564218.283,-5.371,-22.949,-13.184,2.441,0.000
1737564218.286,-46.875,-27.832,0.000,-65.918,0.000
1737564218.290,-55.664,-24.414,-2.930,-62.988,0.000
1737564218.294,4.395,-20.020,-11.230,-34.668,0.000
1737564218.298,50.781,-2.930,-11.719,-29.785,0.000
1737564218.302,1.953,-5.371,-3.906,-29.297,0.000
1737564218.306,-53.711,-19.531,-15.625,-5.859,0.000
1737564218.310,-44.434,-35.645,-17.090,14.648,0.000
1737564218.314,7.324,-45.410,4.395,-37.598,0.000
1737564218.318,-26.855,-10.254,-0.977,-55.176,0.000
1737564218.322,-32.715,16.113,-19.531,-25.879,0.000
1737564218.325,-37.598,-13.184,-25.879,-23.926,0.000
1737564218.329,-46.387,-16.602,-15.137,-17.090,0.000
1737564218.333,-9.766,11.230,-21.484,7.812,0.000
1737564218.337,-15.625,1.465,-15.625,-3.418,0.000
1737564218.341,1.465,-15.625,-9.277,-43.945,0.000
1737564218.345,-12.207,-16.602,-24.414,-42.969,0.000
1737564218.349,3.418,-8.301,-11.230,-32.715,0.000
1737564218.353,54.688,-24.902,-1.953,-16.602,0.000
1737564218.357,-10.742,-31.738,7.324,15.137,0.000
1737564218.361,-43.457,-6.348,15.137,-20.020,0.000
1737564218.365,-35.645,-18.555,-19.043,-82.031,0.000
1737564218.368,-45.898,-31.250,-41.992,-54.199,0.000
1737564218.372,-32.227,-25.879,-25.879,0.488,0.000
1737564218.376,-0.977,-14.648,-11.719,-14.648,0.000
1737564218.380,-25.391,-3.418,-11.719,-9.766,0.000
1737564218.384,-68.848,-23.926,-20.020,-10.742,0.000
1737564218.388,17.578,-33.691,-25.391,-24.902,0.000
1737564218.392,39.551,-26.367,-16.113,-47.363,0.000
1737564218.396,-30.273,-22.461,-0.977,-57.129,0.000
1737564218.400,-72.266,-27.344,-9.277,-56.152,0.000
1737564218.404,-59.082,-19.043,-31.738,-48.828,0.000
1737564218.408,2.441,-7.812,-33.203,6.348,0.000
1737564218.411,-9.766,-15.137,-25.879,9.766,0.000
1737564218.415,-39.062,-24.902,-22.461,-51.758,0.000
1737564218.419,-4.395,-37.598,-16.602,-71.777,0.000
1737564218.423,21.973,-26.855,-17.578,-40.527,0.000
1737564218.427,12.695,12.695,-16.113,20.996,0.000
1737564218.431,13.184,15.625,-5.371,30.762,0.000
1737564218.435,-3.906,0.977,-5.371,19.531,0.000
1737564218.439,-25.879,8.789,-4.883,6.348,0.000
1737564218.443,-10.742,-0.977,-7.812,-37.598,0.000
1737564218.447,-28.809,-15.625,-22.949,-19.043,0.000
1737564218.450,-19.043,-21.484,-24.414,20.996,0.000
1737564218.454,11.230,-33.203,-12.695,-9.277,0.000
1737564218.458,15.625,-8.301,-2.441,-57.129,0.000
1737564218.462,-19.531,25.391,3.418,-26.855,0.000
1737564218.466,0.000,8.301,-7.324,2.930,0.000
1737564218.470,0.000,-30.762,-36.133,-13.184,0.000
1737564218.474,0.000,-36.133,-40.039,-43.457,0.000
1737564218.478,0.000,-16.113,-37.109,-15.137,0.000
1737564218.482,0.000,5.859,-31.738,25.879,0.000
1737564218.486,0.000,-17.578,-19.531,0.488,0.000
1737564218.490,0.000,-36.621,-14.160,26.367,0.000
1737564218.493,0.000,-13.184,-19.043,36.133,0.000
1737564218.497,0.000,-11.719,-21.484,-66.406,0.000
1737564218.501,0.000,-4.883,-4.883,-50.781,0.000
1737564218.505,0.000,0.977,0.488,10.742,0.000
1737564218.509,0.000,-20.508,-8.789,17.578,0.000
1737564218.513,-22.461,-25.879,-21.484,21.484,0.000
1737564218.517,-9.766,-9.766,-10.742,-15.625,0.000
1737564218.521,-4.883,-0.488,-1.465,-46.875,0.000
1737564218.525,74.219,9.766,-9.277,-16.113,0.000
1737564218.529,31.738,3.906,4.395,34.180,0.000
1737564218.533,-26.367,-11.719,-1.953,0.000,0.000
1737564218.536,-6.348,-20.508,-19.531,-25.391,0.000
1737564218.540,23.438,-30.762,-4.395,40.039,0.000
1737564218.544,43.945,-18.555,-0.488,25.391,0.000
1737564218.548,49.805,-3.418,-22.949,-32.715,0.000
1737564218.552,-40.527,-23.438,-27.832,28.320,0.000
1737564218.556,-65.918,-30.273,-13.672,-14.648,0.000
1737564218.560,-11.230,-18.555,-8.789,-49.316,0.000
1737564218.564,4.883,-17.090,-13.672,-15.625,0.000
1737564218.568,-39.551,-15.137,-11.230,-10.254,0.000
1737564218.572,-38.086,-9.277,-4.395,-10.742,0.000
1737564218.575,-18.066,-16.113,-13.184,-22.461,0.000
1737564218.579,4.883,-23.438,-13.184,-10.742,0.000
1737564218.583,-9.277,-29.785,-20.020,0.977,0.000
1737564218.587,5.371,-25.879,-20.508,17.578,0.000
1737564218.591,14.648,-18.066,-17.578,-12.695,0.000
1737564218.595,-64.941,-37.109,-14.648,-24.902,0.000
1737564218.599,-66.406,-42.480,-4.395,-20.020,0.000
1737564218.603,-29.297,-25.879,-4.883,-21.484,0.000
1737564218.607,25.391,-20.996,-8.789,12.695,0.000
1737564218.611,19.043,0.977,-18.066,17.090,0.000
1737564218.615,-41.016,16.602,-4.883,-62.500,0.000
1737564218.618,-62.988,-0.977,6.348,-42.480,0.000
1737564218.622,-6.348,-8.301,-1.465,25.879,0.000
1737564218.626,21.973,-8.301,-6.836,-12.695,0.000
1737564218.630,-16.602,-18.066,-8.301,-8.789,0.000
1737564218.634,-89.844,-32.227,-2.930,3.418,0.000
1737564218.638,-25.391,-41.992,-15.625,-30.273,0.000
1737564218.642,54.688,-25.879,-31.250,1.953,0.000
1737564218.646,-52.246,-3.418,-8.789,42.969,0.000
1737564218.650,-39.062,-9.277,-3.906,-15.625,0.000
1737564218.654,20.020,-22.461,-5.859,-52.246,0.000
1737564218.658,-12.695,-5.859,-2.930,-32.227,0.000
1737564218.661,16.113,16.602,-24.902,-2.441,0.000
1737564218.665,11.719,13.184,-26.855,15.137,0.000
1737564218.669,-31.250,-26.367,-9.277,16.113,0.000
1737564218.673,-5.371,-40.039,-14.160,-5.859,0.000
1737564218.677,-12.207,-5.371,-14.648,-39.062,0.000
1737564218.681,-23.438,8.301,-2.441,-40.527,0.000
1737564218.685,-28.809,-8.789,-8.301,-13.672,0.000
1737564218.689,-38.086,-22.461,-13.184,-13.184,0.000
1737564218.693,-83.984,-27.832,-3.418,-49.805,0.000
1737564218.697,-51.758,-10.742,-2.441,-32.715,0.000
1737564218.700,30.273,-6.348,-12.695,-41.016,0.000
1737564218.704,28.809,-31.250,-20.508,-27.344,0.000
1737564218.708,17.090,-21.973,-15.625,5.371,0.000
1737564218.712,8.301,-2.930,-19.531,-1.465,0.000
1737564218.716,-54.199,-14.648,-40.039,-22.461,0.000
1737564218.720,-82.031,-25.879,-24.902,-49.316,0.000
1737564218.724,25.879,-22.461,-3.418,7.812,0.000
1737564218.728,39.062,-29.785,-14.160,31.250,0.000
1737564218.732,-35.645,-34.668,-31.738,-35.645,0.000
1737564218.736,-43.945,-19.043,-27.344,-60.547,0.000
1737564218.740,-15.625,-11.230,-12.695,-53.711,0.000
1737564218.743,-60.547,-7.324,-10.742,-25.879,0.000
1737564218.747,0.000,-16.602,-12.207,41.016,0.000
1737564218.751,0.000,-28.320,-17.090,-11.719,0.000
1737564218.755,0.000,-29.297,-27.832,-17.090,0.000
1737564218.759,0.000,-37.109,-39.062,3.418,0.000
1737564218.763,0.000,-18.555,-19.531,-24.414,0.000
1737564218.767,0.000,-16.113,-9.277,28.809,0.000
1737564218.771,0.000,-23.926,-33.691,25.879,0.000
1737564218.775,0.000,-14.648,-32.715,-33.691,0.000
1737564218.779,0.000,-12.207,-6.348,-30.762,0.000
1737564218.782,0.000,-15.625,-3.418,6.348,0.000
1737564218.786,0.000,-15.137,-9.277,0.488,0.000
1737564218.790,0.000,-28.320,-21.973,8.301,0.000
1737564218.794,-15.137,-42.480,-36.621,0.000,0.000
1737564218.798,38.574,-27.832,-28.320,-62.500,0.000
1737564218.802,-40.527,-24.414,-18.066,-90.332,0.000
1737564218.806,-18.555,-36.133,-14.648,-55.664,0.000
1737564218.810,14.648,-30.762,-26.367,-9.277,0.000
1737564218.814,13.184,-10.742,-32.715,6.348,0.000
1737564218.818,-12.207,-6.836,-21.973,-13.672,0.000
1737564218.822,-37.109,-29.297,-6.348,-33.203,0.000
1737564218.825,23.438,-33.203,-8.301,-1.465,0.000
1737564218.829,12.695,-18.066,-21.484,24.414,0.000
1737564218.833,-85.938,-10.254,-18.555,-10.742,0.000
1737564218.837,-70.312,-13.672,-26.367,-34.668,0.000
1737564218.841,-74.707,-15.625,-25.391,16.602,0.000
1737564218.845,-72.754,-29.297,-14.160,-7.812,0.000
1737564218.849,-8.789,-33.691,-8.789,-69.824,0.000
1737564218.853,-27.344,-12.207,-16.602,-46.387,0.000
1737564218.857,-1.953,-17.090,-30.762,-45.898,0.000
1737564218.861,-35.645,-31.738,-34.180,-57.129,0.000
1737564218.865,-71.289,-11.230,-25.879,-25.391,0.000
1737564218.868,23.926,-4.395,-28.320,8.301,0.000
1737564218.872,43.457,-10.742,-24.902,13.672,0.000
1737564218.876,-20.508,-44.922,-12.695,-4.395,0.000
1737564218.880,-35.645,-70.801,-9.766,-0.488,0.000
1737564218.884,-38.086,-16.113,2.930,-10.742,0.000
1737564218.888,-45.898,22.949,32.227,-16.602,0.000
1737564218.892,-57.129,44.434,25.391,-14.648,0.000
1737564218.896,-41.992,16.602,41.016,-57.129,0.000
1737564218.900,-0.488,1.465,74.707,-73.242,0.000
1737564218.904,19.043,55.664,126.953,-24.414,0.000
1737564218.907,-76.660,30.762,119.141,-69.336,0.000
1737564218.911,-55.664,71.289,19.043,-69.336,0.000
1737564218.915,-13.672,194.336,-68.848,-53.711,0.000
1737564218.919,-54.199,-12.695,-101.562,-76.660,0.000
1737564218.923,-122.070,-130.371,-23.438,-132.324,0.000
1737564218.927,-134.766,23.438,197.266,-178.223,0.000
1737564218.931,-156.738,9.766,348.633,-200.195,0.000
1737564218.935,-220.215,-38.086,394.531,-261.230,0.000
1737564218.939,-237.793,43.945,708.496,-306.641,0.000
1737564218.943,-257.812,74.707,973.145,-279.785,0.000
1737564218.947,-214.355,3.418,965.332,-240.723,0.000
1737564218.950,-195.312,93.750,966.309,-207.031,0.000
1737564218.954,-229.980,581.543,972.168,-231.934,0.000
1737564218.958,-206.055,958.008,970.703,-352.539,0.000
1737564218.962,-173.828,966.309,970.703,-354.980,0.000
1737564218.966,-286.133,963.379,970.703,-406.250,0.000
1737564218.970,-356.445,973.145,970.703,-421.875,0.000
1737564218.974,-314.941,970.703,970.703,-394.043,0.000
1737564218.978,-290.527,970.703,970.703,-405.273,0.000
1737564218.982,-260.254,970.703,970.703,-376.953,0.000
1737564218.986,-302.734,971.680,970.703,-365.234,0.000
1737564218.990,-288.086,966.797,970.703,-360.840,0.000
1737564218.993,-240.723,973.145,970.703,-300.781,0.000
1737564218.997,-188.965,949.707,970.703,-349.121,0.000
1737564219.001,-227.539,816.895,970.703,-362.793,0.000
1737564219.005,-333.496,657.227,970.703,-276.367,0.000
1737564219.009,-255.859,532.227,971.680,-293.945,0.000
1737564219.013,-190.918,452.148,968.750,-253.418,0.000
1737564219.017,-258.301,385.742,970.215,-217.773,0.000
1737564219.021,-224.121,306.641,967.285,-282.715,0.000
1737564219.025,-163.574,226.562,881.836,-238.770,0.000
1737564219.029,-208.008,152.344,756.348,-167.969,0.000
1737564219.032,-190.918,83.984,638.184,-124.512,0.000
1737564219.036,-143.066,35.156,530.762,-116.211,0.000
1737564219.040,-138.184,-24.414,448.242,-94.727,0.000
1737564219.044,-147.949,-114.258,360.840,-58.594,0.000
1737564219.048,-106.934,-115.723,263.184,-69.336,0.000
1737564219.052,-62.500,-118.164,181.152,-78.613,0.000
1737564219.056,-37.109,-177.246,112.305,-16.602,0.000
1737564219.060,-49.316,-199.219,60.547,-61.523,0.000
1737564219.064,-33.691,-225.098,17.090,-108.398,0.000
1737564219.068,40.527,-286.133,-12.695,-18.066,0.000
1737564219.072,39.062,-289.062,-36.621,56.152,0.000
1737564219.075,0.000,-311.523,-49.805,99.121,0.000
1737564219.079,0.000,-329.590,-82.520,104.004,0.000
1737564219.083,0.000,-297.852,-137.207,71.289,0.000
1737564219.087,0.000,-277.344,-156.738,62.012,0.000
1737564219.091,0.000,-274.902,-157.715,72.754,0.000
1737564219.095,0.000,-320.312,-157.227,68.359,0.000
1737564219.099,0.000,-345.703,-144.043,100.586,0.000
1737564219.103,0.000,-302.246,-145.020,167.480,0.000
1737564219.107,0.000,-281.250,-161.133,157.715,0.000
1737564219.111,0.000,-257.812,-171.387,120.605,0.000
1737564219.115,0.000,-264.160,-194.336,126.953,0.000
1737564219.118,0.000,-295.898,-220.703,117.188,0.000
1737564219.122,151.367,-234.375,-229.980,107.910,0.000
1737564219.126,155.273,-210.449,-204.102,136.230,0.000
1737564219.130,112.793,-240.234,-194.336,164.551,0.000
1737564219.134,115.234,-244.141,-200.684,159.668,0.000
1737564219.138,134.766,-220.703,-191.406,92.773,0.000
1737564219.142,145.508,-208.496,-192.871,125.977,0.000
1737564219.146,140.137,-206.055,-205.078,159.668,0.000
1737564219.150,89.844,-193.848,-214.355,150.879,0.000
1737564219.154,100.586,-208.008,-211.426,154.297,0.000
1737564219.157,178.711,-213.867,-217.285,100.586,0.000
1737564219.161,138.672,-173.828,-209.961,104.492,0.000
1737564219.165,118.164,-154.785,-176.270,130.371,0.000
1737564219.169,0.000,-163.086,0.000,119.629,0.000
1737564219.173,0.000,-159.180,0.000,178.711,0.000
1737564219.177,0.000,-163.574,0.000,136.719,0.000
1737564219.181,0.000,-171.387,0.000,29.297,0.000
1737564219.185,0.000,-144.531,0.000,44.922,0.000
1737564219.189,0.000,-129.883,0.000,93.750,0.000
1737564219.193,0.000,-133.301,0.000,83.496,0.000
1737564219.197,0.000,-146.973,0.000,90.332,0.000
1737564219.200,0.000,-165.527,0.000,91.797,0.000
1737564219.204,0.000,-126.953,0.000,93.262,0.000
1737564219.208,0.000,-87.402,0.000,98.633,0.000
1737564219.212,0.000,-112.793,0.000,80.566,0.000
1737564219.216,105.469,-118.652,-163.574,78.125,0.000
1737564219.220,106.445,-112.305,-166.992,28.809,0.000
1737564219.224,126.465,-101.074,-187.500,8.789,0.000
1737564219.228,77.637,-90.820,-203.613,32.227,0.000
1737564219.232,79.102,-97.656,-184.082,37.109,0.000
1737564219.236,82.031,-88.379,-168.945,28.809,0.000
1737564219.239,82.520,-83.984,-174.316,20.508,0.000
1737564219.243,102.051,-87.891,-165.527,35.645,0.000
1737564219.247,81.055,-93.262,-151.855,17.578,0.000
1737564219.251,108.887,-113.281,-150.879,36.133,0.000
1737564219.255,109.375,-103.516,-158.691,37.598,0.000
1737564219.259,81.543,-76.660,-174.316,53.223,0.000
1737564219.263,56.641,-66.895,-145.996,55.176,0.000
1737564219.267,21.484,-63.477,-123.047,-32.715,0.000
1737564219.271,23.926,-66.895,-117.188,-28.809,0.000
1737564219.275,15.137,-65.430,-115.723,14.648,0.000
1737564219.279,52.734,-67.383,-113.770,-4.395,0.000
1737564219.282,85.938,-63.477,-118.652,36.621,0.000
1737564219.286,-25.391,-69.824,-113.281,59.082,0.000
1737564219.290,0.000,-75.195,-100.586,8.301,0.000
1737564219.294,38.574,-66.895,-104.980,-1.465,0.000
1737564219.298,21.973,-65.430,-116.211,-5.371,0.000
1737564219.302,62.012,-75.684,-114.746,3.418,0.000
1737564219.306,47.363,-63.965,-91.309,35.645,0.000
1737564219.310,0.000,-39.062,-96.191,0.000,0.000
1737564219.314,0.000,-46.875,-114.258,0.000,0.000
1737564219.318,0.000,-54.199,-103.516,0.000,0.000
1737564219.322,0.000,-58.594,-90.820,0.000,0.000
1737564219.325,0.000,-71.777,-103.516,0.000,0.000
1737564219.329,0.000,-71.289,-110.840,0.000,0.000
1737564219.333,0.000,-59.082,-99.609,0.000,0.000
1737564219.337,0.000,-46.387,-92.285,0.000,0.000
1737564219.341,0.000,-47.852,-85.449,0.000,0.000
1737564219.345,0.000,-60.059,-91.797,0.000,0.000
1737564219.349,0.000,-58.105,-101.562,0.000,0.000
1737564219.353,0.000,-72.266,-92.773,0.000,0.000
1737564219.357,-28.809,-71.777,-86.914,-21.484,0.000
1737564219.361,17.578,-38.574,-106.445,-9.766,0.000
1737564219.364,39.062,-24.414,-88.379,-51.270,0.000
1737564219.368,10.254,-32.715,-62.988,-31.250,0.000
1737564219.372,-15.137,-32.715,-70.801,-8.789,0.000
1737564219.376,8.301,-30.762,-66.895,-42.969,0.000
1737564219.380,24.902,-43.945,-71.777,-9.277,0.000
1737564219.384,33.691,-39.062,-78.125,7.812,0.000
1737564219.388,30.273,-32.227,-74.219,-11.719,0.000
1737564219.392,-59.082,-43.457,-71.289,1.465,0.000
1737564219.396,-36.133,-43.457,-69.336,27.832,0.000
1737564219.400,42.480,-44.922,-64.453,19.043,0.000
1737564219.404,19.531,-38.086,-65.918,-13.672,0.000
1737564219.407,-2.441,-30.762,-68.848,0.488,0.000
1737564219.411,8.789,-39.062,-62.988,2.441,0.000
1737564219.415,17.578,-55.176,-56.641,-42.480,0.000
1737564219.419,29.297,-41.016,-74.707,-9.277,0.000
1737564219.423,64.453,-11.719,-96.680,-21.973,0.000
1737564219.427,29.297,-15.625,-99.609,-42.969,0.000
1737564219.431,-46.387,-25.391,-73.730,-55.664,0.000
1737564219.435,-44.922,-28.320,-40.039,-72.754,0.000
1737564219.439,13.184,-32.227,-39.062,-3.418,0.000
1737564219.443,36.621,-22.461,-59.570,36.133,0.000
1737564219.447,22.949,-14.648,-72.266,-19.531,0.000
1737564219.450,19.531,-22.461,-81.543,-6.348,0.000
1737564219.454,3.906,-31.738,-69.824,6.836,0.000
1737564219.458,6.836,-34.668,-46.387,-46.875,0.000
1737564219.462,8.789,-28.809,-48.828,-42.480,0.000
1737564219.466,-20.996,-23.926,-52.246,-2.930,0.000
1737564219.470,2.441,-22.461,-45.898,0.488,0.000
1737564219.474,49.316,-22.949,-52.246,-12.207,0.000
1737564219.478,-1.465,-38.574,-61.523,-25.391,0.000
1737564219.482,-16.602,-41.992,-59.082,-30.762,0.000
1737564219.486,34.668,-30.273,-55.176,-11.719,0.000
1737564219.489,10.742,-31.738,-58.594,10.742,0.000
1737564219.493,-0.977,-11.719,-53.223,1.953,0.000
1737564219.497,11.230,-7.324,-35.645,-47.852,0.000
1737564219.501,-9.277,-22.461,-35.645,-22.461,0.000
1737564219.505,8.301,-15.625,-47.363,-6.348,0.000
1737564219.509,-11.230,-36.133,-50.293,-3.418,0.000
1737564219.513,12.695,-52.734,-56.641,8.789,0.000
1737564219.517,48.828,-24.902,-60.547,0.488,0.000
1737564219.521,44.922,-13.184,-46.387,3.418,0.000
1737564219.525,-20.020,-28.320,-37.109,-20.996,0.000
1737564219.529,-30.762,-21.973,-41.992,-21.484,0.000
1737564219.532,-0.977,-16.113,-50.781,-9.766,0.000
1737564219.536,-25.391,-21.973,-44.922,-22.949,0.000
1737564219.540,-2.930,-27.344,-35.645,-36.133,0.000
1737564219.544,-35.156,-23.438,-43.945,-3.418,0.000
1737564219.548,-23.926,-26.855,-48.340,26.855,0.000
1737564219.552,48.828,-24.902,-43.457,1.953,0.000
1737564219.556,4.395,-12.695,-41.016,-36.133,0.000
1737564219.560,-14.648,-27.832,-46.387,-61.035,0.000
1737564219.564,8.301,-41.016,-49.805,-32.227,0.000
1737564219.568,-32.715,-27.832,-58.594,-22.949,0.000
1737564219.572,-32.227,-20.996,-78.125,-41.504,0.000
1737564219.575,-15.137,-23.438,-66.406,-17.578,0.000
1737564219.579,-20.508,-24.902,-47.852,-2.930,0.000
1737564219.583,-8.301,-40.039,-53.711,-46.387,0.000
1737564219.587,-0.977,-45.410,-57.617,-55.176,0.000
1737564219.591,0.000,-26.367,-54.688,-8.789,0.000
1737564219.595,0.000,-14.160,-41.992,19.043,0.000
1737564219.599,0.000,-18.066,-51.758,17.578,0.000
1737564219.603,0.000,-21.484,-70.312,-24.414,0.000
1737564219.607,0.000,-27.832,-59.082,-26.855,0.000
1737564219.611,0.000,-37.598,-40.527,-13.672,0.000
1737564219.614,0.000,-33.203,-40.527,-40.527,0.000
1737564219.618,0.000,-30.273,-41.504,-42.480,0.000
1737564219.622,0.000,-29.297,-39.062,-36.621,0.000
1737564219.626,0.000,-30.762,-42.969,-10.742,0.000
1737564219.630,0.000,-34.180,-54.199,-7.324,0.000
1737564219.634,0.000,-28.809,-62.500,-33.691,0.000
1737564219.638,2.930,-21.484,-50.293,-39.551,0.000
1737564219.642,-58.594,-15.625,-29.785,-34.668,0.000
1737564219.646,-48.828,-21.484,-21.484,16.602,0.000
1737564219.650,17.578,-36.133,-25.879,-15.137,0.000
1737564219.654,5.859,-29.297,-22.461,-49.316,0.000
1737564219.657,11.230,-19.531,-23.438,8.789,0.000
1737564219.661,15.625,-17.090,-31.250,3.906,0.000
1737564219.665,-22.949,-14.648,-41.016,-98.145,0.000
1737564219.669,3.418,-16.113,-44.922,-84.961,0.000
1737564219.673,18.555,-20.020,-49.316,-37.109,0.000
1737564219.677,30.762,-18.555,-52.246,-23.438,0.000
1737564219.681,14.160,-25.879,-39.551,-1.465,0.000
1737564219.685,-38.086,-34.180,0.000,1.953,0.000
1737564219.689,-12.695,-28.320,0.000,-13.672,0.000
1737564219.693,50.293,-24.414,0.000,-17.090,0.000
1737564219.697,-3.418,-28.809,0.000,-17.090,0.000
1737564219.700,-37.598,-40.039,0.000,-13.184,0.000
1737564219.704,-29.297,-32.715,0.000,-23.438,0.000
1737564219.708,-15.137,-27.344,0.000,-35.156,0.000
1737564219.712,-11.719,-34.180,0.000,-7.324,0.000
1737564219.716,-11.719,-26.367,0.000,-48.340,0.000
1737564219.720,-10.254,-10.254,0.000,-68.359,0.000
1737564219.724,-29.785,-5.859,0.000,-41.504,0.000
1737564219.728,62.988,-14.648,0.000,21.973,0.000
1737564219.732,66.895,-24.902,-26.367,41.992,0.000
1737564219.736,-64.453,-27.344,-32.715,-29.297,0.000
1737564219.739,-40.527,-27.832,-39.062,-50.781,0.000
1737564219.743,-17.578,-34.668,-32.715,-21.973,0.000
1737564219.747,-6.348,-30.273,-20.996,-11.719,0.000
1737564219.751,-17.090,-22.461,-31.738,-20.508,0.000
1737564219.755,-20.508,-26.855,-56.152,-15.625,0.000
1737564219.759,-0.488,-29.297,-39.551,-12.207,0.000
1737564219.763,-14.160,-33.691,-21.973,-35.645,0.000
1737564219.767,-24.414,-25.879,-27.832,-7.812,0.000
1737564219.771,12.695,-23.438,-28.809,33.691,0.000
1737564219.775,2.930,-31.738,-24.902,-2.930,0.000
1737564219.779,-40.527,-16.113,-47.363,-56.152,0.000
1737564219.782,-46.875,-0.977,-37.598,-33.203,0.000
1737564219.786,-15.137,-3.906,-16.113,11.230,0.000
1737564219.790,-34.180,-7.324,-2.930,-5.371,0.000
1737564219.794,-56.641,-23.438,-13.672,-30.762,0.000
1737564219.798,10.254,-40.039,-16.113,-27.832,0.000
1737564219.802,48.340,-20.508,-20.996,-11.230,0.000
1737564219.806,-35.645,-7.324,-33.691,26.367,0.000
1737564219.810,-52.734,-12.695,-27.344,6.836,0.000
1737564219.814,-23.438,-14.160,-28.320,-64.941,0.000
1737564219.818,42.480,-15.625,-45.898,-43.945,0.000
1737564219.821,59.570,-19.043,-52.246,-11.230,0.000
1737564219.825,0.000,-16.113,-53.223,0.000,0.000
1737564219.829,0.000,-17.090,-50.781,0.000,0.000
1737564219.833,0.000,-32.715,-23.438,0.000,0.000
1737564219.837,0.000,-37.109,-2.441,0.000,0.000
1737564219.841,0.000,-26.367,-8.301,0.000,0.000
1737564219.845,0.000,-23.438,-21.484,0.000,0.000
1737564219.849,0.000,-32.715,-22.949,0.000,0.000
1737564219.853,0.000,-53.223,-12.695,0.000,0.000
1737564219.857,0.000,-36.133,-15.625,0.000,0.000
1737564219.861,0.000,0.000,-27.832,0.000,0.000
1737564219.864,0.000,-6.348,-33.203,0.000,0.000
1737564219.868,0.000,-18.066,-40.527,0.000,0.000
1737564219.872,-20.508,-4.883,-45.898,-18.066,0.000
1737564219.876,-52.734,-1.953,-42.480,-57.617,0.000
1737564219.880,-36.621,-12.695,-24.414,-25.391,0.000
1737564219.884,3.906,-18.555,-11.230,14.648,0.000
1737564219.888,13.184,-18.555,-13.184,9.277,0.000
1737564219.892,-5.859,-24.414,-32.227,-20.508,0.000
1737564219.896,6.836,-17.090,-39.062,-28.809,0.000
1737564219.900,38.574,-3.906,-21.973,-46.875,0.000
1737564219.904,-20.508,-25.391,-22.949,-24.414,0.000
1737564219.907,-29.297,-39.062,-31.738,-10.742,0.000
1737564219.911,15.137,-25.391,-46.387,-10.742,0.000
1737564219.915,0.977,-18.066,-42.480,-4.395,0.000
1737564219.919,0.000,-17.090,-19.043,0.000,0.000
1737564219.923,0.000,-11.230,-10.742,0.000,0.000
1737564219.927,0.000,-16.113,-8.789,0.000,0.000
1737564219.931,0.000,-28.320,-6.836,0.000,0.000
1737564219.935,0.000,-27.344,-15.137,0.000,0.000
1737564219.939,0.000,-22.461,-19.043,0.000,0.000
1737564219.943,0.000,-29.297,-20.020,0.000,0.000
1737564219.946,0.000,-44.434,-20.508,0.000,0.000
1737564219.950,0.000,-32.227,-18.555,0.000,0.000
1737564219.954,0.000,-5.859,-24.414,0.000,0.000
1737564219.958,0.000,10.254,-31.738,0.000,0.000
1737564219.962,0.000,-3.906,-41.992,0.000,0.000
1737564219.966,-10.254,-8.301,-38.574,-16.602,0.000
1737564219.970,-6.836,-19.043,-26.367,-23.926,0.000
1737564219.974,-31.738,-29.785,-30.273,-8.789,0.000
1737564219.978,5.371,-18.555,-14.160,-18.555,0.000
1737564219.982,-2.441,-20.996,-9.277,-18.555,0.000
1737564219.986,-53.711,-31.250,-18.555,-32.227,0.000
1737564219.989,-34.180,-23.926,-16.113,-37.598,0.000
1737564219.993,-20.996,-18.555,-19.043,-22.949,0.000
1737564219.997,-35.645,-26.855,-21.484,-43.457,0.000
1737564220.001,-22.461,-21.484,-22.461,-51.758,0.000
1737564220.005,-32.227,-16.602,-30.762,-15.625,0.000
1737564220.009,-39.551,-21.484,-36.133,-1.465,0.000
1737564220.013,7.324,-17.090,-35.645,-1.465,0.000
1737564220.017,80.078,-15.137,-36.621,7.324,0.000
1737564220.021,36.133,-36.133,-44.434,-40.039,0.000
1737564220.025,-71.289,-31.250,-36.133,-68.359,0.000
1737564220.029,-31.250,-12.207,-29.785,-27.832,0.000
1737564220.032,-4.883,-17.578,-30.273,-10.742,0.000
1737564220.036,-43.457,-32.227,-13.184,-10.254,0.000
1737564220.040,-8.789,-34.180,-7.324,-36.621,0.000
1737564220.044,-2.441,-11.719,-20.508,-35.156,0.000
1737564220.048,-1.465,-4.883,-23.438,7.812,0.000
1737564220.052,-37.109,-35.156,-35.156,-15.625,0.000
1737564220.056,-69.336,-38.574,-49.316,-36.133,0.000
1737564220.060,-27.344,-15.137,-36.621,-29.785,0.000
1737564220.064,-8.301,-8.301,-23.926,-32.715,0.000
1737564220.068,-6.836,-17.090,-22.949,-43.457,0.000
1737564220.071,-13.184,-13.184,-36.621,-38.574,0.000
1737564220.075,17.578,3.418,-47.363,4.395,0.000
1737564220.079,44.922,-11.719,-22.949,6.348,0.000
1737564220.083,-14.648,-20.020,-3.906,-15.137,0.000
1737564220.087,-52.734,-15.625,-7.324,37.109,0.000
1737564220.091,-23.926,-16.602,-16.602,18.555,0.000
1737564220.095,-11.719,-22.461,-36.133,-69.824,0.000
1737564220.099,-14.648,-20.020,-45.898,-72.266,0.000
1737564220.103,-21.973,-31.738,-38.574,-55.176,0.000
1737564220.107,-5.859,-39.062,-24.414,3.906,0.000
1737564220.111,-8.301,-9.277,-26.367,31.250,0.000
1737564220.114,-36.621,1.953,-23.926,-10.742,0.000
1737564220.118,-27.344,-5.371,-3.906,-37.598,0.000
1737564220.122,-2.930,-18.555,-6.348,-57.617,0.000
1737564220.126,-24.414,-29.297,-25.879,-47.852,0.000
1737564220.130,-24.902,-26.367,-38.086,2.441,0.000
1737564220.134,5.371,-22.949,-30.762,-8.301,0.000
1737564220.138,-4.883,-30.762,-7.812,-16.602,0.000
1737564220.142,24.414,-36.133,-4.883,20.508,0.000
1737564220.146,20.996,-29.297,-19.043,21.484,0.000
1737564220.150,-52.246,-24.902,-22.461,-36.621,0.000
1737564220.154,-79.102,-31.738,-20.996,-38.086,0.000
1737564220.157,-44.434,-28.320,-42.480,-34.668,0.000
1737564220.161,32.715,1.465,-57.129,-45.410,0.000
1737564220.165,24.414,6.348,-39.551,-28.809,0.000
1737564220.169,-48.340,-13.672,-23.438,-3.418,0.000
1737564220.173,-54.199,-25.391,-30.762,-19.531,0.000
1737564220.177,-2.930,-20.996,-29.785,-22.461,0.000
1737564220.181,4.883,-17.090,-12.695,-0.488,0.000
1737564220.185,-52.246,-23.438,-15.625,-3.418,0.000
1737564220.189,-25.391,-20.508,-25.391,-66.406,0.000
1737564220.193,18.066,-17.090,-25.879,-76.172,0.000
1737564220.196,-15.137,-26.855,-36.133,-16.602,0.000
1737564220.200,-29.297,-26.855,-36.621,-14.160,0.000
1737564220.204,-7.324,-19.531,-32.715,4.883,0.000
1737564220.208,25.879,-15.137,-40.039,23.438,0.000
1737564220.212,-18.066,0.000,-29.785,-0.977,0.000
1737564220.216,-40.527,-6.836,-26.367,-59.082,0.000
1737564220.220,-6.836,-13.672,-20.020,-42.969,0.000
1737564220.224,-20.020,-21.484,-7.812,10.742,0.000
1737564220.228,-32.715,-32.227,-28.809,-14.160,0.000
1737564220.232,-12.207,-38.574,-51.270,-56.641,0.000
1737564220.236,6.836,-31.738,-38.086,-35.156,0.000
1737564220.239,-32.715,-7.812,-28.809,10.254,0.000
1737564220.243,-14.160,-9.277,-23.926,-0.977,0.000
1737564220.247,17.090,-24.414,-20.020,-7.812,0.000
1737564220.251,-10.742,-14.648,-22.949,29.297,0.000
1737564220.255,-4.395,-6.348,-19.043,-7.324,0.000
1737564220.259,-13.184,-19.531,-17.578,-63.477,0.000
1737564220.263,-30.762,-23.926,-16.602,-13.672,0.000
1737564220.267,47.852,-13.184,-6.836,33.203,0.000
1737564220.271,-22.949,-28.320,-14.648,-20.996,0.000
1737564220.275,-118.164,-37.598,-25.391,-58.105,0.000
1737564220.279,-40.527,-25.391,-30.273,-70.312,0.000
1737564220.282,-3.418,-27.832,-44.434,-72.754,0.000
1737564220.286,45.898,-19.531,-40.039,-34.668,0.000
1737564220.290,10.254,-15.137,-33.203,-13.672,0.000
1737564220.294,-54.688,-26.855,-31.738,-10.742,0.000
1737564220.298,-50.293,-18.066,-27.832,-13.672,0.000
1737564220.302,-27.832,-20.020,-25.391,-45.410,0.000
1737564220.306,25.879,-31.250,-19.531,6.836,0.000
1737564220.310,53.223,-14.648,-11.230,25.879,0.000
1737564220.314,-7.324,-1.953,-9.277,-24.414,0.000
1737564220.318,-30.762,-9.277,-10.742,-20.996,0.000
1737564220.321,16.113,-25.879,-10.742,-15.137,0.000
1737564220.325,29.785,-25.879,-9.766,-2.930,0.000
1737564220.329,-81.055,-16.602,-15.625,4.883,0.000
1737564220.333,-66.406,-13.184,-37.109,-24.902,0.000
1737564220.337,-0.977,-20.020,-41.016,-54.688,0.000
1737564220.341,-9.277,-26.855,-22.949,-68.848,0.000
1737564220.345,0.000,-25.879,-17.578,-30.273,0.000
1737564220.349,34.668,-22.949,-19.043,14.160,0.000
1737564220.353,34.668,-13.672,-26.367,-22.461,0.000
1737564220.357,-21.973,-18.066,-30.273,-57.129,0.000
1737564220.361,-23.926,-18.555,-23.926,-21.973,0.000
1737564220.364,7.324,-22.949,-15.137,-9.766,0.000
1737564220.368,8.789,-29.785,-20.996,-14.648,0.000
1737564220.372,9.277,-14.160,-28.320,14.160,0.000
1737564220.376,-50.781,-41.504,-29.297,-17.090,0.000
1737564220.380,-62.988,-51.270,-32.227,-62.988,0.000
1737564220.384,-22.461,-21.484,-31.250,-53.711,0.000
1737564220.388,-48.340,-9.766,-32.715,-21.973,0.000
1737564220.392,-5.859,-9.277,-27.344,1.465,0.000
1737564220.396,19.531,-8.789,-23.438,-13.184,0.000
1737564220.400,-1.953,-17.090,-25.879,13.184,0.000
1737564220.404,0.488,-22.461,-21.484,24.414,0.000
1737564220.407,-42.480,-32.227,-15.625,-26.855,0.000
1737564220.411,-40.527,-42.480,-18.066,-31.738,0.000
1737564220.415,-19.531,-26.855,-18.066,1.953,0.000
1737564220.419,-26.855,-13.672,-17.578,-15.625,0.000
1737564220.423,-17.578,-20.020,-29.785,-42.969,0.000
1737564220.427,14.160,-25.391,-38.574,-7.324,0.000
1737564220.431,33.203,-33.203,-35.156,-13.184,0.000
1737564220.435,-1.953,-48.340,-37.598,-5.859,0.000
1737564220.439,-89.844,-40.527,-37.109,-27.344,0.000
1737564220.443,-87.891,-33.203,-14.648,-48.340,0.000
1737564220.446,-20.996,-35.156,-6.836,-6.348,0.000
1737564220.450,16.602,-18.066,-10.742,0.000,0.000
1737564220.454,14.648,-6.836,-17.090,-17.090,0.000
1737564220.458,4.395,-28.809,-15.137,-42.480,0.000
1737564220.462,10.742,-32.227,-26.855,-36.621,0.000
1737564220.466,-54.688,-10.254,-38.086,-3.418,0.000
1737564220.470,-62.012,-0.977,-24.414,-30.762,0.000
1737564220.474,-44.434,1.465,-23.438,-26.855,0.000
1737564220.478,-33.691,-13.672,-40.039,-21.973,0.000
1737564220.482,0.000,-27.832,-31.738,-9.277,0.000
1737564220.486,0.000,-38.086,-19.043,22.461,0.000
1737564220.489,0.000,-29.785,-8.301,26.367,0.000
1737564220.493,0.000,-14.648,0.977,-11.719,0.000
1737564220.497,0.000,-9.277,-1.953,-49.805,0.000
1737564220.501,0.000,-1.465,-12.695,-22.461,0.000
1737564220.505,0.000,-2.930,-33.203,-22.949,0.000
1737564220.509,0.000,-12.695,-32.715,-36.621,0.000
1737564220.513,0.000,-18.555,-18.066,2.441,0.000
1737564220.517,0.000,-19.531,-19.043,-27.344,0.000
1737564220.521,0.000,-13.184,-17.090,-59.570,0.000
1737564220.525,0.000,-8.789,-19.531,-32.227,0.000
1737564220.529,2.441,-18.555,-32.715,0.000,0.000
1737564220.532,15.137,-20.020,-39.062,2.441,0.000
1737564220.536,-24.414,-6.836,-39.062,-24.414,0.000
1737564220.540,-28.320,-2.441,-23.926,-48.828,0.000
1737564220.544,4.395,-21.973,-18.555,-3.906,0.000
1737564220.548,-7.324,-24.902,-21.973,25.391,0.000
1737564220.552,-20.996,-19.043,-22.949,-15.137,0.000
1737564220.556,-22.949,-29.785,-30.273,-44.922,0.000
1737564220.560,-25.391,-28.809,-36.133,-44.922,0.000
1737564220.564,-23.438,-19.531,-28.320,-14.160,0.000
1737564220.568,-6.836,-21.973,-21.973,0.488,0.000
1737564220.571,-30.273,-14.160,-33.203,-23.926,0.000
1737564220.575,-44.434,-12.207,-32.227,-39.551,0.000
1737564220.579,-22.461,-22.949,-22.949,-44.434,0.000
1737564220.583,-21.973,-15.137,-21.484,-27.344,0.000
1737564220.587,10.742,-17.578,-33.203,-9.277,0.000
1737564220.591,15.137,-24.902,-41.504,9.766,0.000
1737564220.595,-31.250,-23.926,-30.273,8.301,0.000
1737564220.599,-8.301,-14.160,-21.484,-37.109,0.000
1737564220.603,-3.418,-6.836,-26.367,-36.621,0.000
1737564220.607,-33.203,-7.812,-40.527,-53.711,0.000
1737564220.611,-45.898,-11.230,-27.832,-51.270,0.000
1737564220.614,-23.926,-11.230,3.906,-17.090,0.000
1737564220.618,-22.461,-12.207,3.418,-5.371,0.000
1737564220.622,-24.902,-22.461,-16.602,-13.672,0.000
1737564220.626,-15.625,-23.926,-17.578,0.488,0.000
1737564220.630,-18.555,-13.184,-16.602,-6.836,0.000
1737564220.634,-13.184,-16.113,-29.297,-30.762,0.000
1737564220.638,-22.461,-9.277,-23.438,-46.387,0.000
1737564220.642,-21.973,6.836,1.953,-51.270,0.000
1737564220.646,-26.855,2.930,-11.719,-2.441,0.000
1737564220.650,-20.996,-7.324,30.273,-3.418,0.000
1737564220.653,-69.824,32.227,98.633,-19.043,0.000
1737564220.657,-27.832,94.238,119.141,-21.484,0.000
1737564220.661,50.293,112.305,37.598,-44.922,0.000
1737564220.665,-19.043,56.152,-19.531,-42.480,0.000
1737564220.669,-53.711,45.898,-27.344,-20.996,0.000
1737564220.673,-86.426,-33.203,-84.473,-101.562,0.000
1737564220.677,-166.504,-108.887,-53.711,-218.262,0.000
1737564220.681,-189.941,-36.133,63.477,-242.188,0.000
1737564220.685,-217.773,153.320,72.754,-216.797,0.000
1737564220.689,-214.355,347.656,35.156,-222.656,0.000
1737564220.693,-227.539,468.750,58.594,-262.207,0.000
1737564220.696,-275.391,762.207,152.344,-294.434,0.000
1737564220.700,-296.875,970.703,277.832,-312.012,0.000
1737564220.704,-298.340,965.332,369.629,-358.887,0.000
1737564220.708,-328.613,967.773,511.719,-352.051,0.000
1737564220.712,-304.199,972.168,600.098,-351.562,0.000
1737564220.716,-276.855,970.703,644.043,-381.836,0.000
1737564220.720,-324.219,970.703,695.312,-407.227,0.000
1737564220.724,-339.844,970.703,714.355,-401.367,0.000
1737564220.728,-345.215,970.703,699.219,-369.629,0.000
1737564220.732,-296.387,970.703,673.340,-347.168,0.000
1737564220.736,-292.969,970.703,644.043,-301.270,0.000
1737564220.739,-339.355,970.703,590.332,-313.477,0.000
1737564220.743,-301.270,970.703,524.902,-310.059,0.000
1737564220.747,-274.414,970.703,466.309,-225.098,0.000
1737564220.751,-252.441,971.680,413.086,-184.082,0.000
1737564220.755,-180.664,968.262,374.023,-236.816,0.000
1737564220.759,-139.648,966.797,335.938,-177.734,0.000
1737564220.763,0.000,971.191,258.301,-76.172,0.000
1737564220.767,0.000,823.242,187.012,-108.887,0.000
1737564220.771,0.000,554.199,159.180,-86.914,0.000
1737564220.775,0.000,352.051,116.211,3.906,0.000
1737564220.778,0.000,203.125,50.293,14.160,0.000
1737564220.782,0.000,57.617,-19.043,-43.945,0.000
1737564220.786,0.000,-111.816,-62.988,-7.324,0.000
1737564220.790,0.000,-255.371,-91.797,31.738,0.000
1737564220.794,0.000,-353.027,-129.395,55.176,0.000
1737564220.798,0.000,-445.312,-165.039,83.496,0.000
1737564220.802,0.000,-502.930,-163.086,93.750,0.000
1737564220.806,0.000,-551.758,-146.973,82.031,0.000
1737564220.810,59.570,-614.258,-138.672,88.379,0.000
1737564220.814,79.102,-667.480,-155.273,121.094,0.000
1737564220.818,123.047,-671.387,-161.133,132.812,0.000
1737564220.821,73.730,-687.012,-168.457,107.422,0.000
1737564220.825,40.039,-716.797,-202.637,85.449,0.000
1737564220.829,77.148,-719.727,-222.656,104.980,0.000
1737564220.833,87.402,-730.957,-202.148,128.418,0.000
1737564220.837,75.195,-736.328,-157.227,103.027,0.000
1737564220.841,84.473,-719.727,-149.414,71.289,0.000
1737564220.845,93.262,-710.938,-163.086,96.191,0.000
1737564220.849,110.352,-712.402,-161.621,115.723,0.000
1737564220.853,104.492,-685.547,-170.410,123.535,0.000
1737564220.857,72.754,-652.344,-185.059,93.262,0.000
1737564220.861,64.453,-648.438,-166.016,90.332,0.000
1737564220.864,78.125,-629.395,-162.598,133.301,0.000
1737564220.868,47.363,-613.281,-162.109,83.008,0.000
1737564220.872,29.785,-598.145,-137.207,29.785,0.000
1737564220.876,78.125,-571.777,-132.324,58.594,0.000
1737564220.880,122.559,-561.523,-132.324,110.352,0.000
1737564220.884,116.211,-541.992,-130.859,66.406,0.000
1737564220.888,88.379,-515.625,-130.371,51.758,0.000
1737564220.892,67.383,-500.977,-126.953,104.980,0.000
1737564220.896,70.312,-490.723,-114.746,81.055,0.000
1737564220.900,51.270,-473.633,-108.887,42.969,0.000
1737564220.903,19.531,-446.289,-117.676,43.945,0.000
1737564220.907,59.082,-449.219,-115.234,78.125,0.000
1737564220.911,77.148,-452.148,-99.121,86.914,0.000
1737564220.915,60.547,-426.270,-88.379,48.828,0.000
1737564220.919,64.453,-416.992,-80.078,18.555,0.000
1737564220.923,80.078,-394.043,-78.125,16.113,0.000
1737564220.927,59.082,-381.348,-94.727,53.223,0.000
1737564220.931,35.156,-357.422,-98.633,54.199,0.000
1737564220.935,28.809,-333.984,-96.680,32.715,0.000
1737564220.939,47.852,-331.543,-96.680,49.805,0.000
1737564220.943,37.598,-338.379,-84.473,38.574,0.000
1737564220.946,14.648,-333.984,-84.961,34.180,0.000
1737564220.950,12.695,-321.289,-78.613,27.832,0.000
1737564220.954,21.484,-312.500,-79.102,0.488,0.000
1737564220.958,65.430,-291.992,-82.520,1.953,0.000
1737564220.962,52.246,-283.691,-62.012,36.133,0.000
1737564220.966,59.570,-276.367,-65.430,37.109,0.000
1737564220.970,68.848,-258.789,-66.895,43.457,0.000
1737564220.974,7.812,-261.230,-53.223,29.297,0.000
1737564220.978,-19.043,-268.066,-69.336,-38.086,0.000
1737564220.982,38.086,-252.930,-78.613,-3.418,0.000
1737564220.986,30.762,-231.445,-67.871,67.871,0.000
1737564220.989,-7.324,-225.098,-72.754,44.434,0.000
1737564220.993,26.855,-241.211,-62.500,-9.277,0.000
1737564220.997,12.695,-260.742,-42.480,-3.418,0.000
1737564221.001,-15.137,-238.281,-51.758,-0.977,0.000
1737564221.005,-17.578,-206.055,-63.965,-17.578,0.000
1737564221.009,19.531,-195.801,-53.223,-2.930,0.000
1737564221.013,31.738,-187.988,-39.062,24.414,0.000
1737564221.017,24.902,-176.758,-38.574,12.695,0.000
1737564221.021,41.016,-177.734,-42.969,-15.625,0.000
1737564221.025,36.621,-177.246,-45.410,10.742,0.000
1737564221.028,-16.602,-183.105,-52.734,19.531,0.000
1737564221.032,-44.922,-201.172,-49.316,-2.930,0.000
1737564221.036,17.578,-183.105,-39.062,-4.395,0.000
1737564221.040,41.992,-166.016,-35.156,-1.465,0.000
1737564221.044,26.367,-153.809,-35.156,-0.488,0.000
1737564221.048,0.977,-143.555,-36.621,-2.930,0.000
1737564221.052,-6.348,-145.996,-35.156,-3.418,0.000
1737564221.056,-8.301,-143.066,-40.039,-36.621,0.000
1737564221.060,-8.301,-138.184,-35.645,-46.875,0.000
1737564221.064,20.020,-143.555,-29.785,1.465,0.000
1737564221.068,29.297,-146.973,-32.715,13.184,0.000
1737564221.071,0.488,-136.230,-37.598,19.531,0.000
1737564221.075,-5.371,-134.277,-45.410,9.766,0.000
1737564221.079,18.555,-132.812,-43.945,-17.090,0.000
1737564221.083,-10.254,-127.930,-28.320,-27.832,0.000
1737564221.087,-38.086,-125.488,-13.184,-20.020,0.000
1737564221.091,-3.906,-120.605,-17.578,2.441,0.000
1737564221.095,11.719,-119.629,-26.367,-0.488,0.000
1737564221.099,45.898,-126.465,-27.832,-26.367,0.000
1737564221.103,29.785,-131.836,-23.926,-13.672,0.000
1737564221.107,-12.207,-120.117,-24.414,0.977,0.000
1737564221.111,4.395,-100.098,-35.645,22.949,0.000
1737564221.114,47.363,-96.680,-32.715,70.312,0.000
1737564221.118,-8.301,-106.934,-18.066,42.480,0.000
1737564221.122,-26.367,-110.352,-17.090,-41.992,0.000
1737564221.126,2.930,-93.262,-34.180,-58.594,0.000
1737564221.130,-4.395,-92.285,-31.738,-16.602,0.000
1737564221.134,-2.441,-99.609,-23.926,-26.855,0.000
1737564221.138,-14.648,-93.750,-17.578,-48.828,0.000
1737564221.142,22.461,-100.098,-13.184,-26.855,0.000
1737564221.146,25.391,-110.840,-12.695,25.879,0.000
1737564221.150,-16.602,-104.980,-10.742,49.805,0.000
1737564221.153,-15.137,-90.332,-17.578,10.254,0.000
1737564221.157,-8.789,-77.148,-24.414,-15.137,0.000
1737564221.161,0.000,-72.266,-25.391,3.418,0.000
1737564221.165,16.602,-78.125,-37.598,-1.465,0.000
1737564221.169,18.066,-85.938,-50.293,-4.883,0.000
1737564221.173,11.719,-81.543,-23.926,20.996,0.000
1737564221.177,-13.672,-76.172,-2.930,-0.977,0.000
1737564221.181,-38.086,-83.984,-9.277,-14.160,0.000
1737564221.185,11.230,-77.148,-2.930,10.254,0.000
1737564221.189,94.727,-63.477,-8.789,8.301,0.000
1737564221.193,22.949,-69.336,-34.668,-14.160,0.000
1737564221.196,-46.875,-65.918,-56.641,-62.500,0.000
1737564221.200,-26.367,-62.012,-45.410,-59.082,0.000
1737564221.204,-10.742,-66.895,-9.277,20.996,0.000
1737564221.208,3.906,-72.266,-2.441,41.992,0.000
1737564221.212,-20.996,-75.195,-13.184,10.742,0.000
1737564221.216,-9.277,-69.336,-22.461,-11.230,0.000
1737564221.220,15.625,-75.684,-23.926,-15.625,0.000
1737564221.224,0.000,-78.613,-16.113,-18.066,0.000
1737564221.228,-3.418,-69.336,-13.672,-13.672,0.000
1737564221.232,-12.207,-54.199,-19.043,-4.395,0.000
1737564221.236,-41.016,-47.852,-33.691,-20.020,0.000
1737564221.239,-92.773,-58.594,-31.250,-15.625,0.000
1737564221.243,-16.602,-62.988,-20.996,-34.180,0.000
1737564221.247,42.969,-57.129,-17.578,-26.855,0.000
1737564221.251,-6.836,-56.152,-18.555,10.742,0.000
1737564221.255,6.836,-55.664,-32.715,-15.137,0.000
1737564221.259,-8.789,-63.477,-32.715,-55.664,0.000
1737564221.263,-40.039,-67.383,-25.391,-32.715,0.000
1737564221.267,-36.621,-66.406,-16.113,7.812,0.000
1737564221.271,10.742,-68.848,-8.789,43.457,0.000
1737564221.275,-33.203,-59.082,-20.996,-1.953,0.000
1737564221.278,-59.570,-61.523,-29.297,-49.805,0.000
1737564221.282,5.859,-64.453,-36.621,-21.484,0.000
1737564221.286,6.836,-55.664,-35.645,-8.301,0.000
1737564221.290,-53.711,-59.082,-28.809,-19.531,0.000
1737564221.294,-32.227,-63.965,-26.855,-16.602,0.000
1737564221.298,11.230,-61.035,-24.414,-33.691,0.000
1737564221.302,-21.484,-69.336,-21.973,-40.527,0.000
1737564221.306,-33.203,-71.777,-26.855,-14.160,0.000
1737564221.310,-19.043,-68.848,-40.527,-0.488,0.000
1737564221.314,-20.508,-72.266,-42.480,-35.156,0.000
1737564221.318,-30.762,-68.848,-33.203,-49.316,0.000
1737564221.321,-13.184,-59.570,-33.691,-41.992,0.000
1737564221.325,-32.715,-53.711,-29.297,-29.297,0.000
1737564221.329,-27.344,-45.898,-22.461,19.531,0.000
1737564221.333,13.672,-42.969,-32.227,21.973,0.000
1737564221.337,-12.695,-49.316,-28.320,-30.762,0.000
1737564221.341,-18.555,-50.781,-19.531,-43.457,0.000
1737564221.345,4.395,-44.434,-15.137,-13.184,0.000
1737564221.349,-11.719,-48.828,-23.926,-2.441,0.000
1737564221.353,-38.086,-63.965,-41.504,-64.941,0.000
1737564221.357,-78.613,-69.824,-44.922,-126.953,0.000
1737564221.360,-105.469,-61.523,-43.457,-108.887,0.000
1737564221.364,-110.352,-64.453,-29.297,-97.168,0.000
1737564221.368,-108.398,-69.336,-8.301,-77.148,0.000
1737564221.372,-97.656,-66.895,-1.465,-40.039,0.000
1737564221.376,-73.242,-68.359,-13.184,-48.340,0.000
1737564221.380,-45.410,-68.359,-24.902,-53.223,0.000
1737564221.384,-39.062,-74.707,-25.391,-61.523,0.000
1737564221.388,-33.203,-77.148,-23.438,-25.879,0.000
1737564221.392,-9.277,-69.824,-22.949,-23.438,0.000
1737564221.396,-54.199,-78.613,-37.109,-80.078,0.000
1737564221.400,-85.449,-77.148,-23.438,-76.660,0.000
1737564221.403,-58.105,-64.941,-5.859,-26.367,0.000
1737564221.407,-16.113,-59.082,-28.320,-0.488,0.000
1737564221.411,-8.789,-54.199,-40.039,12.695,0.000
1737564221.415,-24.902,-54.688,-27.832,-3.906,0.000
1737564221.419,-26.367,-51.270,-14.160,-41.504,0.000
1737564221.423,-42.969,-56.641,-21.973,-51.270,0.000
1737564221.427,-39.551,-64.453,-24.902,-8.301,0.000
1737564221.431,-8.789,-64.941,-11.719,-9.766,0.000
1737564221.435,7.812,-59.082,-5.859,-53.223,0.000
1737564221.439,0.000,-46.387,-16.602,-30.273,0.000
1737564221.443,-57.617,-46.387,-37.109,-26.367,0.000
1737564221.446,-57.617,-61.035,-30.273,-23.926,0.000
1737564221.450,-19.043,-64.453,-17.090,-3.418,0.000
1737564221.454,-48.340,-60.547,-14.648,-16.602,0.000
1737564221.458,-51.758,-63.477,-15.137,-39.551,0.000
1737564221.462,-15.137,-56.641,-26.855,-45.410,0.000
1737564221.466,-12.695,-39.062,-25.879,-1.953,0.000
1737564221.470,0.000,-29.785,-25.879,31.250,0.000
1737564221.474,-7.324,-35.156,-32.715,-21.973,0.000
1737564221.478,-27.832,-37.109,-24.414,-73.730,0.000
1737564221.482,-12.695,-40.527,-11.230,-66.895,0.000
1737564221.485,-36.133,-55.664,-17.090,-5.371,0.000
1737564221.489,-21.484,-47.852,-48.828,37.598,0.000
1737564221.493,-5.859,-44.922,-58.105,20.020,0.000
1737564221.497,-28.809,-48.340,-25.391,-24.902,0.000
1737564221.501,-20.508,-47.363,-7.324,-34.668,0.000
1737564221.505,-31.250,-54.688,-8.301,-0.977,0.000
1737564221.509,-48.340,-43.945,-10.254,11.230,0.000
1737564221.513,-28.809,-31.250,-28.320,0.000,0.000
1737564221.517,-2.930,-26.855,-30.762,-22.461,0.000
1737564221.521,-26.367,-39.062,-17.578,-54.688,0.000
1737564221.525,-39.551,-40.527,-8.789,-38.574,0.000
1737564221.528,-48.828,-38.086,-5.371,-20.996,0.000
1737564221.532,-23.926,-42.480,-15.137,-36.621,0.000
1737564221.536,-18.066,-40.039,-28.320,-30.273,0.000
1737564221.540,-28.809,-42.969,-23.926,-22.461,0.000
1737564221.544,-25.391,-47.852,-27.344,-27.832,0.000
1737564221.548,-14.648,-50.781,-26.367,0.000,0.000
1737564221.552,-23.926,-45.410,-10.742,26.367,0.000
1737564221.556,-48.340,-41.992,-19.531,-20.508,0.000
1737564221.560,-27.344,-39.551,-29.297,-67.383,0.000
1737564221.564,-39.551,-40.527,-26.367,-48.340,0.000
1737564221.568,-31.250,-48.828,-34.180,-11.230,0.000
1737564221.571,10.254,-45.898,-40.039,-44.434,0.000
1737564221.575,0.488,-33.203,-29.297,-74.219,0.000
1737564221.579,-33.203,-31.250,-25.391,-48.828,0.000
1737564221.583,-2.930,-33.691,-28.809,-34.668,0.000
1737564221.587,-32.227,-41.504,-22.949,13.184,0.000
1737564221.591,-66.895,-49.316,-21.973,20.508,0.000
1737564221.595,10.254,-36.133,-17.578,25.391,0.000
1737564221.599,1.953,-29.297,-14.648,-7.324,0.000
1737564221.603,-57.129,-32.227,-29.785,-74.707,0.000
1737564221.607,-42.969,-21.484,-38.086,-58.594,0.000
1737564221.610,-50.781,-21.484,-23.926,-19.531,0.000
1737564221.614,-63.477,-34.180,-15.625,-8.789,0.000
1737564221.618,-19.531,-41.992,-19.043,-46.875,0.000
1737564221.622,6.348,-46.875,-16.602,-45.898,0.000
1737564221.626,-0.488,-42.480,-27.832,-19.531,0.000
1737564221.630,-34.668,-39.062,-41.992,2.441,0.000
1737564221.634,-27.832,-35.645,-33.691,0.000,0.000
1737564221.638,-16.602,-28.809,-22.949,-48.340,0.000
1737564221.642,-16.602,-36.133,-20.508,-27.832,0.000
1737564221.646,-43.457,-41.504,-20.508,12.207,0.000
1737564221.650,-73.242,-34.180,-21.973,-8.789,0.000
1737564221.653,-47.852,-32.715,-27.832,0.000,0.000
1737564221.657,2.930,-39.062,-46.875,0.000,0.000
1737564221.661,32.227,-37.109,-48.340,0.000,0.000
1737564221.665,4.883,-33.691,-21.973,0.000,0.000
1737564221.669,1.465,-41.016,-14.160,0.000,0.000
1737564221.673,-11.719,-50.781,-16.602,0.000,0.000
1737564221.677,-66.406,-41.504,-13.672,0.000,0.000
1737564221.681,-48.340,-29.297,-18.555,0.000,0.000
1737564221.685,1.953,-30.273,-22.949,0.000,0.000
1737564221.689,-17.578,-27.832,-25.391,0.000,0.000
1737564221.693,-27.344,-26.855,-28.320,0.000,0.000
1737564221.696,-16.113,-25.879,-28.809,0.000,0.000
1737564221.700,0.000,-34.668,-25.391,0.488,0.000
1737564221.704,0.000,-41.016,-25.391,-6.836,0.000
1737564221.708,0.000,-26.367,-36.621,-62.012,0.000
1737564221.712,0.000,-32.715,-35.156,-21.973,0.000
1737564221.716,0.000,-54.199,-20.020,15.625,0.000
1737564221.720,0.000,-44.434,-23.438,-12.207,0.000
1737564221.724,0.000,-28.809,-31.250,-16.113,0.000
1737564221.728,0.000,-30.762,-25.879,-10.254,0.000
1737564221.732,0.000,-35.156,-30.762,-12.207,0.000
1737564221.735,0.000,-31.738,-35.645,-42.480,0.000
1737564221.739,0.000,-38.574,-39.551,-33.691,0.000
1737564221.743,0.000,-50.781,-41.016,-11.230,0.000
1737564221.747,27.832,-35.645,-29.785,-1.465,0.000
1737564221.751,-34.180,-24.902,-23.926,19.043,0.000
1737564221.755,-26.855,-29.297,-17.090,20.508,0.000
1737564221.759,-43.945,-41.504,-17.090,-3.418,0.000
1737564221.763,-39.551,-44.922,-21.484,-6.348,0.000
1737564221.767,-12.207,-39.551,-23.926,-26.855,0.000
1737564221.771,-18.066,-35.156,-30.762,-14.160,0.000
1737564221.775,11.230,-22.461,-33.203,-4.395,0.000
1737564221.778,5.371,-25.391,-24.414,-35.156,0.000
1737564221.782,-8.301,-40.039,-16.602,-11.719,0.000
1737564221.786,-16.602,-41.016,-13.184,-3.418,0.000
1737564221.790,0.488,-29.297,-18.555,-18.066,0.000
1737564221.794,3.906,-32.227,-27.344,12.207,0.000
1737564221.798,-57.129,-59.082,-43.945,-20.020,0.000
1737564221.802,-32.227,-42.969,-39.551,-1.465,0.000
1737564221.806,22.949,-11.230,-26.367,35.156,0.000
1737564221.810,-2.441,-17.578,-31.738,8.301,0.000
1737564221.814,-33.691,-27.832,-27.344,12.695,0.000
1737564221.818,-29.297,-31.250,-23.438,-22.949,0.000
1737564221.821,17.090,-26.367,-27.344,-54.688,0.000
1737564221.825,-34.668,-29.297,-29.785,-41.992,0.000
1737564221.829,-61.523,-31.250,-30.762,-42.480,0.000
1737564221.833,-61.523,-25.879,-31.250,-42.969,0.000
1737564221.837,-40.039,-26.367,-36.621,-44.922,0.000
1737564221.841,-8.301,-33.203,-34.668,-18.066,0.000
1737564221.845,-30.762,-51.270,-28.320,-29.785,0.000
1737564221.849,-17.090,-54.688,-28.809,-43.945,0.000
1737564221.853,-16.602,-39.062,-34.180,-9.766,0.000
1737564221.857,2.441,-22.949,-41.992,-6.348,0.000
1737564221.860,1.465,-20.508,-40.527,-16.602,0.000
1737564221.864,-35.156,-38.574,-41.504,-6.348,0.000
1737564221.868,-36.133,-39.062,-32.715,0.488,0.000
1737564221.872,6.836,-25.391,-27.832,-1.953,0.000
1737564221.876,-11.719,-25.879,-34.180,-16.113,0.000
1737564221.880,-44.434,-30.762,-24.414,-61.523,0.000
1737564221.884,-82.031,-43.457,-33.203,-55.664,0.000
1737564221.888,-41.992,-51.270,-52.246,-12.695,0.000
1737564221.892,29.297,-51.758,-30.762,18.555,0.000
1737564221.896,-22.461,-40.039,-6.836,-25.879,0.000
1737564221.900,-53.223,-16.602,-8.301,-75.684,0.000
1737564221.903,-57.129,-20.996,-13.672,-51.758,0.000
1737564221.907,-57.129,-26.367,-21.973,22.461,0.000
1737564221.911,-18.555,-24.414,-30.762,33.203,0.000
1737564221.915,-3.418,-27.344,-19.043,-14.648,0.000
1737564221.919,-20.508,-34.668,-12.207,-30.273,0.000
1737564221.923,-18.066,-40.527,-13.672,-7.812,0.000
1737564221.927,-24.414,-38.086,-11.719,-3.906,0.000
1737564221.931,0.000,-27.344,-14.160,-1.953,0.000
1737564221.935,0.000,-24.414,0.000,-8.789,0.000
1737564221.939,0.000,-38.574,0.000,-61.035,0.000
1737564221.943,0.000,-43.457,0.000,-59.570,0.000
1737564221.946,0.000,-27.344,0.000,-6.348,0.000
1737564221.950,0.000,-20.508,0.000,2.441,0.000
1737564221.954,0.000,-14.160,0.000,-12.695,0.000
1737564221.958,0.000,-9.766,0.000,-14.648,0.000
1737564221.962,0.000,-21.973,0.000,-1.465,0.000
1737564221.966,0.000,-30.762,0.000,16.113,0.000
1737564221.970,0.000,-31.738,0.000,13.184,0.000
1737564221.974,0.000,-32.715,0.000,41.504,0.000
1737564221.978,0.000,-33.691,0.000,-10.742,0.000
1737564221.982,-23.438,-27.344,-41.016,-79.590,0.000
1737564221.985,-12.695,-25.879,-41.992,-50.293,0.000
1737564221.989,16.113,-33.203,-29.785,-4.883,0.000
1737564221.993,-23.438,-27.344,-31.250,7.812,0.000
1737564221.997,-68.848,-23.438,-33.203,-18.066,0.000
1737564222.001,-50.293,-28.809,-24.414,-35.156,0.000
1737564222.005,-3.418,-32.227,-23.926,-18.555,0.000
1737564222.009,-13.184,-36.621,-30.762,3.906,0.000
1737564222.013,-21.973,-33.203,-30.762,-36.621,0.000
1737564222.017,-6.836,-27.344,-26.367,-66.895,0.000
1737564222.021,-21.484,-27.832,-29.297,-36.133,0.000
1737564222.025,-30.273,-30.273,-27.832,-16.602,0.000
1737564222.028,-7.324,-26.855,-20.020,-8.789,0.000
1737564222.032,-72.266,-34.180,-20.020,-13.184,0.000
1737564222.036,-79.102,-50.293,-21.973,-4.883,0.000
1737564222.040,-32.227,-38.574,-18.555,13.672,0.000
1737564222.044,-15.137,-16.602,-28.320,-22.949,0.000
1737564222.048,1.953,-9.766,-45.410,-46.387,0.000
1737564222.052,-30.273,-17.090,-43.945,-8.301,0.000
1737564222.056,-30.273,-17.578,-39.062,-25.391,0.000
1737564222.060,-7.812,-11.719,-43.945,-48.828,0.000
1737564222.064,0.977,-9.766,-40.039,-22.461,0.000
1737564222.068,-4.395,-16.113,-27.832,40.527,0.000
1737564222.071,-19.043,-31.738,-20.508,41.992,0.000
1737564222.075,-27.832,-40.527,-17.578,-5.859,0.000
1737564222.079,-39.062,-41.016,-19.531,-43.945,0.000
1737564222.083,-62.012,-36.133,-18.066,-33.691,0.000
1737564222.087,-64.453,-32.227,-19.043,-21.484,0.000
1737564222.091,-46.387,-36.621,-29.297,-88.379,0.000
1737564222.095,-4.883,-36.133,-33.203,-95.703,0.000
1737564222.099,-21.484,-34.668,-30.273,-31.250,0.000
1737564222.103,-50.781,-30.762,-25.879,-8.301,0.000
1737564222.107,-38.574,-30.762,-20.996,17.090,0.000
1737564222.110,3.906,-44.434,-21.973,38.086,0.000
1737564222.114,-3.418,-49.316,-23.438,-13.672,0.000
1737564222.118,-66.895,-41.016,-26.855,-28.320,0.000
1737564222.122,-47.852,-26.367,-36.133,-30.273,0.000
1737564222.126,-16.113,-20.020,-38.086,-41.016,0.000
1737564222.130,-5.859,-28.320,-38.086,-24.902,0.000
1737564222.134,-16.113,-30.762,-40.039,5.859,0.000
1737564222.138,-86.426,-27.832,-41.992,-24.902,0.000
1737564222.142,-42.480,-24.902,-31.250,-77.148,0.000
1737564222.146,30.273,-24.414,-22.461,-40.527,0.000
1737564222.150,-42.480,-30.762,-18.555,12.207,0.000
1737564222.153,-62.012,-34.668,-14.160,-2.441,0.000
1737564222.157,-30.273,-41.016,-26.367,-33.691,0.000
1737564222.161,-45.410,-36.621,-32.227,-19.043,0.000
1737564222.165,-71.289,-27.344,-27.832,24.902,0.000
1737564222.169,-20.508,-32.227,0.000,4.395,0.000
1737564222.173,-5.371,-35.645,0.000,-29.785,0.000
1737564222.177,-30.762,-31.250,0.000,-36.133,0.000
1737564222.181,-9.277,-27.832,0.000,-35.645,0.000
1737564222.185,-10.254,-38.086,0.000,-16.602,0.000
1737564222.189,-33.691,-46.387,0.000,-13.184,0.000
1737564222.192,-48.340,-38.574,0.000,-34.180,0.000
1737564222.196,-71.777,-37.598,0.000,-37.109,0.000
1737564222.200,-57.129,-47.852,0.000,-30.762,0.000
1737564222.204,-22.461,-44.434,0.000,-2.441,0.000
1737564222.208,-11.230,-23.926,0.000,10.742,0.000
1737564222.212,-22.949,-11.719,0.000,9.277,0.000
1737564222.216,-8.789,-15.625,-29.297,-11.230,0.000
1737564222.220,-17.578,-27.832,-26.855,-47.852,0.000
1737564222.224,-68.359,-42.969,-35.645,-51.758,0.000
1737564222.228,-30.273,-38.574,-27.832,-8.789,0.000
1737564222.232,-9.766,-23.926,-15.137,-12.207,0.000
1737564222.235,-21.484,-26.367,-21.484,-47.852,0.000
1737564222.239,-31.250,-33.691,-34.668,-25.391,0.000
1737564222.243,-42.480,-33.691,-33.691,-4.883,0.000
1737564222.247,-39.551,-30.273,-25.391,18.555,0.000
1737564222.251,-13.184,-32.715,-25.391,41.504,0.000
1737564222.255,-48.828,-36.621,-33.203,-23.926,0.000
1737564222.259,-112.793,-43.457,-31.738,-93.750,0.000
1737564222.263,-59.570,-38.086,-25.879,-55.664,0.000
1737564222.267,-17.090,-27.344,-22.949,1.465,0.000
1737564222.271,-16.113,-23.438,-26.367,3.906,0.000
1737564222.275,-24.414,-25.391,-36.133,-28.320,0.000
1737564222.278,-29.785,-30.273,-36.621,-52.734,0.000
1737564222.282,-11.230,-27.344,-40.039,-52.734,0.000
1737564222.286,0.000,-23.438,-41.016,-27.832,0.000
1737564222.290,-23.438,-22.949,-31.738,-19.531,0.000
1737564222.294,-71.289,-22.949,-23.438,-20.508,0.000
1737564222.298,-67.383,-28.320,-18.555,3.418,0.000
1737564222.302,-54.199,-43.945,-23.926,-14.648,0.000
1737564222.306,-43.457,-46.875,-22.461,-31.250,0.000
1737564222.310,-6.348,-33.691,-26.367,-10.742,0.000
1737564222.314,-11.230,-23.438,-31.250,2.441,0.000
1737564222.317,-40.527,-22.949,-31.250,-34.668,0.000
1737564222.321,-20.020,-26.855,-26.855,-37.109,0.000
1737564222.325,-12.207,-24.902,-15.137,-11.230,0.000
1737564222.329,-35.645,-38.574,-21.484,-29.785,0.000
1737564222.333,-35.156,-46.387,-30.273,-36.133,0.000
1737564222.337,20.508,-34.668,-25.391,-9.277,0.000
1737564222.341,0.488,-31.250,-23.438,-6.836,0.000
1737564222.345,-51.270,-32.227,-37.109,-42.480,0.000
1737564222.349,-16.602,-29.297,-44.434,-10.742,0.000
1737564222.353,-35.156,-20.996,-36.621,16.113,0.000
1737564222.357,-76.172,-17.578,-26.367,-18.066,0.000
1737564222.360,-37.109,-26.855,-31.738,-47.852,0.000
1737564222.364,-30.762,-26.367,-29.297,-37.598,0.000
1737564222.368,-20.020,-20.020,-20.508,-6.348,0.000
1737564222.372,5.859,-20.508,-19.531,12.207,0.000
1737564222.376,10.254,-21.484,-20.020,-35.645,0.000
1737564222.380,2.441,-29.297,-23.438,-88.379,0.000
1737564222.384,-26.367,-37.109,-27.344,-49.316,0.000
1737564222.388,-46.387,-32.715,-28.320,13.672,0.000
1737564222.392,-38.086,-28.809,-29.785,35.156,0.000
1737564222.396,-40.527,-34.180,-30.273,-13.672,0.000
1737564222.400,-40.527,-34.668,-31.250,-40.039,0.000
1737564222.403,5.859,-25.879,-29.297,-6.836,0.000
1737564222.407,18.555,-26.367,-36.621,-5.859,0.000
1737564222.411,-23.438,-24.414,-42.480,-1.953,0.000
1737564222.415,-61.523,-25.391,-42.969,-14.648,0.000
1737564222.419,-35.645,-25.391,-37.598,-50.293,0.000
1737564222.423,-13.184,-21.484,-23.438,-29.297,0.000
1737564222.427,-36.133,-24.414,-19.043,-30.273,0.000
1737564222.431,-38.086,-27.344,-17.090,-57.129,0.000
1737564222.435,-24.414,-22.949,-18.066,-35.645,0.000
1737564222.439,-20.996,-24.902,-21.973,-21.484,0.000
1737564222.442,-1.953,-25.879,-22.949,-8.301,0.000
1737564222.446,14.648,-22.461,-24.902,24.902,0.000
1737564222.450,-5.371,-20.508,-21.484,42.480,0.000
1737564222.454,-51.758,-22.949,-17.578,2.441,0.000
1737564222.458,-73.242,-25.879,-22.461,-64.453,0.000
1737564222.462,-61.035,-24.414,-29.785,-76.172,0.000
1737564222.466,-34.668,-23.438,-33.203,-15.625,0.000
1737564222.470,-18.066,-30.273,-36.621,3.906,0.000
1737564222.474,-23.926,-23.926,-31.250,-61.035,0.000
1737564222.478,-4.395,-20.996,-22.461,-60.059,0.000
1737564222.482,-18.066,-36.133,-24.902,-19.043,0.000
1737564222.485,-37.598,-38.574,-41.504,18.555,0.000
1737564222.489,-27.832,-31.250,-34.180,33.203,0.000
1737564222.493,-30.762,-26.367,-14.160,6.348,0.000
1737564222.497,-13.672,-34.180,-20.996,-23.926,0.000
1737564222.501,-25.879,-35.645,-19.531,-23.438,0.000
1737564222.505,-69.824,-29.785,-14.160,-25.879,0.000
1737564222.509,-62.988,-33.691,-14.648,-27.344,0.000
1737564222.513,-16.113,-41.992,-17.578,-27.832,0.000
1737564222.517,17.090,-34.180,-26.367,-48.340,0.000
1737564222.521,-20.020,-31.250,-26.367,-35.645,0.000
1737564222.525,-20.020,-31.738,-23.926,-13.184,0.000
1737564222.528,-4.395,-21.484,-25.879,41.992,0.000
1737564222.532,-18.066,-19.043,-28.320,50.293,0.000
1737564222.536,-27.344,-22.461,-31.250,-11.719,0.000
1737564222.540,-18.066,-31.738,-32.227,-10.742,0.000
1737564222.544,-4.395,-34.668,-31.738,14.648,0.000
1737564222.548,19.531,-39.551,-21.973,18.066,0.000
1737564222.552,29.297,-39.062,-16.602,30.762,0.000
1737564222.556,-2.441,-40.527,-27.832,25.879,0.000
1737564222.560,4.883,-43.945,-37.109,27.832,0.000
1737564222.564,12.207,-36.621,-40.039,20.996,0.000
1737564222.567,18.555,-37.598,-40.527,35.645,0.000
1737564222.571,31.250,-37.109,-34.668,47.363,0.000
1737564222.575,10.742,-40.527,-32.227,38.086,0.000
1737564222.579,10.742,-54.688,-34.180,25.879,0.000
1737564222.583,2.930,-52.246,-23.438,-3.418,0.000
1737564222.587,-49.316,-34.668,-23.438,-4.395,0.000
1737564222.591,0.000,-29.297,-33.203,-22.949,0.000
1737564222.595,0.000,-27.344,-35.156,-22.461,0.000
1737564222.599,0.000,-21.484,-37.109,17.578,0.000
1737564222.603,0.000,-29.785,-45.410,27.832,0.000
1737564222.607,0.000,-28.809,-42.480,-3.418,0.000
1737564222.610,0.000,-20.996,-29.297,-32.227,0.000
1737564222.614,0.000,-27.832,-26.855,-19.531,0.000
1737564222.618,0.000,-36.621,-29.297,26.855,0.000
1737564222.622,0.000,-32.227,-21.484,32.227,0.000
1737564222.626,0.000,-33.203,-20.508,14.160,0.000
1737564222.630,0.000,-41.016,-23.438,-20.996,0.000
1737564222.634,0.000,-41.504,-20.508,-33.691,0.000
1737564222.638,19.043,-28.320,0.000,0.000,0.000
1737564222.642,47.363,-25.879,0.000,0.000,0.000
1737564222.646,-22.949,-33.691,0.000,0.000,0.000
1737564222.650,-20.508,-32.715,0.000,0.000,0.000
1737564222.653,13.184,-27.832,0.000,0.000,0.000
1737564222.657,5.859,-23.438,0.000,0.000,0.000
1737564222.661,-8.789,-30.762,0.000,0.000,0.000
1737564222.665,-14.648,-38.086,0.000,0.000,0.000
1737564222.669,5.371,-36.621,0.000,0.000,0.000
1737564222.673,29.297,-25.879,0.000,0.000,0.000
1737564222.677,-10.254,-18.555,0.000,0.000,0.000
1737564222.681,-21.484,-30.273,0.000,0.000,0.000
1737564222.685,-23.926,-31.250,-15.137,-17.090,0.000
1737564222.689,-6.836,-25.879,-17.090,16.113,0.000
1737564222.692,-23.438,-31.738,-33.203,29.785,0.000
1737564222.696,-64.453,-34.180,-44.434,-63.477,0.000
1737564222.700,-9.277,-32.227,-38.086,-84.473,0.000
1737564222.704,-41.992,-36.621,-37.109,-8.301,0.000
1737564222.708,-58.105,-34.668,-34.668,24.902,0.000
1737564222.712,-15.137,-32.715,-32.227,29.785,0.000
1737564222.716,-29.297,-34.668,-40.527,8.301,0.000
1737564222.720,-14.648,-31.738,-42.480,-14.160,0.000
1737564222.724,3.906,-23.438,-27.832,-9.277,0.000
1737564222.728,6.836,-20.020,-22.949,-27.344,0.000
1737564222.732,8.301,-26.367,-34.668,-28.320,0.000
1737564222.735,-51.270,-27.832,-34.180,-54.199,0.000
1737564222.739,-86.914,-20.020,-24.902,-41.504,0.000
1737564222.743,-34.668,-28.809,-29.297,14.648,0.000
1737564222.747,-4.395,-30.273,-31.738,28.320,0.000
1737564222.751,-13.672,-16.602,-25.391,5.859,0.000
1737564222.755,-17.090,-20.508,-31.250,-5.859,0.000
1737564222.759,-31.738,-32.227,-34.668,-19.043,0.000
1737564222.763,-52.246,-32.715,-37.598,-4.395,0.000
1737564222.767,-25.391,-23.926,-43.457,2.441,0.000
1737564222.771,9.766,-18.066,-41.016,-34.668,0.000
1737564222.775,8.301,-19.043,-37.109,-21.484,0.000
1737564222.778,-36.621,-33.203,-35.645,-20.996,0.000
1737564222.782,-53.711,-35.645,-33.203,-34.180,0.000
1737564222.786,-34.668,-34.180,-35.156,-34.668,0.000
1737564222.790,-41.504,-31.738,-38.086,-40.039,0.000
1737564222.794,-36.133,-21.484,-42.480,-11.719,0.000
1737564222.798,-29.785,-14.648,-44.434,-2.441,0.000
1737564222.802,1.953,-17.578,-34.180,-13.672,0.000
1737564222.806,25.879,-22.461,-28.809,-9.766,0.000
1737564222.810,-34.180,-25.879,-24.902,8.301,0.000
1737564222.814,-47.852,-21.973,-21.484,10.742,0.000
1737564222.817,12.207,-18.066,-37.109,-68.359,0.000
1737564222.821,-26.367,-22.461,-40.527,-62.012,0.000
1737564222.825,-108.398,-27.344,-36.133,-6.348,0.000
1737564222.829,-61.523,-32.715,-46.875,-24.902,0.000
1737564222.833,-54.199,-36.133,-35.156,2.930,0.000
1737564222.837,-38.086,-35.645,-22.461,-2.441,0.000
1737564222.841,-4.883,-24.902,-19.043,-47.852,0.000
1737564222.845,-17.578,-14.648,-19.531,-55.176,0.000
1737564222.849,-36.133,-19.531,-29.297,-47.363,0.000
1737564222.853,-63.477,-25.391,-39.551,-61.035,0.000
1737564222.857,-92.285,-29.297,-46.387,-82.520,0.000
1737564222.860,-71.289,-30.273,-35.645,-67.871,0.000
1737564222.864,-40.039,-29.297,-31.738,-62.500,0.000
1737564222.868,-62.012,-30.273,-35.645,-58.105,0.000
1737564222.872,-68.848,-30.762,-29.785,-51.758,0.000
1737564222.876,-60.059,-34.180,-26.855,-68.848,0.000
1737564222.880,-34.180,-41.016,-22.461,-61.035,0.000
1737564222.884,-37.109,-41.016,-20.996,-46.387,0.000
1737564222.888,-56.152,-35.156,-18.555,-54.688,0.000
1737564222.892,-58.105,-28.320,-12.695,-33.691,0.000
1737564222.896,-56.152,-24.414,-15.625,-33.691,0.000
1737564222.900,-55.664,-30.762,-18.066,-37.598,0.000
1737564222.903,-34.180,-33.203,-23.926,-22.461,0.000
1737564222.907,-19.043,-32.715,-27.344,-12.207,0.000
1737564222.911,-52.246,-32.715,-24.902,2.930,0.000
1737564222.915,-60.547,-36.621,-28.809,-10.742,0.000
1737564222.919,-47.363,-34.668,-25.879,-50.293,0.000
1737564222.923,-41.992,-31.738,-17.578,-37.109,0.000
1737564222.927,-33.203,-41.016,-19.043,8.789,0.000
1737564222.931,-27.832,-38.086,-32.227,-21.484,0.000
1737564222.935,-23.438,-23.438,-31.738,-42.480,0.000
1737564222.939,-16.602,-17.578,-21.973,-22.461,0.000
1737564222.942,-52.246,-22.949,-20.508,-8.789,0.000
1737564222.946,-45.898,-22.461,-18.555,-42.969,0.000
1737564222.950,0.488,-19.531,-18.555,-40.039,0.000
1737564222.954,-23.926,-22.461,-29.297,-18.066,0.000
1737564222.958,-54.199,-28.320,-34.180,-31.738,0.000
1737564222.962,-60.059,-29.785,-32.715,-46.875,0.000
1737564222.966,-39.062,-21.973,-27.344,-22.461,0.000
1737564222.970,-32.227,-20.996,-20.020,-6.836,0.000
1737564222.974,-39.062,-29.785,-24.414,-25.879,0.000
1737564222.978,-48.340,-28.320,-28.320,0.488,0.000
1737564222.982,-11.230,-13.184,-37.109,6.348,0.000
1737564222.985,41.504,-13.184,-43.457,-32.227,0.000
1737564222.989,-9.277,-27.832,-24.902,-7.812,0.000
1737564222.993,-51.758,-35.156,-15.137,-36.621,0.000
1737564222.997,-43.457,-29.297,-24.902,-62.500,0.000
1737564223.001,-32.715,-23.926,-19.531,-6.348,0.000
1737564223.005,0.000,-27.832,-20.508,-5.859,0.000
1737564223.009,-32.715,-31.250,-17.090,-19.043,0.000
1737564223.013,-71.289,-37.109,-6.836,-8.789,0.000
1737564223.017,-54.688,-41.016,-6.836,-42.969,0.000
1737564223.021,-69.336,-44.922,-7.812,-95.703,0.000
1737564223.025,-47.852,-47.363,-16.113,-35.645,0.000
1737564223.028,-3.906,-42.480,-20.508,12.207,0.000
1737564223.032,-23.438,-35.156,-15.137,-0.488,0.000
1737564223.036,-44.434,-43.457,-8.789,-17.578,0.000
1737564223.040,-53.711,-55.664,-11.230,-39.551,0.000
1737564223.044,-45.898,-48.340,-28.809,-39.062,0.000
1737564223.048,-34.180,-38.574,-31.738,-40.527,0.000
1737564223.052,-36.621,-40.527,-18.066,-25.391,0.000
1737564223.056,-14.648,-34.668,-20.020,1.953,0.000
1737564223.060,-16.602,-33.691,-30.762,-20.020,0.000
1737564223.064,-37.109,-47.852,-40.039,-28.809,0.000
1737564223.067,-47.852,-51.270,-29.785,1.465,0.000
