timestamps,TP9,AF7,AF8,TP10,Right AUX
1737556674.353,-31.738,-24.902,-5.859,-15.137,0.000
1737556674.357,-36.621,-35.156,7.812,-34.668,0.000
1737556674.361,-19.043,-33.203,6.348,-23.926,0.000
1737556674.365,-12.207,-20.020,-13.184,6.348,0.000
1737556674.369,1.465,-27.832,-30.762,6.348,0.000
1737556674.373,4.883,-36.133,-37.109,-22.949,0.000
1737556674.377,-18.555,-25.391,-28.809,-38.574,0.000
1737556674.381,-27.832,-14.648,-36.621,-29.297,0.000
1737556674.385,-1.465,-8.789,-36.133,-5.859,0.000
1737556674.388,8.789,-9.277,-23.926,2.441,0.000
1737556674.392,-5.859,-16.113,-20.996,-4.883,0.000
1737556674.396,-14.648,-12.695,-14.648,-16.113,0.000
1737556674.400,-19.531,-9.766,-20.508,-12.207,0.000
1737556674.404,0.488,-11.230,-14.648,5.371,0.000
1737556674.408,8.789,-14.648,4.883,0.488,0.000
1737556674.412,-20.020,-24.414,-10.254,-33.691,0.000
1737556674.416,-41.992,-36.133,-40.527,-48.828,0.000
1737556674.420,-25.391,-28.809,-43.457,-23.926,0.000
1737556674.424,0.977,-21.973,-35.645,10.254,0.000
1737556674.428,-3.418,-34.180,-18.066,3.418,0.000
1737556674.431,-16.602,-25.391,-5.859,-33.691,0.000
1737556674.435,-28.809,-10.254,-26.855,-35.645,0.000
1737556674.439,-38.086,-2.930,-37.598,-24.902,0.000
1737556674.443,-9.766,-0.977,-26.855,-31.738,0.000
1737556674.447,8.301,3.906,-10.742,-18.066,0.000
1737556674.451,12.695,6.836,-15.137,0.488,0.000
1737556674.455,-0.977,-8.789,-28.809,-5.371,0.000
1737556674.459,-39.551,-14.648,-22.949,-16.602,0.000
1737556674.463,-35.645,-18.555,-9.277,-35.645,0.000
1737556674.467,-20.020,-31.738,-7.324,-38.574,0.000
1737556674.470,-14.160,-30.762,-9.766,-22.461,0.000
1737556674.474,5.859,-19.531,-22.461,-17.090,0.000
1737556674.478,-36.621,-16.602,-41.992,-37.598,0.000
1737556674.482,-55.664,-12.207,-58.105,-23.926,0.000
1737556674.486,-12.695,-3.906,-55.176,-7.812,0.000
1737556674.490,1.465,-0.488,-20.508,-11.230,0.000
1737556674.494,-19.531,-7.812,-2.441,-11.719,0.000
1737556674.498,-51.270,-23.926,-30.762,-33.203,0.000
1737556674.502,-44.922,-24.414,-38.574,-40.527,0.000
1737556674.506,-3.418,-8.301,-8.301,-23.926,0.000
1737556674.510,9.766,-9.277,-10.254,-21.973,0.000
1737556674.513,-11.719,-26.367,-32.715,-25.391,0.000
1737556674.517,-30.273,-30.273,-36.621,-26.855,0.000
1737556674.521,-33.203,-22.461,-35.645,-36.621,0.000
1737556674.525,-28.320,-13.184,-28.320,-32.227,0.000
1737556674.529,-7.812,-4.395,-15.625,-16.602,0.000
1737556674.533,-9.277,-10.254,-10.742,-13.184,0.000
1737556674.537,-35.645,-19.531,-11.719,-17.578,0.000
1737556674.541,-42.480,-16.113,-6.348,-23.926,0.000
1737556674.545,-35.156,-7.324,-18.555,-17.090,0.000
1737556674.549,-3.906,-0.977,-34.668,-20.020,0.000
1737556674.553,-20.020,3.418,-60.059,-20.996,0.000
1737556674.556,-52.734,-5.859,-57.129,-25.879,0.000
1737556674.560,-44.922,-12.695,-31.738,-48.828,0.000
1737556674.564,-15.137,-5.371,-17.090,-41.992,0.000
1737556674.568,-3.906,1.953,-18.066,-26.367,0.000
1737556674.572,-21.973,-10.742,-30.273,-13.184,0.000
1737556674.576,-21.973,-27.344,-34.668,-17.578,0.000
1737556674.580,-23.926,-23.438,-46.387,-23.926,0.000
1737556674.584,-47.852,-20.020,-47.363,0.000,0.000
1737556674.588,-0.488,-7.324,-30.762,20.996,0.000
1737556674.592,16.113,6.348,-33.691,-6.836,0.000
1737556674.595,-32.227,3.418,-12.207,-27.832,0.000
1737556674.599,-45.898,-14.160,4.883,-32.715,0.000
1737556674.603,-65.918,-30.273,-5.371,-41.992,0.000
1737556674.607,-48.340,-23.926,-16.602,-51.758,0.000
1737556674.611,-20.020,-11.230,-17.090,-49.316,0.000
1737556674.615,-25.391,-23.926,-1.465,-40.527,0.000
1737556674.619,-44.922,-26.367,-15.137,-47.852,0.000
1737556674.623,-23.926,-7.324,-49.316,-34.180,0.000
1737556674.627,1.953,0.488,-45.898,-0.488,0.000
1737556674.631,-25.879,-6.348,-18.066,-10.254,0.000
1737556674.635,-56.641,-11.230,0.488,-47.363,0.000
1737556674.638,-71.289,-17.090,-2.441,-64.453,0.000
1737556674.642,-51.758,-22.949,-32.715,-45.898,0.000
1737556674.646,-30.273,-11.230,-48.828,-14.648,0.000
1737556674.650,-18.555,-5.859,-26.367,-36.621,0.000
1737556674.654,-36.133,-15.137,-13.672,-67.383,0.000
1737556674.658,-68.848,-23.926,-4.395,-62.012,0.000
1737556674.662,-64.941,-21.484,-3.906,-57.617,0.000
1737556674.666,-20.996,-15.137,-27.344,-35.645,0.000
1737556674.670,6.348,-9.766,-48.340,-7.324,0.000
1737556674.674,-14.160,-9.277,-53.711,-26.367,0.000
1737556674.677,-46.875,-13.184,-36.133,-49.316,0.000
1737556674.681,-47.363,-7.324,-27.344,-46.875,0.000
1737556674.685,-27.832,-13.672,-22.461,-30.762,0.000
1737556674.689,-29.297,-21.484,-12.207,-6.836,0.000
1737556674.693,-25.879,-12.207,-22.461,-3.906,0.000
1737556674.697,-22.461,-3.418,-21.484,-20.996,0.000
1737556674.701,-49.805,-9.766,-27.344,-77.637,0.000
1737556674.705,-41.992,-16.113,-45.898,-67.871,0.000
1737556674.709,-19.531,-11.719,-47.363,-39.551,0.000
1737556674.713,-30.762,-11.230,-21.973,-53.223,0.000
1737556674.717,-26.855,-17.090,-6.348,-45.410,0.000
1737556674.720,-6.348,-13.184,-17.090,-34.180,0.000
1737556674.724,-33.203,-15.625,-24.414,-33.691,0.000
1737556674.728,-31.250,-19.043,-29.297,-8.301,0.000
1737556674.732,-16.113,-17.578,-20.996,-25.391,0.000
1737556674.736,-44.434,-21.973,-40.527,-43.457,0.000
1737556674.740,-62.988,-24.414,-58.105,-44.922,0.000
1737556674.744,-33.203,-22.949,-41.016,-50.781,0.000
1737556674.748,1.465,-15.137,-21.484,-28.320,0.000
1737556674.752,7.324,-11.719,-20.508,-26.855,0.000
1737556674.756,-20.508,-14.648,-20.020,-36.621,0.000
1737556674.760,-53.711,-17.090,-24.902,-41.016,0.000
1737556674.763,-53.711,-26.367,-48.340,-33.203,0.000
1737556674.767,-6.348,-20.508,-41.504,-5.371,0.000
1737556674.771,13.672,-19.043,-21.973,6.348,0.000
1737556674.775,-20.508,-16.113,0.000,-18.555,0.000
1737556674.779,-23.926,0.488,0.000,-59.082,0.000
1737556674.783,5.859,9.277,0.000,-46.875,0.000
1737556674.787,5.859,-11.230,0.000,-18.555,0.000
1737556674.791,5.371,-22.949,0.000,-5.371,0.000
1737556674.795,9.766,-20.996,0.000,-6.836,0.000
1737556674.799,-38.574,-24.414,0.000,-16.602,0.000
1737556674.802,-37.598,-13.184,0.000,-16.602,0.000
1737556674.806,0.977,-9.277,0.000,-12.695,0.000
1737556674.810,11.230,14.160,0.000,12.695,0.000
1737556674.814,-13.672,10.742,0.000,-6.836,0.000
1737556674.818,-27.832,-16.602,0.000,-42.969,0.000
1737556674.822,0.000,-21.484,-32.715,-42.480,0.000
1737556674.826,0.000,-10.254,-32.715,-24.902,0.000
1737556674.830,0.000,-2.441,-11.719,-8.301,0.000
1737556674.834,0.000,-16.602,-14.648,-16.602,0.000
1737556674.838,0.000,-25.391,-5.371,-24.902,0.000
1737556674.842,0.000,-17.090,10.742,-15.137,0.000
1737556674.845,0.000,-13.672,-16.113,-18.555,0.000
1737556674.849,0.000,-12.695,-41.992,-16.113,0.000
1737556674.853,0.000,-16.602,-45.410,-17.578,0.000
1737556674.857,0.000,-19.531,-65.430,-52.246,0.000
1737556674.861,0.000,-4.395,-53.223,-44.922,0.000
1737556674.865,0.000,9.766,-21.973,1.953,0.000
1737556674.869,6.348,3.418,-31.738,6.836,0.000
1737556674.873,-27.344,-12.695,-15.625,-35.645,0.000
1737556674.877,-42.969,-20.996,-19.043,-38.574,0.000
1737556674.881,-24.902,-26.855,-16.602,-3.418,0.000
1737556674.885,-1.953,-32.227,14.648,3.906,0.000
1737556674.888,1.953,-22.949,6.836,-42.480,0.000
1737556674.892,-26.855,-21.973,-27.344,-51.270,0.000
1737556674.896,-40.527,-22.461,-40.527,-20.020,0.000
1737556674.900,-36.621,-15.137,-38.086,-8.301,0.000
1737556674.904,-42.480,-11.230,-32.715,-39.062,0.000
1737556674.908,-14.160,-1.465,-12.207,-58.105,0.000
1737556674.912,-7.324,-3.906,-1.465,-34.180,0.000
1737556674.916,-14.648,-13.184,-8.789,-12.695,0.000
1737556674.920,-12.207,-22.949,-13.184,-16.113,0.000
1737556674.924,12.695,-20.996,-30.762,-9.277,0.000
1737556674.927,10.254,-27.832,-24.902,26.367,0.000
1737556674.931,-5.371,-22.461,-2.930,13.184,0.000
1737556674.935,18.066,-13.184,-8.789,-15.137,0.000
1737556674.939,16.113,-21.484,-40.039,-10.254,0.000
1737556674.943,-1.465,-34.668,-30.273,-0.488,0.000
1737556674.947,-9.277,-19.043,12.207,3.906,0.000
1737556674.951,13.184,9.277,13.672,-5.371,0.000
1737556674.955,6.836,-3.418,-19.531,-15.625,0.000
1737556674.959,-38.574,-21.484,-38.574,-54.199,0.000
1737556674.963,-31.250,-15.625,-38.086,-52.734,0.000
1737556674.967,-7.324,0.977,-27.344,12.207,0.000
1737556674.970,2.441,7.324,0.000,9.766,0.000
1737556674.974,1.465,-7.812,5.859,-29.297,0.000
1737556674.978,-37.109,-10.254,-3.418,-34.180,0.000
1737556674.982,-64.453,-14.160,-13.672,-34.180,0.000
1737556674.986,-13.184,-15.625,-24.414,-20.020,0.000
1737556674.990,24.902,-16.602,-24.902,31.738,0.000
1737556674.994,7.812,-14.160,-32.227,17.090,0.000
1737556674.998,-27.832,-11.719,-43.457,-60.059,0.000
1737556675.002,-52.734,-11.719,-29.297,-50.293,0.000
1737556675.006,-32.715,-10.742,2.930,-19.043,0.000
1737556675.010,-12.695,-1.953,-1.465,-54.688,0.000
1737556675.013,-38.086,3.418,-56.152,-43.457,0.000
1737556675.017,-31.250,-8.301,-62.988,-10.254,0.000
1737556675.021,0.488,-24.902,-24.902,-31.250,0.000
1737556675.025,-2.930,-24.414,-14.648,-45.898,0.000
1737556675.029,-13.184,-14.160,2.930,-8.789,0.000
1737556675.033,-6.836,-7.812,-11.230,-4.883,0.000
1737556675.037,-21.973,-3.418,-40.527,-33.203,0.000
1737556675.041,-43.945,-7.324,-20.508,-41.016,0.000
1737556675.045,-34.180,-14.648,-4.883,-15.137,0.000
1737556675.049,6.836,-3.906,-30.273,7.812,0.000
1737556675.052,-31.250,-17.090,-35.156,-17.578,0.000
1737556675.056,-62.988,-41.016,-3.906,-31.738,0.000
1737556675.060,-34.668,-33.203,-8.789,-34.668,0.000
1737556675.064,-18.555,-33.691,-23.926,0.488,0.000
1737556675.068,-19.531,-32.715,-30.273,22.461,0.000
1737556675.072,-0.488,-14.648,-32.227,20.508,0.000
1737556675.076,-1.465,-25.879,-45.410,19.043,0.000
1737556675.080,-21.484,-37.598,-21.484,-18.555,0.000
1737556675.084,-37.109,-28.320,13.184,-45.410,0.000
1737556675.088,-50.781,-20.508,-1.465,-24.902,0.000
1737556675.092,-28.809,-10.742,-16.113,4.883,0.000
1737556675.095,-2.441,-10.254,-9.766,13.184,0.000
1737556675.099,-48.340,-21.484,-3.418,-13.672,0.000
1737556675.103,-46.387,-11.230,-7.324,-27.344,0.000
1737556675.107,-4.395,-6.348,-18.555,-6.836,0.000
1737556675.111,-1.953,-12.207,-28.320,-18.555,0.000
1737556675.115,-40.527,-16.602,-24.414,-35.156,0.000
1737556675.119,-69.336,-28.809,-41.504,-25.391,0.000
1737556675.123,-23.438,-24.902,-24.902,-11.719,0.000
1737556675.127,9.277,-18.066,3.418,-9.277,0.000
1737556675.131,-5.371,-18.555,-4.883,1.953,0.000
1737556675.134,-35.156,-20.020,-23.926,-6.836,0.000
1737556675.138,-60.547,-22.949,-28.809,-17.578,0.000
1737556675.142,-44.434,-28.809,-19.531,0.000,0.000
1737556675.146,-0.977,-25.879,-20.508,32.715,0.000
1737556675.150,26.855,0.000,-29.297,5.859,0.000
1737556675.154,-36.133,-2.930,-7.812,-48.828,0.000
1737556675.158,-92.285,-24.414,2.441,-68.359,0.000
1737556675.162,-80.566,-28.320,-19.531,-65.430,0.000
1737556675.166,-39.062,-23.438,-26.855,-49.316,0.000
1737556675.170,-18.066,-22.461,-16.602,-19.531,0.000
1737556675.174,-17.578,-26.367,-26.855,0.000,0.000
1737556675.177,-22.949,-29.297,-50.781,-22.461,0.000
1737556675.181,-29.785,-25.879,-40.527,-38.086,0.000
1737556675.185,-34.668,-22.949,-19.531,-13.184,0.000
1737556675.189,-6.836,-12.207,-25.879,23.438,0.000
1737556675.193,-5.859,-9.766,-34.180,15.625,0.000
1737556675.197,-28.320,-13.184,-55.176,-2.930,0.000
1737556675.201,-43.457,-9.766,-57.617,-1.953,0.000
1737556675.205,-16.113,-13.672,-9.277,-29.785,0.000
1737556675.209,11.230,-27.344,11.719,-32.715,0.000
1737556675.213,-13.184,-26.855,-8.789,-19.531,0.000
1737556675.217,-20.020,-11.719,-32.715,-20.996,0.000
1737556675.220,-38.574,-31.250,-32.227,-18.066,0.000
1737556675.224,-21.973,-35.156,-13.184,-11.230,0.000
1737556675.228,-15.625,-3.418,-22.949,-18.555,0.000
1737556675.232,-22.461,0.977,-28.809,-29.297,0.000
1737556675.236,-23.438,-6.348,-31.738,-22.949,0.000
1737556675.240,-48.340,-20.020,-34.668,-15.137,0.000
1737556675.244,0.000,-16.113,-41.016,-26.855,0.000
1737556675.248,0.000,-7.324,-49.805,-10.742,0.000
1737556675.252,0.000,-6.836,-50.293,8.789,0.000
1737556675.256,0.000,-15.137,-45.410,-12.695,0.000
1737556675.259,0.000,-31.250,-17.578,-32.715,0.000
1737556675.263,0.000,-25.391,6.348,-31.250,0.000
1737556675.267,0.000,-20.508,-1.953,-6.348,0.000
1737556675.271,0.000,-31.250,-11.719,5.859,0.000
1737556675.275,0.000,-29.297,-24.902,-10.742,0.000
1737556675.279,0.000,-10.742,-46.875,-14.160,0.000
1737556675.283,0.000,-10.254,-32.715,-10.742,0.000
1737556675.287,0.000,-13.184,-8.789,-31.738,0.000
1737556675.291,-30.273,-11.719,-5.371,0.000,0.000
1737556675.295,-2.441,-14.648,-21.484,0.000,0.000
1737556675.299,5.859,-15.137,-38.086,0.000,0.000
1737556675.302,6.348,-12.695,-25.879,0.000,0.000
1737556675.306,-32.227,-6.348,-4.883,0.000,0.000
1737556675.310,-52.246,-11.719,-11.719,0.000,0.000
1737556675.314,-23.926,-13.184,-31.250,0.000,0.000
1737556675.318,-2.441,-10.254,-36.133,0.000,0.000
1737556675.322,-23.926,-11.719,-18.066,0.000,0.000
1737556675.326,-30.273,-15.137,-3.906,0.000,0.000
1737556675.330,-14.160,-5.371,-11.230,0.000,0.000
1737556675.334,4.883,5.859,-11.230,0.000,0.000
1737556675.338,-47.363,4.395,0.000,-50.293,0.000
1737556675.342,-36.621,5.371,0.000,-48.828,0.000
1737556675.345,-7.324,10.254,0.000,-20.508,0.000
1737556675.349,-8.301,8.789,0.000,-5.859,0.000
1737556675.353,-10.742,7.324,0.000,-19.043,0.000
1737556675.357,-7.812,9.766,0.000,-16.602,0.000
1737556675.361,-9.277,3.418,0.000,3.906,0.000
1737556675.365,-0.977,0.000,0.000,-11.719,0.000
1737556675.369,-11.230,0.977,0.000,-23.438,0.000
1737556675.373,-30.273,-3.418,0.000,-42.969,0.000
1737556675.377,-30.273,0.488,0.000,-44.434,0.000
1737556675.381,-25.879,4.883,0.000,-31.250,0.000
1737556675.384,-14.648,-3.906,-31.738,-16.602,0.000
1737556675.388,-18.066,-1.465,-32.715,1.465,0.000
1737556675.392,-21.973,6.836,-16.113,-9.277,0.000
1737556675.396,-30.273,0.000,-3.418,-27.344,0.000
1737556675.400,-37.598,-0.977,-13.672,-29.297,0.000
1737556675.404,-2.930,-0.977,-24.414,-32.715,0.000
1737556675.408,2.441,-3.906,-23.926,-27.832,0.000
1737556675.412,-25.391,-13.184,-20.020,-17.090,0.000
1737556675.416,-26.367,-20.996,-32.715,-21.484,0.000
1737556675.420,-17.090,-18.555,-42.480,-37.109,0.000
1737556675.424,-16.113,-13.184,-44.922,-34.180,0.000
1737556675.427,-32.227,-12.207,-30.762,-30.273,0.000
1737556675.431,-28.809,-9.277,-9.277,-16.113,0.000
1737556675.435,-20.996,-6.348,-8.301,-28.809,0.000
1737556675.439,-27.344,-3.418,-20.508,-50.781,0.000
1737556675.443,-24.902,-2.441,-25.879,-38.574,0.000
1737556675.447,-20.020,-8.301,-11.719,-10.742,0.000
1737556675.451,-6.836,-3.418,-10.254,-6.348,0.000
1737556675.455,-13.184,-3.418,-20.996,-23.926,0.000
1737556675.459,-41.992,-23.438,-32.715,-42.969,0.000
1737556675.463,-20.996,-26.855,-34.668,-28.320,0.000
1737556675.466,7.812,-10.254,-24.414,-1.953,0.000
1737556675.470,2.930,-5.371,-16.113,4.395,0.000
1737556675.474,-9.277,-14.648,-22.949,-10.254,0.000
1737556675.478,-67.383,-14.160,-19.043,0.000,0.000
1737556675.482,-72.266,-8.301,-16.113,0.000,0.000
1737556675.486,-23.438,3.906,-29.785,0.000,0.000
1737556675.490,-17.090,12.207,-34.668,0.000,0.000
1737556675.494,-44.922,17.090,-39.551,0.000,0.000
1737556675.498,-56.641,17.090,-41.504,0.000,0.000
1737556675.502,-49.316,-1.465,-32.227,0.000,0.000
1737556675.506,-28.320,-6.348,-17.578,0.000,0.000
1737556675.509,-24.902,-8.789,-20.020,0.000,0.000
1737556675.513,-11.230,-14.648,-51.758,0.000,0.000
1737556675.517,-15.137,-1.465,-64.941,0.000,0.000
1737556675.521,-27.344,7.812,-48.828,0.000,0.000
1737556675.525,0.000,0.977,0.000,-48.828,0.000
1737556675.529,0.000,-2.930,0.000,-63.477,0.000
1737556675.533,0.000,-6.348,0.000,-69.336,0.000
1737556675.537,0.000,-13.672,0.000,-57.129,0.000
1737556675.541,0.000,-15.137,0.000,1.953,0.000
1737556675.545,0.000,-11.230,0.000,-2.930,0.000
1737556675.548,0.000,0.000,0.000,-77.148,0.000
1737556675.552,0.000,4.883,0.000,-76.660,0.000
1737556675.556,0.000,-3.906,0.000,-36.621,0.000
1737556675.560,0.000,-4.883,0.000,-30.762,0.000
1737556675.564,0.000,-0.488,0.000,-31.250,0.000
1737556675.568,0.000,0.000,0.000,-22.949,0.000
1737556675.572,-20.020,-7.812,3.418,-25.879,0.000
1737556675.576,-33.691,-13.672,-10.254,-34.180,0.000
1737556675.580,-33.691,-12.207,-16.602,-25.879,0.000
1737556675.584,-25.391,-4.395,-26.855,-24.414,0.000
1737556675.588,-10.742,-11.719,-34.668,-19.531,0.000
1737556675.591,-2.441,-18.066,-41.504,-10.254,0.000
1737556675.595,-23.438,-12.695,-51.270,-16.113,0.000
1737556675.599,-37.109,-20.996,-48.828,-33.691,0.000
1737556675.603,-16.602,-17.090,-35.156,-32.715,0.000
1737556675.607,-6.836,-10.742,-20.020,-9.766,0.000
1737556675.611,13.184,-1.465,-11.230,12.695,0.000
1737556675.615,2.930,-2.441,-16.113,-7.812,0.000
1737556675.619,-43.457,-11.719,-37.598,-38.574,0.000
1737556675.623,-38.574,-12.207,-42.969,-24.414,0.000
1737556675.627,-16.113,-17.090,-14.648,-20.996,0.000
1737556675.631,-9.766,-25.391,-9.766,-30.762,0.000
1737556675.634,-19.531,-20.508,-20.508,-32.227,0.000
1737556675.638,-26.855,-7.812,-18.066,-36.621,0.000
1737556675.642,-13.184,-2.441,-30.273,-21.484,0.000
1737556675.646,-11.230,-10.742,-54.199,-9.277,0.000
1737556675.650,2.930,-10.254,-20.996,-3.418,0.000
1737556675.654,4.883,-6.836,14.648,-6.836,0.000
1737556675.658,-27.344,-16.113,-1.953,-11.719,0.000
1737556675.662,-35.156,-18.066,-21.973,-28.320,0.000
1737556675.666,-24.902,-22.949,-18.555,-27.832,0.000
1737556675.670,-20.508,-18.066,-9.277,-18.066,0.000
1737556675.674,-27.344,-11.230,-7.324,-28.809,0.000
1737556675.677,-39.062,-18.066,-14.160,-22.949,0.000
1737556675.681,-27.344,-27.832,-24.414,-31.250,0.000
1737556675.685,-14.160,-21.973,-25.879,-35.645,0.000
1737556675.689,-8.789,-18.066,-40.527,-20.020,0.000
1737556675.693,-33.203,-19.531,-34.180,-25.391,0.000
1737556675.697,-41.992,-11.230,-28.320,-20.020,0.000
1737556675.701,-29.297,-9.277,-55.176,-20.020,0.000
1737556675.705,-18.555,-14.648,-43.945,-8.301,0.000
1737556675.709,-6.348,-17.578,-12.695,-6.348,0.000
1737556675.713,-22.949,-20.020,-2.441,-11.719,0.000
1737556675.716,-40.527,-20.508,-15.625,-10.742,0.000
1737556675.720,-44.434,-20.508,-27.344,-25.879,0.000
1737556675.724,-43.945,-20.508,-11.719,-23.926,0.000
1737556675.728,-28.320,-24.902,-10.742,-32.227,0.000
1737556675.732,-27.344,-23.926,-19.531,-24.902,0.000
1737556675.736,-39.062,-14.160,-14.160,-22.949,0.000
1737556675.740,-43.457,-15.625,-20.020,-28.809,0.000
1737556675.744,-42.969,-20.020,-46.875,-2.930,0.000
1737556675.748,-0.977,-18.555,-40.039,22.461,0.000
1737556675.752,21.973,-29.297,-15.137,3.418,0.000
1737556675.756,-12.695,-23.926,-15.137,-30.273,0.000
1737556675.759,-44.922,-12.695,-36.133,-27.832,0.000
1737556675.763,-44.922,-7.324,-34.668,-8.789,0.000
1737556675.767,-38.086,-2.441,-8.301,-12.207,0.000
1737556675.771,-9.277,0.000,-1.465,-23.926,0.000
1737556675.775,-51.270,-6.348,-6.836,-36.133,0.000
1737556675.779,-86.914,-8.789,-28.320,-46.387,0.000
1737556675.783,-58.594,-6.348,-41.016,-22.461,0.000
1737556675.787,-54.199,-16.602,-25.391,-36.621,0.000
1737556675.791,-57.617,-25.391,-14.648,-47.363,0.000
1737556675.795,-47.363,-20.996,-27.832,-34.180,0.000
1737556675.798,-48.340,-13.672,-32.715,-42.969,0.000
1737556675.802,-49.805,-16.113,-28.809,-34.668,0.000
1737556675.806,0.000,-15.625,-24.902,-31.250,0.000
1737556675.810,0.000,-15.137,-15.625,-26.367,0.000
1737556675.814,0.000,-13.184,-9.277,-23.438,0.000
1737556675.818,0.000,-31.738,-22.461,-46.387,0.000
1737556675.822,0.000,-46.875,-37.109,-42.480,0.000
1737556675.826,0.000,-29.297,-29.785,-27.344,0.000
1737556675.830,0.000,-14.160,-28.809,-12.207,0.000
1737556675.834,0.000,-13.672,-34.668,-9.277,0.000
1737556675.838,0.000,-25.879,-29.785,-34.180,0.000
1737556675.841,0.000,-32.227,-29.785,-46.875,0.000
1737556675.845,0.000,-25.879,-21.973,-19.043,0.000
1737556675.849,0.000,-9.766,-8.301,-7.324,0.000
1737556675.853,-18.066,-13.184,0.000,-18.066,0.000
1737556675.857,-44.434,-15.625,0.000,-32.227,0.000
1737556675.861,-33.203,-8.789,0.000,-33.691,0.000
1737556675.865,4.395,-1.465,0.000,-8.789,0.000
1737556675.869,23.438,14.160,0.000,12.695,0.000
1737556675.873,9.766,7.324,0.000,1.465,0.000
1737556675.877,-26.855,-7.812,0.000,-0.488,0.000
1737556675.881,-45.898,-11.230,0.000,-6.836,0.000
1737556675.884,-25.879,-5.859,0.000,-25.879,0.000
1737556675.888,1.465,-0.977,0.000,-27.344,0.000
1737556675.892,26.367,-1.953,0.000,-20.020,0.000
1737556675.896,-5.859,-8.789,0.000,-24.902,0.000
1737556675.900,-58.105,-22.949,-18.555,-20.996,0.000
1737556675.904,-23.926,-15.137,-28.809,-1.465,0.000
1737556675.908,8.789,-5.859,-18.555,9.277,0.000
1737556675.912,-11.719,-8.789,-19.043,-0.488,0.000
1737556675.916,-40.527,-16.602,-23.438,-16.113,0.000
1737556675.920,-33.203,-21.484,-35.156,-26.367,0.000
1737556675.923,-28.320,-24.902,-30.273,-26.855,0.000
1737556675.927,-42.480,-20.508,-10.742,-21.484,0.000
1737556675.931,-42.480,-14.160,-12.695,-25.391,0.000
1737556675.935,-26.855,-21.484,-20.020,-31.738,0.000
1737556675.939,-28.320,-28.809,-28.809,-26.855,0.000
1737556675.943,-34.668,-26.855,-41.016,-9.277,0.000
1737556675.947,-5.859,-23.926,-37.598,0.488,0.000
1737556675.951,30.273,-5.859,-28.320,12.207,0.000
1737556675.955,5.371,1.953,-9.766,-13.184,0.000
1737556675.959,-55.664,-15.625,11.719,-44.922,0.000
1737556675.963,-53.711,-20.996,14.648,-64.453,0.000
1737556675.966,-4.395,-2.441,-1.465,-48.828,0.000
1737556675.970,-3.418,-7.324,-27.832,-19.531,0.000
1737556675.974,-8.301,-13.672,-27.344,-3.418,0.000
1737556675.978,-22.949,-9.766,-28.809,-14.160,0.000
1737556675.982,-34.668,-17.578,-51.758,-44.434,0.000
1737556675.986,-12.695,-14.648,-41.992,-36.133,0.000
1737556675.990,2.441,-6.348,-27.832,-17.578,0.000
1737556675.994,0.000,-7.324,0.000,0.000,0.000
1737556675.998,0.000,-12.695,0.000,0.000,0.000
1737556676.002,0.000,-15.137,0.000,0.000,0.000
1737556676.006,0.000,-20.020,0.000,0.000,0.000
1737556676.009,0.000,-25.391,0.000,0.000,0.000
1737556676.013,0.000,-30.762,0.000,0.000,0.000
1737556676.017,0.000,-46.387,0.000,0.000,0.000
1737556676.021,0.000,-50.293,0.000,0.000,0.000
1737556676.025,0.000,-41.992,0.000,0.000,0.000
1737556676.029,0.000,-48.340,0.000,0.000,0.000
1737556676.033,0.000,-48.340,0.000,0.000,0.000
1737556676.037,0.000,-45.410,0.000,0.000,0.000
1737556676.041,-25.391,-56.152,-9.277,20.996,0.000
1737556676.045,-4.883,-57.129,4.395,25.391,0.000
1737556676.048,21.973,-50.293,5.859,36.133,0.000
1737556676.052,8.301,-42.480,-10.742,55.664,0.000
1737556676.056,-12.695,-44.434,-39.062,46.387,0.000
1737556676.060,-9.277,-43.457,-20.020,28.809,0.000
1737556676.064,26.367,-33.203,12.207,37.109,0.000
1737556676.068,26.367,-30.762,13.184,41.992,0.000
1737556676.072,3.418,-36.133,-0.977,17.578,0.000
1737556676.076,2.930,-38.574,-18.066,7.812,0.000
1737556676.080,2.441,-26.855,-22.461,3.418,0.000
1737556676.084,-13.672,-32.227,-26.367,-2.930,0.000
1737556676.088,0.000,-34.668,-35.156,9.277,0.000
1737556676.091,0.000,-22.461,-21.973,22.949,0.000
1737556676.095,0.000,-29.297,8.301,11.719,0.000
1737556676.099,0.000,-26.855,-15.625,-3.418,0.000
1737556676.103,0.000,-25.391,-38.574,-2.930,0.000
1737556676.107,0.000,-33.691,-26.367,-1.465,0.000
1737556676.111,0.000,-32.227,-20.996,14.160,0.000
1737556676.115,0.000,-36.133,-26.367,5.859,0.000
1737556676.119,0.000,-44.434,-26.855,-8.789,0.000
1737556676.123,0.000,-33.691,-20.020,-6.348,0.000
1737556676.127,0.000,-17.578,-26.367,4.883,0.000
1737556676.130,0.000,-14.648,-33.203,31.250,0.000
1737556676.134,-6.348,-24.414,0.000,32.227,0.000
1737556676.138,-33.203,-30.762,0.000,-19.043,0.000
1737556676.142,-41.016,-34.180,0.000,-43.945,0.000
1737556676.146,-7.324,-29.785,0.000,-21.484,0.000
1737556676.150,30.762,-10.742,0.000,17.578,0.000
1737556676.154,-8.301,-15.137,0.000,15.625,0.000
1737556676.158,-54.199,-35.645,0.000,-4.395,0.000
1737556676.162,-42.480,-35.645,0.000,-9.277,0.000
1737556676.166,-20.020,-21.484,0.000,-7.324,0.000
1737556676.170,9.277,-8.789,0.000,24.414,0.000
1737556676.173,-5.371,-12.695,0.000,21.973,0.000
1737556676.177,-39.062,-20.508,0.000,-11.230,0.000
1737556676.181,0.000,-21.973,-40.039,-11.230,0.000
1737556676.185,0.000,-19.531,-32.715,3.418,0.000
1737556676.189,0.000,-18.555,-14.160,10.254,0.000
1737556676.193,0.000,-23.438,-6.836,-2.441,0.000
1737556676.197,0.000,-27.344,-17.090,-17.578,0.000
1737556676.201,0.000,-28.320,-35.156,-14.648,0.000
1737556676.205,0.000,-23.438,-40.527,6.836,0.000
1737556676.209,0.000,-19.043,-34.668,25.879,0.000
1737556676.213,0.000,-20.508,-14.648,20.020,0.000
1737556676.216,0.000,-20.996,-4.883,5.859,0.000
1737556676.220,0.000,-21.973,-24.902,-11.719,0.000
1737556676.224,0.000,-25.879,-19.531,-21.973,0.000
1737556676.228,-34.668,-21.484,1.465,-6.836,0.000
1737556676.232,-8.789,-12.695,-10.254,0.000,0.000
1737556676.236,-16.602,-14.160,-20.508,-6.836,0.000
1737556676.240,-29.785,-31.738,-10.742,-4.883,0.000
1737556676.244,-27.344,-32.715,-19.531,-9.277,0.000
1737556676.248,-42.480,-16.113,-26.855,-2.930,0.000
1737556676.252,-31.250,-16.602,-30.273,-5.859,0.000
1737556676.255,4.883,-18.555,-30.762,-15.137,0.000
1737556676.259,-2.441,-20.020,-25.879,-28.320,0.000
1737556676.263,-27.832,-14.160,-23.438,-16.113,0.000
1737556676.267,-33.203,-12.207,-13.672,-6.348,0.000
1737556676.271,-38.574,-6.348,-5.859,-15.137,0.000
1737556676.275,-34.180,-10.742,-19.043,-27.344,0.000
1737556676.279,-21.484,-19.531,-24.414,-42.969,0.000
1737556676.283,-22.949,-16.113,-19.043,-37.109,0.000
1737556676.287,-34.668,-10.742,-17.090,-15.137,0.000
1737556676.291,-44.922,-12.207,-25.879,6.348,0.000
1737556676.295,-36.133,-18.555,-35.156,8.789,0.000
1737556676.298,-27.832,-26.855,-35.645,-24.902,0.000
1737556676.302,-39.551,-33.203,-26.367,-48.340,0.000
1737556676.306,-48.828,-19.043,-21.484,-34.668,0.000
1737556676.310,-36.621,-9.766,-18.066,-15.137,0.000
1737556676.314,-32.715,-11.230,-21.973,8.301,0.000
1737556676.318,-42.480,-15.137,-20.020,-10.254,0.000
1737556676.322,-66.895,-20.996,-9.766,-42.480,0.000
1737556676.326,-68.848,-22.949,-18.066,-27.832,0.000
1737556676.330,-50.293,-20.508,-21.973,-16.113,0.000
1737556676.334,-31.738,-19.531,-17.090,-31.738,0.000
1737556676.337,-11.719,-20.020,-19.531,-27.832,0.000
1737556676.341,-42.969,-22.461,-28.809,-16.113,0.000
1737556676.345,-99.609,-22.461,-39.551,-17.090,0.000
1737556676.349,-89.355,-23.438,-27.832,-2.930,0.000
1737556676.353,-43.457,-23.926,-9.277,-9.766,0.000
1737556676.357,-33.691,-21.973,-10.742,-36.133,0.000
1737556676.361,-33.691,-28.320,-22.461,-37.109,0.000
1737556676.365,-44.922,-25.879,-41.992,-16.113,0.000
1737556676.369,-4.395,-15.137,-37.598,2.930,0.000
1737556676.373,10.742,-18.066,-21.484,18.555,0.000
1737556676.377,-22.949,-30.273,-18.555,-2.930,0.000
1737556676.380,-60.547,-30.762,-16.602,-34.180,0.000
1737556676.384,-38.086,-14.648,-15.137,-35.645,0.000
1737556676.388,-11.719,-12.695,-34.180,-14.648,0.000
1737556676.392,-8.301,-10.254,-62.500,8.789,0.000
1737556676.396,-30.273,-9.277,-46.387,0.488,0.000
1737556676.400,-65.430,-20.020,-17.090,-25.879,0.000
1737556676.404,-50.293,-12.695,-7.812,-23.438,0.000
1737556676.408,-0.977,-9.766,-0.977,-16.602,0.000
1737556676.412,10.742,-20.508,-7.324,-18.555,0.000
1737556676.416,-37.109,-25.879,-24.902,-15.625,0.000
1737556676.420,-53.711,-21.484,-33.691,-35.156,0.000
1737556676.423,-42.969,-15.625,-30.273,-42.480,0.000
1737556676.427,-26.855,-13.672,-29.785,-29.785,0.000
1737556676.431,-11.230,-11.230,-32.715,-21.484,0.000
1737556676.435,-25.391,-6.348,-43.945,-18.555,0.000
1737556676.439,-43.457,-15.625,-32.227,-22.461,0.000
1737556676.443,-40.527,-15.137,-26.367,-19.531,0.000
1737556676.447,-13.672,-4.395,-21.484,-17.578,0.000
1737556676.451,-11.719,-12.207,1.953,-5.371,0.000
1737556676.455,-41.016,-15.625,-8.301,-22.949,0.000
1737556676.459,-65.430,-15.137,-16.113,-61.523,0.000
1737556676.462,0.000,-13.672,0.000,-64.453,0.000
1737556676.466,0.000,-6.348,0.000,-40.039,0.000
1737556676.470,0.000,-6.348,0.000,-33.203,0.000
1737556676.474,0.000,-5.859,0.000,-35.645,0.000
1737556676.478,0.000,-8.789,0.000,-46.387,0.000
1737556676.482,0.000,-8.789,0.000,-40.527,0.000
1737556676.486,0.000,-5.859,0.000,-33.203,0.000
1737556676.490,0.000,-8.789,0.000,-25.879,0.000
1737556676.494,0.000,-16.113,0.000,-19.531,0.000
1737556676.498,0.000,-18.066,0.000,-48.828,0.000
1737556676.502,0.000,-19.043,0.000,-58.105,0.000
1737556676.505,0.000,-21.484,0.000,-43.457,0.000
1737556676.509,-47.852,-9.766,-13.184,-11.719,0.000
1737556676.513,-17.090,1.953,1.465,-10.742,0.000
1737556676.517,-19.531,-9.766,-1.953,-44.922,0.000
1737556676.521,-32.227,-22.949,-17.090,-50.781,0.000
1737556676.525,-49.805,-16.602,-24.414,-39.062,0.000
1737556676.529,-42.969,-15.137,-16.113,-26.367,0.000
1737556676.533,-22.949,-10.254,-11.230,-19.531,0.000
1737556676.537,-26.367,-4.395,-24.902,-29.785,0.000
1737556676.541,-38.086,0.000,-38.086,-17.090,0.000
1737556676.545,-32.715,-9.277,-33.691,-20.996,0.000
1737556676.548,-37.109,-20.996,-39.551,-36.621,0.000
1737556676.552,-36.133,-24.414,-33.203,-31.738,0.000
1737556676.556,-15.137,-5.371,0.000,-13.672,0.000
1737556676.560,-19.043,-3.906,0.000,-14.160,0.000
1737556676.564,-36.133,-20.508,0.000,-54.688,0.000
1737556676.568,-3.906,-10.742,0.000,-35.645,0.000
1737556676.572,3.906,-6.348,0.000,-15.137,0.000
1737556676.576,-36.621,-22.461,0.000,-35.156,0.000
1737556676.580,-48.828,-21.484,0.000,-42.480,0.000
1737556676.584,-39.551,-15.625,0.000,-32.227,0.000
1737556676.587,-20.508,-13.672,0.000,-13.672,0.000
1737556676.591,-2.930,-5.371,0.000,-9.277,0.000
1737556676.595,-11.230,-12.207,0.000,-15.625,0.000
1737556676.599,-39.551,-20.508,0.000,-23.926,0.000
1737556676.603,0.000,-20.020,-19.043,-38.086,0.000
1737556676.607,0.000,-15.137,-21.484,-36.133,0.000
1737556676.611,0.000,-4.883,-29.297,-7.812,0.000
1737556676.615,0.000,-16.602,-40.527,-20.996,0.000
1737556676.619,0.000,-24.414,-41.504,-46.875,0.000
1737556676.623,0.000,-9.766,-47.363,-48.828,0.000
1737556676.627,0.000,-9.277,-43.945,-53.711,0.000
1737556676.630,0.000,-15.625,-24.902,-38.086,0.000
1737556676.634,0.000,-21.484,-25.391,-18.066,0.000
1737556676.638,0.000,-30.273,-26.855,-37.109,0.000
1737556676.642,0.000,-19.043,-28.320,-52.246,0.000
1737556676.646,0.000,-9.277,-40.039,-34.668,0.000
1737556676.650,-39.551,-11.719,-41.992,-20.508,0.000
1737556676.654,-10.742,-9.766,-31.738,-9.766,0.000
1737556676.658,-36.621,-11.719,-27.832,-18.066,0.000
1737556676.662,-39.551,-25.391,-41.016,-27.832,0.000
1737556676.666,-3.906,-21.973,-39.062,-6.348,0.000
1737556676.670,-3.418,-13.184,-30.762,19.531,0.000
1737556676.673,-33.691,-10.742,-43.457,-5.371,0.000
1737556676.677,-48.340,-17.578,-47.852,-31.250,0.000
1737556676.681,-51.758,-31.738,-41.504,-47.852,0.000
1737556676.685,-41.016,-28.809,-27.344,-53.223,0.000
1737556676.689,-7.812,-12.207,-19.531,-16.113,0.000
1737556676.693,-7.324,-11.719,-23.926,-5.859,0.000
1737556676.697,-24.414,-21.973,-23.438,-15.137,0.000
1737556676.701,-39.551,-21.484,-26.367,-19.043,0.000
1737556676.705,-36.621,-25.879,-35.156,-20.020,0.000
1737556676.709,-13.184,-20.508,-32.227,-7.324,0.000
1737556676.712,-19.531,-4.883,-16.602,5.859,0.000
1737556676.716,-36.621,-9.277,-27.344,-15.625,0.000
1737556676.720,-38.086,-22.461,-41.992,-33.691,0.000
1737556676.724,-42.969,-25.391,-35.645,-38.574,0.000
1737556676.728,-5.371,-9.766,-34.668,-26.855,0.000
1737556676.732,18.066,-0.488,-48.828,-2.441,0.000
1737556676.736,-19.531,-18.555,-30.273,0.000,0.000
1737556676.740,-31.250,-25.391,-1.465,-17.578,0.000
1737556676.744,-25.391,-12.695,0.000,-26.367,0.000
1737556676.748,-10.742,-4.883,0.000,-25.391,0.000
1737556676.752,-8.301,-9.277,0.000,-24.414,0.000
1737556676.755,-36.133,-14.648,0.000,-27.832,0.000
1737556676.759,-23.438,-14.648,0.000,-37.598,0.000
1737556676.763,-15.625,-13.184,0.000,-16.113,0.000
1737556676.767,-6.348,-15.625,0.000,-16.113,0.000
1737556676.771,17.090,-9.766,0.000,-29.785,0.000
1737556676.775,-19.043,-15.137,0.000,-19.531,0.000
1737556676.779,-57.617,-26.367,0.000,-17.578,0.000
1737556676.783,-48.340,-18.066,0.000,-15.137,0.000
1737556676.787,-7.324,-11.230,0.000,-3.906,0.000
1737556676.791,11.719,-10.254,-7.812,-1.465,0.000
1737556676.795,-1.953,-15.137,0.977,-18.066,0.000
1737556676.798,-35.156,-26.855,-13.672,-35.645,0.000
1737556676.802,-39.062,-19.043,-31.250,-38.574,0.000
1737556676.806,-17.090,-8.301,-36.621,-15.625,0.000
1737556676.810,-1.465,-10.254,-23.438,2.441,0.000
1737556676.814,-16.113,-18.066,-15.625,-12.207,0.000
1737556676.818,-20.508,-23.926,-20.508,-8.301,0.000
1737556676.822,-43.457,-20.020,-24.414,-11.230,0.000
1737556676.826,-44.922,-21.973,-23.438,-24.902,0.000
1737556676.830,-34.668,-17.090,-29.785,-0.488,0.000
1737556676.834,-10.254,-13.672,-25.879,-2.441,0.000
1737556676.837,-29.297,-24.902,-18.555,-24.414,0.000
1737556676.841,-52.246,-24.902,-13.184,-20.508,0.000
1737556676.845,-10.742,-13.184,-7.812,-12.207,0.000
1737556676.849,11.719,-20.020,-12.207,1.953,0.000
1737556676.853,-2.930,-34.668,-18.555,3.906,0.000
1737556676.857,-23.438,-30.762,-33.691,-18.555,0.000
1737556676.861,-51.758,-31.738,-34.180,-34.668,0.000
1737556676.865,-33.203,-28.320,-18.555,-22.461,0.000
1737556676.869,-3.906,-20.508,-19.531,-4.883,0.000
1737556676.873,9.766,-16.113,-29.785,6.348,0.000
1737556676.877,3.906,-11.230,-23.926,2.441,0.000
1737556676.880,-14.160,-13.672,-13.672,-31.250,0.000
1737556676.884,-21.973,-20.020,-10.254,-37.109,0.000
1737556676.888,-2.930,-20.020,-11.230,-19.531,0.000
1737556676.892,-12.695,-20.508,-10.254,-14.160,0.000
1737556676.896,-16.602,-25.879,-23.926,-11.230,0.000
1737556676.900,6.836,-18.555,-34.180,-1.953,0.000
1737556676.904,-16.602,-20.020,-34.668,4.883,0.000
1737556676.908,-20.508,-18.066,-39.062,0.488,0.000
1737556676.912,-1.953,-14.160,-35.156,-1.465,0.000
1737556676.916,1.953,-16.113,-30.273,5.859,0.000
1737556676.919,-5.371,-9.277,-23.926,-7.324,0.000
1737556676.923,7.324,-8.301,-9.277,-5.371,0.000
1737556676.927,10.742,-7.812,-13.672,0.977,0.000
1737556676.931,-3.906,-5.371,-8.789,-7.812,0.000
1737556676.935,-6.836,-12.695,-10.254,-18.555,0.000
1737556676.939,-39.062,-27.344,-17.578,-34.180,0.000
1737556676.943,-26.855,-30.273,-7.812,-24.414,0.000
1737556676.947,0.488,-21.484,-1.465,-8.789,0.000
1737556676.951,5.859,-17.578,-9.277,6.836,0.000
1737556676.955,1.953,-16.602,-28.809,19.531,0.000
1737556676.959,-11.719,-18.066,-24.902,1.465,0.000
1737556676.962,-25.879,-23.438,-18.555,-18.555,0.000
1737556676.966,-4.883,-17.578,-29.297,-16.602,0.000
1737556676.970,10.742,-6.836,-25.879,-13.184,0.000
1737556676.974,-22.461,-21.484,-17.578,-14.160,0.000
1737556676.978,0.000,-26.367,0.000,-25.879,0.000
1737556676.982,0.000,-23.926,0.000,-31.250,0.000
1737556676.986,0.000,-28.809,0.000,1.465,0.000
1737556676.990,0.000,-21.973,0.000,2.441,0.000
1737556676.994,0.000,-10.742,0.000,-12.695,0.000
1737556676.998,0.000,-5.859,0.000,-27.832,0.000
1737556677.002,0.000,0.488,0.000,-33.203,0.000
1737556677.005,0.000,-5.859,0.000,-31.250,0.000
1737556677.009,0.000,-9.766,0.000,-11.719,0.000
1737556677.013,0.000,-6.348,0.000,4.883,0.000
1737556677.017,0.000,-9.277,0.000,-13.672,0.000
1737556677.021,0.000,-13.672,0.000,-19.531,0.000
1737556677.025,-27.832,-17.090,-19.531,-23.438,0.000
1737556677.029,-7.812,-22.461,-10.742,-25.391,0.000
1737556677.033,4.883,-16.113,-10.742,-12.695,0.000
1737556677.037,-22.461,-15.625,-10.742,-11.230,0.000
1737556677.041,-33.203,-18.555,-11.719,-17.090,0.000
1737556677.044,-3.418,-7.324,-24.902,-11.230,0.000
1737556677.048,8.789,-3.418,-32.715,6.348,0.000
1737556677.052,-7.324,-18.066,-24.902,1.953,0.000
1737556677.056,-11.230,-24.902,-7.324,-27.832,0.000
1737556677.060,-21.973,-17.090,-7.812,-47.363,0.000
1737556677.064,-53.223,-16.602,-21.973,-46.387,0.000
1737556677.068,-28.320,-15.137,-21.484,-14.648,0.000
1737556677.072,6.836,-9.277,-28.809,1.953,0.000
1737556677.076,-17.578,-17.578,-22.461,-16.602,0.000
1737556677.080,-54.688,-29.297,-22.949,-32.715,0.000
1737556677.084,-51.758,-24.902,-36.621,-28.320,0.000
1737556677.087,-15.137,-8.789,-17.090,-20.996,0.000
1737556677.091,3.418,-8.301,-17.578,-5.371,0.000
1737556677.095,-12.207,-24.902,-39.551,-6.836,0.000
1737556677.099,-40.527,-26.855,-20.508,-25.879,0.000
1737556677.103,-44.434,-22.949,-0.977,-14.648,0.000
1737556677.107,-13.672,-22.949,-5.859,-27.832,0.000
1737556677.111,10.254,-22.461,-7.324,-24.902,0.000
1737556677.115,-7.812,-17.090,-14.648,-20.020,0.000
1737556677.119,-40.039,-21.484,-27.344,-37.109,0.000
1737556677.123,-33.203,-21.484,-31.250,-19.531,0.000
1737556677.127,-2.441,-11.230,-26.367,-7.812,0.000
1737556677.130,-17.090,-18.066,-16.602,-14.160,0.000
1737556677.134,-25.391,-25.879,-8.789,-10.254,0.000
1737556677.138,-28.320,-24.414,-26.855,-7.324,0.000
1737556677.142,-38.086,-28.809,-37.598,-10.742,0.000
1737556677.146,-20.020,-21.484,-25.391,-13.184,0.000
1737556677.150,-4.395,-20.508,-11.719,-14.160,0.000
1737556677.154,-15.625,-28.809,-7.324,-24.414,0.000
1737556677.158,-35.645,-28.809,-14.648,-34.180,0.000
1737556677.162,-40.527,-31.738,-24.902,-39.551,0.000
1737556677.166,-34.180,-27.344,-21.484,-25.391,0.000
1737556677.169,-21.484,-18.555,-17.578,-14.160,0.000
1737556677.173,-16.602,-18.555,-15.137,-29.785,0.000
1737556677.177,-31.738,-25.879,-24.414,-32.715,0.000
1737556677.181,-42.969,-22.949,-40.039,-24.414,0.000
1737556677.185,-14.160,-25.879,-31.738,-14.648,0.000
1737556677.189,1.465,-25.879,-21.484,-6.836,0.000
1737556677.193,-9.766,-10.742,-20.996,-0.977,0.000
1737556677.197,-23.926,-15.137,-16.602,-2.930,0.000
1737556677.201,-32.227,-21.973,-12.207,2.441,0.000
1737556677.205,-2.930,-17.578,-12.207,4.395,0.000
1737556677.209,-4.883,-20.996,-16.113,20.020,0.000
1737556677.212,-0.488,-20.996,-12.207,25.879,0.000
1737556677.216,0.000,-10.254,-14.648,-20.996,0.000
1737556677.220,-25.391,-18.555,-28.320,-50.293,0.000
1737556677.224,-11.230,-29.785,-29.785,-14.160,0.000
1737556677.228,3.418,-18.066,-18.555,-8.301,0.000
1737556677.232,-1.953,-8.789,-7.812,-22.461,0.000
1737556677.236,-9.277,-11.719,-10.742,-24.902,0.000
1737556677.240,-16.602,-17.090,-16.602,-31.250,0.000
1737556677.244,-6.348,-14.160,-25.879,-7.324,0.000
1737556677.248,12.695,-3.418,-27.344,4.883,0.000
1737556677.251,14.648,-8.301,-9.766,10.254,0.000
1737556677.255,-2.441,-18.066,-1.953,10.742,0.000
1737556677.259,-32.227,-22.949,-12.207,-1.953,0.000
1737556677.263,-20.508,-27.344,-21.973,-6.348,0.000
1737556677.267,1.953,-25.879,-26.855,-1.465,0.000
1737556677.271,10.742,-31.738,-27.832,0.488,0.000
1737556677.275,-1.953,-38.086,-33.203,-7.324,0.000
1737556677.279,-29.297,-23.926,-32.227,-7.812,0.000
1737556677.283,-33.691,-17.090,-24.414,-0.977,0.000
1737556677.287,2.930,-5.859,-24.902,-2.930,0.000
1737556677.291,15.625,-0.977,-22.461,3.906,0.000
1737556677.294,-27.832,-18.555,-18.066,-10.742,0.000
1737556677.298,-41.992,-34.180,-19.043,-32.715,0.000
1737556677.302,-30.273,-28.809,-28.809,-34.668,0.000
1737556677.306,-30.762,-16.113,-44.434,-32.715,0.000
1737556677.310,-4.395,-11.230,-35.645,-6.836,0.000
1737556677.314,28.320,-17.578,-18.066,5.859,0.000
1737556677.318,-5.371,-27.344,-16.602,-4.395,0.000
1737556677.322,-42.969,-27.344,-14.160,-22.461,0.000
1737556677.326,-29.297,-21.973,-20.996,-26.367,0.000
1737556677.330,-5.859,-24.414,-25.391,-2.930,0.000
1737556677.334,-9.766,-20.508,-20.996,-1.953,0.000
1737556677.337,-32.715,-21.973,-20.508,-20.508,0.000
1737556677.341,-45.410,-23.926,-25.391,-29.785,0.000
1737556677.345,-18.066,-14.648,-35.645,-16.602,0.000
1737556677.349,5.859,-12.695,-31.738,-1.953,0.000
1737556677.353,-17.090,-17.578,0.000,0.000,0.000
1737556677.357,-23.926,-3.906,0.000,0.000,0.000
1737556677.361,-15.625,33.203,0.000,0.000,0.000
1737556677.365,-8.301,39.062,0.000,0.000,0.000
1737556677.369,-19.531,19.531,0.000,0.000,0.000
1737556677.373,-84.473,5.859,0.000,0.000,0.000
1737556677.376,-69.824,108.887,0.000,0.000,0.000
1737556677.380,-73.730,240.723,0.000,0.000,0.000
1737556677.384,-138.184,116.211,0.000,0.000,0.000
1737556677.388,-183.594,-43.457,0.000,0.000,0.000
1737556677.392,-258.789,-62.988,0.000,0.000,0.000
1737556677.396,-280.762,20.508,0.000,0.000,0.000
1737556677.400,0.000,153.809,82.520,-317.871,0.000
1737556677.404,0.000,222.656,118.164,-334.473,0.000
1737556677.408,0.000,252.441,450.684,-332.520,0.000
1737556677.412,0.000,260.742,798.340,-311.035,0.000
1737556677.416,0.000,320.801,954.102,-321.777,0.000
1737556677.419,0.000,476.562,968.750,-361.328,0.000
1737556677.423,0.000,667.969,967.773,-380.859,0.000
1737556677.427,0.000,868.164,971.680,-366.699,0.000
1737556677.431,0.000,966.309,970.703,-308.594,0.000
1737556677.435,0.000,968.750,970.703,-285.645,0.000
1737556677.439,0.000,969.238,970.703,-323.242,0.000
1737556677.443,0.000,971.680,970.703,-337.891,0.000
1737556677.447,-312.500,970.703,970.703,-293.945,0.000
1737556677.451,-335.449,970.703,970.703,-278.320,0.000
1737556677.455,-322.266,970.703,970.703,-267.090,0.000
1737556677.459,-309.570,970.703,970.703,-242.188,0.000
1737556677.462,-314.453,970.703,970.703,-239.746,0.000
1737556677.466,-362.793,970.703,970.703,-194.824,0.000
1737556677.470,-361.816,970.703,970.703,-172.852,0.000
1737556677.474,-337.891,970.703,970.703,-183.594,0.000
1737556677.478,-324.219,970.703,970.703,-186.035,0.000
1737556677.482,-318.848,970.703,970.703,-170.898,0.000
1737556677.486,-367.188,970.703,970.703,-149.414,0.000
1737556677.490,-385.742,971.191,970.703,-120.117,0.000
1737556677.494,-82.520,970.215,971.680,-89.355,0.000
1737556677.498,-81.055,968.750,966.309,-65.430,0.000
1737556677.501,-62.500,972.656,973.633,-41.016,0.000
1737556677.505,-55.664,914.551,953.613,3.418,0.000
1737556677.509,2.441,816.895,816.406,15.625,0.000
1737556677.513,34.180,742.188,681.152,0.000,0.000
1737556677.517,16.602,657.227,589.355,5.859,0.000
1737556677.521,17.090,589.844,486.328,14.648,0.000
1737556677.525,42.480,537.598,377.930,46.387,0.000
1737556677.529,65.918,486.816,281.738,74.219,0.000
1737556677.533,85.449,439.941,215.820,86.914,0.000
1737556677.537,96.191,392.090,162.109,90.332,0.000
1737556677.541,80.566,353.516,84.473,92.773,0.000
1737556677.544,95.215,322.754,-1.465,122.559,0.000
1737556677.548,146.973,294.434,-42.480,135.254,0.000
1737556677.552,155.762,272.461,-53.711,145.996,0.000
1737556677.556,124.512,239.258,-86.914,141.113,0.000
1737556677.560,109.375,195.801,-124.512,109.863,0.000
1737556677.564,82.520,161.621,-154.785,109.863,0.000
1737556677.568,73.242,141.602,-200.195,129.395,0.000
1737556677.572,111.816,129.395,-247.559,128.906,0.000
1737556677.576,116.211,104.980,-271.973,133.789,0.000
1737556677.580,88.867,76.172,-272.461,119.141,0.000
1737556677.583,85.938,65.918,-269.531,103.027,0.000
1737556677.587,0.000,60.059,-280.762,119.629,0.000
1737556677.591,0.000,39.062,-304.199,111.328,0.000
1737556677.595,0.000,23.926,-315.430,102.051,0.000
1737556677.599,0.000,9.766,-315.430,113.281,0.000
1737556677.603,0.000,-6.348,-325.195,130.371,0.000
1737556677.607,0.000,-12.695,-325.684,81.055,0.000
1737556677.611,0.000,-18.555,-317.871,62.012,0.000
1737556677.615,0.000,-19.043,-338.867,79.102,0.000
1737556677.619,0.000,-26.855,-362.793,83.984,0.000
1737556677.623,0.000,-33.203,-342.285,92.285,0.000
1737556677.626,0.000,-35.645,-305.664,81.055,0.000
1737556677.630,0.000,-45.410,-294.922,75.684,0.000
1737556677.634,67.871,-45.410,-310.059,78.125,0.000
1737556677.638,60.547,-45.898,-320.312,81.543,0.000
1737556677.642,61.523,-49.805,-328.125,73.730,0.000
1737556677.646,79.590,-49.805,-356.934,71.289,0.000
1737556677.650,83.008,-51.270,-344.238,73.242,0.000
1737556677.654,61.035,-54.688,-304.199,68.359,0.000
1737556677.658,23.926,-71.777,-292.969,44.922,0.000
1737556677.662,4.395,-86.914,-283.203,23.438,0.000
1737556677.666,21.973,-83.984,-272.949,33.203,0.000
1737556677.669,42.480,-78.125,-285.156,46.875,0.000
1737556677.673,45.898,-78.613,-309.570,34.668,0.000
1737556677.677,14.648,-80.566,-318.359,28.320,0.000
1737556677.681,26.367,-77.148,-318.848,30.762,0.000
1737556677.685,33.691,-68.848,-294.922,28.320,0.000
1737556677.689,27.344,-60.547,-282.227,38.086,0.000
1737556677.693,41.016,-65.430,-289.551,52.734,0.000
1737556677.697,44.434,-80.078,-273.926,62.012,0.000
1737556677.701,23.926,-86.914,-258.301,39.062,0.000
1737556677.705,0.488,-82.031,-256.348,20.020,0.000
1737556677.708,24.902,-87.891,-257.324,31.738,0.000
1737556677.712,30.762,-92.285,-270.996,32.227,0.000
1737556677.716,10.742,-90.332,-290.527,8.789,0.000
1737556677.720,8.301,-84.961,-266.602,9.766,0.000
1737556677.724,-23.926,-73.730,-238.770,-13.184,0.000
1737556677.728,0.000,-75.684,-228.027,-30.273,0.000
1737556677.732,0.000,-74.707,-229.492,-8.789,0.000
1737556677.736,0.000,-76.660,-251.953,-11.230,0.000
1737556677.740,0.000,-83.008,-259.766,-1.465,0.000
1737556677.744,0.000,-85.938,-260.254,12.207,0.000
1737556677.748,0.000,-80.078,-256.348,16.602,0.000
1737556677.751,0.000,-62.988,-217.285,32.715,0.000
1737556677.755,0.000,-65.918,-183.105,38.086,0.000
1737556677.759,0.000,-82.520,-182.129,10.254,0.000
1737556677.763,0.000,-95.703,-206.543,-27.832,0.000
1737556677.767,0.000,-86.426,-223.145,-33.691,0.000
1737556677.771,0.000,-78.125,-209.473,3.906,0.000
1737556677.775,8.789,-77.148,-199.707,6.348,0.000
1737556677.779,-8.301,-70.801,-202.637,-14.648,0.000
1737556677.783,-10.254,-67.383,-212.402,-5.859,0.000
1737556677.787,8.789,-64.453,-219.238,21.484,0.000
1737556677.791,17.090,-65.918,-212.402,26.367,0.000
1737556677.794,-11.719,-70.312,-177.734,-2.930,0.000
1737556677.798,-18.066,-75.195,-152.832,-4.883,0.000
1737556677.802,-13.672,-66.406,-166.016,4.883,0.000
1737556677.806,-3.906,-62.012,-172.852,6.348,0.000
1737556677.810,31.738,-58.105,-167.480,22.949,0.000
1737556677.814,20.020,-50.781,-164.551,24.414,0.000
1737556677.818,-25.879,-57.129,-157.227,-3.418,0.000
1737556677.822,-16.602,-66.895,-157.227,-26.367,0.000
1737556677.826,6.348,-59.570,-159.668,-10.254,0.000
1737556677.830,18.555,-48.828,-150.391,23.926,0.000
1737556677.834,27.832,-46.875,-154.785,40.527,0.000
1737556677.837,19.531,-46.875,-165.039,-4.395,0.000
1737556677.841,10.254,-43.457,-145.508,-19.043,0.000
1737556677.845,1.465,-60.547,-128.418,9.277,0.000
1737556677.849,-0.488,-68.848,-133.789,4.395,0.000
1737556677.853,5.371,-53.711,-157.227,11.719,0.000
1737556677.857,-22.461,-54.199,-158.203,-4.883,0.000
1737556677.861,-31.738,-67.383,-125.977,-39.062,0.000
1737556677.865,-9.766,-62.988,-106.445,-42.969,0.000
1737556677.869,-6.836,-52.246,-118.164,-32.227,0.000
1737556677.873,-2.930,-51.758,-129.395,-9.766,0.000
1737556677.876,-6.836,-57.617,-146.484,2.441,0.000
1737556677.880,-18.555,-66.895,-163.574,-9.277,0.000
1737556677.884,-13.672,-64.941,-145.996,-8.789,0.000
1737556677.888,-9.277,-62.012,-134.277,0.000,0.000
1737556677.892,0.977,-55.664,-147.461,-0.488,0.000
1737556677.896,-23.926,-59.570,-139.648,-29.297,0.000
1737556677.900,-32.227,-59.082,-118.164,-42.969,0.000
1737556677.904,-9.766,-55.664,-100.098,-26.855,0.000
1737556677.908,-2.441,-53.223,-124.512,-8.789,0.000
1737556677.912,4.883,-47.852,-132.324,-8.301,0.000
1737556677.916,-27.832,-56.641,-126.465,-32.227,0.000
1737556677.919,-33.691,-60.059,-125.977,-38.574,0.000
1737556677.923,-33.691,-62.012,-113.281,-18.555,0.000
1737556677.927,-16.113,-62.988,-110.840,-14.160,0.000
1737556677.931,30.273,-48.340,-125.000,-5.371,0.000
1737556677.935,22.461,-36.133,-141.602,-3.906,0.000
1737556677.939,-16.602,-46.875,-130.859,4.883,0.000
1737556677.943,-35.645,-54.688,-119.141,-9.277,0.000
1737556677.947,-15.137,-54.688,-114.258,-34.668,0.000
1737556677.951,13.184,-51.270,-96.191,-25.391,0.000
1737556677.955,6.836,-52.246,-85.938,-29.785,0.000
1737556677.958,-8.301,-54.199,-108.887,-30.762,0.000
1737556677.962,-17.090,-49.316,0.000,-22.949,0.000
1737556677.966,-13.672,-45.898,0.000,-19.043,0.000
1737556677.970,10.742,-43.457,0.000,3.418,0.000
1737556677.974,22.949,-34.180,0.000,14.648,0.000
1737556677.978,-4.395,-42.969,0.000,-19.531,0.000
1737556677.982,-24.414,-44.434,0.000,-38.086,0.000
1737556677.986,-16.113,-36.133,0.000,-23.438,0.000
1737556677.990,-4.395,-34.180,0.000,7.324,0.000
1737556677.994,-13.672,-48.828,0.000,-12.695,0.000
1737556677.998,-54.199,-69.824,0.000,-58.105,0.000
1737556678.001,-41.016,-63.477,0.000,-59.082,0.000
1737556678.005,-5.859,-47.363,0.000,-20.508,0.000
1737556678.009,0.000,-37.109,-137.207,11.230,0.000
1737556678.013,0.000,-39.551,-124.023,-10.254,0.000
1737556678.017,0.000,-42.480,-74.707,-37.598,0.000
1737556678.021,0.000,-51.758,-70.312,-47.852,0.000
1737556678.025,0.000,-57.617,-80.566,-48.828,0.000
1737556678.029,0.000,-40.039,-80.078,-30.762,0.000
1737556678.033,0.000,-30.273,-88.379,-19.531,0.000
1737556678.037,0.000,-39.062,-105.469,-18.555,0.000
1737556678.041,0.000,-51.270,-107.910,-22.461,0.000
1737556678.044,0.000,-50.781,-99.121,-32.227,0.000
1737556678.048,0.000,-36.133,-94.727,-9.277,0.000
1737556678.052,0.000,-31.738,-96.680,8.301,0.000
1737556678.056,-2.930,-46.387,-97.656,-12.207,0.000
1737556678.060,-44.434,-52.246,-88.867,-13.672,0.000
1737556678.064,-43.457,-49.316,-76.172,-13.672,0.000
1737556678.068,-20.996,-48.828,-76.172,-30.273,0.000
1737556678.072,13.184,-35.645,-83.496,-22.461,0.000
1737556678.076,19.531,-33.691,-94.727,11.230,0.000
1737556678.080,-25.879,-47.852,-96.680,-17.090,0.000
1737556678.083,-32.715,-53.711,-79.102,-38.086,0.000
1737556678.087,-3.906,-42.480,-68.359,-11.719,0.000
1737556678.091,1.953,-32.715,-84.961,-2.930,0.000
1737556678.095,-2.930,-30.273,-85.938,-0.488,0.000
1737556678.099,-12.695,-40.039,-75.195,0.000,0.000
1737556678.103,0.000,-43.457,-85.449,-7.324,0.000
1737556678.107,0.000,-31.250,-91.309,-6.836,0.000
1737556678.111,0.000,-29.785,-72.754,-12.695,0.000
1737556678.115,0.000,-40.039,-74.707,-27.832,0.000
1737556678.119,0.000,-48.340,-87.402,-40.527,0.000
1737556678.123,0.000,-45.898,-84.961,-42.480,0.000
1737556678.126,0.000,-40.039,-98.633,-18.066,0.000
1737556678.130,0.000,-40.527,-99.121,4.883,0.000
1737556678.134,0.000,-42.480,-69.824,19.531,0.000
1737556678.138,0.000,-54.688,-65.430,9.766,0.000
1737556678.142,0.000,-46.875,-85.938,-10.254,0.000
1737556678.146,0.000,-37.598,-81.055,-51.270,0.000
1737556678.150,-25.879,-41.992,-67.383,-56.152,0.000
1737556678.154,-21.973,-41.016,-68.359,-38.574,0.000
1737556678.158,-9.277,-40.527,-78.125,-33.691,0.000
1737556678.162,-7.324,-41.016,-89.844,-31.250,0.000
1737556678.166,-2.930,-42.969,-71.777,-9.277,0.000
1737556678.169,-3.418,-47.363,-59.082,-1.465,0.000
1737556678.173,-22.949,-48.828,-65.430,-17.090,0.000
1737556678.177,-33.691,-50.293,-76.660,-22.461,0.000
1737556678.181,-35.156,-60.059,-105.957,-16.602,0.000
1737556678.185,-35.645,-50.293,-103.027,-2.441,0.000
1737556678.189,-8.789,-35.645,-70.312,-15.137,0.000
1737556678.193,0.488,-35.156,-53.711,-20.508,0.000
1737556678.197,-7.324,-32.227,-47.852,-10.742,0.000
1737556678.201,-6.348,-26.855,-53.711,-15.625,0.000
1737556678.205,4.883,-24.902,-74.707,0.977,0.000
1737556678.208,11.719,-19.043,-89.355,22.461,0.000
1737556678.212,2.930,-13.672,-86.426,-8.301,0.000
1737556678.216,-12.695,-20.996,-76.172,-25.391,0.000
1737556678.220,-10.254,-23.926,-81.543,-2.930,0.000
1737556678.224,-4.395,-27.832,-65.918,0.977,0.000
1737556678.228,8.789,-30.273,-40.527,-3.906,0.000
1737556678.232,13.184,-23.926,-56.641,-7.324,0.000
1737556678.236,-9.766,-26.855,-77.637,-21.484,0.000
1737556678.240,-29.297,-27.344,-75.684,-28.320,0.000
1737556678.244,-26.367,-28.809,-78.613,-23.438,0.000
1737556678.248,-1.465,-31.738,-76.172,-15.137,0.000
1737556678.251,26.855,-27.832,-59.570,3.418,0.000
1737556678.255,14.160,-31.250,-55.664,12.695,0.000
1737556678.259,-18.066,-37.109,-81.543,4.883,0.000
1737556678.263,-29.297,-30.273,-105.957,4.883,0.000
1737556678.267,-14.160,-32.227,-63.477,4.883,0.000
1737556678.271,16.602,-33.203,-20.508,2.441,0.000
1737556678.275,3.906,-23.438,-39.062,9.277,0.000
1737556678.279,-30.273,-29.785,-68.359,-11.230,0.000
1737556678.283,-24.902,-33.691,-64.453,-24.414,0.000
1737556678.287,-24.902,-22.461,-59.570,5.859,0.000
1737556678.291,5.859,-14.648,0.000,23.438,0.000
1737556678.294,15.137,-14.160,0.000,21.484,0.000
1737556678.298,-15.625,-27.344,0.000,17.578,0.000
1737556678.302,-41.504,-36.621,0.000,-14.648,0.000
1737556678.306,-19.531,-31.738,0.000,-38.086,0.000
1737556678.310,21.484,-32.227,0.000,-26.367,0.000
1737556678.314,3.418,-32.715,0.000,-3.418,0.000
1737556678.318,-10.742,-40.039,0.000,10.742,0.000
1737556678.322,-1.465,-38.086,0.000,1.465,0.000
1737556678.326,-9.766,-27.832,0.000,-2.441,0.000
1737556678.330,2.930,-17.578,0.000,11.230,0.000
1737556678.333,1.465,-13.672,0.000,28.809,0.000
1737556678.337,0.000,-7.812,-74.707,7.812,0.000
1737556678.341,0.000,-10.254,-57.129,-31.250,0.000
1737556678.345,0.000,-19.043,-29.297,-29.297,0.000
1737556678.349,0.000,-20.020,-31.250,-35.156,0.000
1737556678.353,0.000,-4.395,-32.715,-57.617,0.000
1737556678.357,0.000,4.395,-33.203,-85.938,0.000
1737556678.361,0.000,0.488,-51.270,-124.023,0.000
1737556678.365,0.000,5.371,-60.059,-117.676,0.000
1737556678.369,0.000,17.578,-49.805,-107.422,0.000
1737556678.373,0.000,31.250,-41.992,-135.254,0.000
1737556678.376,0.000,37.109,-25.391,-163.086,0.000
1737556678.380,0.000,29.785,-8.789,-204.590,0.000
1737556678.384,-219.727,27.832,5.371,-236.328,0.000
1737556678.388,-212.891,38.086,9.277,-228.516,0.000
1737556678.392,-196.289,52.734,2.930,-226.562,0.000
1737556678.396,-226.562,41.992,8.301,-218.262,0.000
1737556678.400,-229.004,31.250,-12.695,-191.406,0.000
1737556678.404,-206.543,29.297,-26.367,-202.637,0.000
1737556678.408,-192.383,21.973,-11.719,-217.285,0.000
1737556678.412,-160.645,20.020,-31.738,-191.895,0.000
1737556678.416,-155.762,14.160,-25.879,-157.715,0.000
1737556678.419,-144.043,2.930,-6.836,-134.277,0.000
1737556678.423,-111.816,-9.277,-36.621,-149.902,0.000
1737556678.427,-95.215,-12.207,-40.039,-125.000,0.000
1737556678.431,-58.105,-20.508,-9.277,-77.637,0.000
1737556678.435,-45.898,-31.250,-14.648,-63.477,0.000
1737556678.439,-47.852,-36.621,-40.527,-41.016,0.000
1737556678.443,-46.875,-48.828,-51.758,-24.414,0.000
1737556678.447,-17.090,-56.641,-45.410,-15.625,0.000
1737556678.451,18.555,-46.875,-60.059,7.324,0.000
1737556678.455,31.738,-38.574,-70.801,34.668,0.000
1737556678.458,41.992,-45.898,-79.102,54.199,0.000
1737556678.462,20.996,-57.617,-75.684,40.527,0.000
1737556678.466,21.973,-68.848,-61.523,30.762,0.000
1737556678.470,52.246,-61.523,-53.711,56.152,0.000
1737556678.474,56.641,-50.293,-50.293,71.777,0.000
1737556678.478,37.109,-54.199,-63.965,58.105,0.000
1737556678.482,23.438,-61.523,-79.102,49.805,0.000
1737556678.486,24.902,-63.477,-93.262,62.012,0.000
1737556678.490,62.012,-54.199,-82.520,96.191,0.000
1737556678.494,88.379,-45.898,-55.664,123.047,0.000
1737556678.498,47.852,-59.570,-66.895,96.191,0.000
1737556678.501,15.625,-63.965,-84.473,75.195,0.000
1737556678.505,43.945,-52.246,-78.613,81.055,0.000
1737556678.509,58.105,-49.805,-73.730,59.082,0.000
1737556678.513,53.711,-56.641,-77.637,54.199,0.000
1737556678.517,38.574,-54.199,-82.031,66.895,0.000
1737556678.521,15.625,-53.711,-87.891,75.684,0.000
1737556678.525,0.000,-46.387,-103.027,83.008,0.000
1737556678.529,0.000,-41.504,-89.844,82.031,0.000
1737556678.533,0.000,-44.922,-70.801,91.309,0.000
1737556678.537,0.000,-46.387,-90.820,83.984,0.000
1737556678.541,0.000,-41.504,-73.730,47.363,0.000
1737556678.544,0.000,-37.109,-41.016,29.297,0.000
1737556678.548,0.000,-42.480,-44.922,51.758,0.000
1737556678.552,0.000,-41.016,-50.293,73.730,0.000
1737556678.556,0.000,-34.180,-80.566,66.895,0.000
1737556678.560,0.000,-30.273,-107.910,70.801,0.000
1737556678.564,0.000,-30.273,-87.402,81.543,0.000
1737556678.568,0.000,-35.156,-68.848,84.473,0.000
1737556678.572,28.320,-39.551,-68.359,48.340,0.000
1737556678.576,8.301,-33.203,-55.176,12.207,0.000
1737556678.580,-10.742,-36.621,-40.527,16.113,0.000
1737556678.583,0.000,-35.156,-46.875,35.645,0.000
1737556678.587,13.672,-27.344,-64.453,46.387,0.000
1737556678.591,20.020,-23.926,-69.336,57.129,0.000
1737556678.595,14.648,-30.273,-75.684,52.246,0.000
1737556678.599,-6.836,-40.527,-83.984,41.016,0.000
1737556678.603,-22.461,-49.316,-65.918,16.113,0.000
1737556678.607,4.883,-48.828,-33.691,12.207,0.000
1737556678.611,15.137,-38.574,-25.879,31.250,0.000
1737556678.615,-10.742,-42.480,-51.270,25.391,0.000
1737556678.619,-14.160,-42.969,0.000,9.277,0.000
1737556678.623,-16.602,-44.922,0.000,12.207,0.000
1737556678.626,-10.742,-41.016,0.000,31.250,0.000
1737556678.630,25.391,-30.762,0.000,49.805,0.000
1737556678.634,28.320,-28.320,0.000,63.477,0.000
1737556678.638,-17.090,-34.668,0.000,26.855,0.000
1737556678.642,-39.551,-40.527,0.000,-20.996,0.000
1737556678.646,-27.832,-37.109,0.000,-23.926,0.000
1737556678.650,19.043,-32.227,0.000,3.906,0.000
1737556678.654,34.180,-33.203,0.000,29.785,0.000
1737556678.658,-25.879,-39.062,0.000,29.297,0.000
1737556678.662,-40.039,-40.039,0.000,10.742,0.000
1737556678.666,0.488,-36.133,-39.062,13.184,0.000
1737556678.669,14.648,-26.855,-39.062,18.066,0.000
1737556678.673,8.789,-27.832,-36.621,4.883,0.000
1737556678.677,1.953,-34.180,-49.805,2.930,0.000
1737556678.681,-10.254,-43.945,-53.223,-2.441,0.000
1737556678.685,4.395,-35.645,-34.668,-6.836,0.000
1737556678.689,16.113,-24.414,-40.527,7.324,0.000
1737556678.693,8.301,-26.367,-70.801,20.996,0.000
1737556678.697,-21.484,-32.715,-74.219,4.395,0.000
1737556678.701,-7.812,-31.250,-56.641,-0.977,0.000
1737556678.705,20.020,-30.273,-28.809,-0.488,0.000
1737556678.708,6.836,-29.785,-19.531,2.441,0.000
1737556678.712,7.812,-28.809,0.000,20.020,0.000
1737556678.716,8.301,-28.809,0.000,19.043,0.000
1737556678.720,-6.836,-25.879,0.000,-10.742,0.000
1737556678.724,-26.855,-27.832,0.000,-23.926,0.000
1737556678.728,-15.137,-28.809,0.000,-12.207,0.000
1737556678.732,17.578,-28.320,0.000,1.953,0.000
1737556678.736,0.977,-30.762,0.000,4.395,0.000
1737556678.740,-15.625,-33.691,0.000,9.277,0.000
1737556678.744,-16.113,-46.387,0.000,22.461,0.000
1737556678.748,2.930,-39.062,0.000,2.930,0.000
1737556678.751,20.020,-22.461,0.000,9.277,0.000
1737556678.755,12.207,-26.367,0.000,14.160,0.000
1737556678.759,-36.621,-31.250,-28.809,-20.996,0.000
1737556678.763,-46.387,-27.344,-41.016,-17.578,0.000
1737556678.767,-15.137,-22.949,-42.969,-1.953,0.000
1737556678.771,2.930,-19.531,-51.758,-3.418,0.000
1737556678.775,7.324,-18.555,-71.777,-5.859,0.000
1737556678.779,-9.766,-21.484,-60.059,0.000,0.000
1737556678.783,-37.109,-30.273,-29.785,-10.742,0.000
1737556678.787,-23.926,-38.574,-33.691,-12.695,0.000
1737556678.790,-6.836,-41.992,-41.992,0.000,0.000
1737556678.794,-4.883,-34.668,-42.480,5.371,0.000
1737556678.798,-14.648,-35.156,-70.312,-8.789,0.000
1737556678.802,-32.227,-39.062,-72.266,-25.391,0.000
1737556678.806,-11.719,-38.574,-36.621,-18.066,0.000
1737556678.810,0.000,-31.250,-17.090,-6.348,0.000
1737556678.814,-24.414,-36.621,-36.621,-16.113,0.000
1737556678.818,-38.086,-46.387,-40.039,-27.832,0.000
1737556678.822,-59.082,-49.316,-29.297,-21.973,0.000
1737556678.826,-57.129,-43.457,-48.828,4.395,0.000
1737556678.830,-13.672,-33.203,-61.035,8.789,0.000
1737556678.833,-12.207,-37.109,-53.223,-7.812,0.000
1737556678.837,-25.879,-40.039,-32.715,-15.137,0.000
1737556678.841,-27.344,-47.852,-24.902,-15.625,0.000
1737556678.845,-15.625,-50.781,-42.480,-5.371,0.000
1737556678.849,7.324,-32.227,-39.062,28.320,0.000
1737556678.853,6.348,-32.715,-41.992,37.109,0.000
1737556678.857,-20.996,-41.016,-63.477,9.766,0.000
1737556678.861,-34.668,-41.992,-60.059,-1.953,0.000
1737556678.865,-16.602,-35.645,-41.992,-8.789,0.000
1737556678.869,-10.254,-29.785,-46.387,4.883,0.000
1737556678.873,2.441,-26.367,-43.457,34.180,0.000
1737556678.876,9.766,-27.832,-26.855,10.742,0.000
1737556678.880,-19.531,-41.992,-24.902,-28.320,0.000
1737556678.884,-31.250,-47.363,-35.645,-30.762,0.000
1737556678.888,-17.090,-44.922,-35.156,-11.230,0.000
1737556678.892,-21.484,-40.527,-40.527,4.395,0.000
1737556678.896,-16.602,-31.250,-53.223,5.371,0.000
1737556678.900,-28.320,-42.969,0.000,0.000,0.000
1737556678.904,-38.086,-46.875,0.000,0.000,0.000
1737556678.908,-15.137,-37.598,0.000,0.000,0.000
1737556678.912,-9.277,-43.945,0.000,0.000,0.000
1737556678.915,-13.184,-42.969,0.000,0.000,0.000
1737556678.919,-20.020,-35.156,0.000,0.000,0.000
1737556678.923,-33.691,-39.551,0.000,0.000,0.000
1737556678.927,-23.438,-47.363,0.000,0.000,0.000
1737556678.931,-7.812,-39.551,0.000,0.000,0.000
1737556678.935,-21.484,-39.551,0.000,0.000,0.000
1737556678.939,-41.992,-51.270,0.000,0.000,0.000
1737556678.943,-48.828,-46.875,0.000,0.000,0.000
1737556678.947,-34.180,-38.574,-81.055,-3.418,0.000
1737556678.951,-16.602,-45.898,-63.965,-18.066,0.000
1737556678.955,-24.414,-42.480,-34.668,-29.297,0.000
1737556678.958,-37.109,-44.922,-27.832,-31.738,0.000
1737556678.962,-33.691,-50.293,-20.996,-23.926,0.000
1737556678.966,-36.621,-39.551,-22.949,-29.785,0.000
1737556678.970,-41.016,-35.645,-36.133,-22.461,0.000
1737556678.974,-24.414,-34.668,-44.434,-12.207,0.000
1737556678.978,-28.809,-33.691,-47.852,-13.672,0.000
1737556678.982,-42.480,-39.551,-57.617,-22.461,0.000
1737556678.986,-36.621,-45.410,-68.848,-31.738,0.000
1737556678.990,-7.324,-38.574,-78.125,-1.953,0.000
1737556678.994,3.906,-24.414,-59.082,14.160,0.000
1737556678.998,-27.344,-32.227,-35.156,-16.113,0.000
1737556679.001,-28.809,-40.527,-29.785,-31.738,0.000
1737556679.005,-3.418,-35.156,-15.625,-23.926,0.000
1737556679.009,-4.395,-37.598,-10.254,-25.879,0.000
1737556679.013,-23.926,-31.738,-26.855,-21.484,0.000
1737556679.017,-9.766,-28.809,-46.387,-14.648,0.000
1737556679.021,-14.160,-30.762,-52.246,-28.809,0.000
1737556679.025,-37.109,-31.738,-67.383,-31.738,0.000
1737556679.029,-24.414,-35.156,-75.684,-14.160,0.000
1737556679.033,-6.836,-30.762,-39.551,-9.766,0.000
1737556679.037,-7.812,-37.109,-27.344,-34.668,0.000
1737556679.040,-31.738,-44.434,-40.039,-49.805,0.000
1737556679.044,-35.645,-34.180,-41.992,-29.785,0.000
1737556679.048,-9.766,-33.691,-47.363,-15.625,0.000
1737556679.052,-12.207,-38.574,-28.320,-8.301,0.000
1737556679.056,-27.344,-38.574,-15.137,-8.301,0.000
1737556679.060,-41.504,-35.645,-37.109,-16.602,0.000
1737556679.064,-48.828,-41.504,-53.223,-29.297,0.000
1737556679.068,-37.109,-45.898,-51.758,-23.926,0.000
1737556679.072,-9.766,-41.016,-37.598,-8.789,0.000
1737556679.076,-17.578,-43.457,-34.668,-12.695,0.000
1737556679.080,-38.574,-52.246,-41.016,-18.066,0.000
1737556679.083,-35.645,-48.340,-51.758,-10.742,0.000
1737556679.087,0.000,-34.180,-66.406,-7.324,0.000
1737556679.091,0.000,-43.457,-50.293,-0.977,0.000
1737556679.095,0.000,-50.293,-44.922,-11.230,0.000
1737556679.099,0.000,-52.734,-48.828,-47.363,0.000
1737556679.103,0.000,-57.617,-27.832,-50.293,0.000
1737556679.107,0.000,-43.457,-24.902,-26.367,0.000
1737556679.111,0.000,-38.086,-26.855,-6.348,0.000
1737556679.115,0.000,-48.828,-35.645,-9.277,0.000
1737556679.119,0.000,-44.922,-43.945,-13.184,0.000
1737556679.122,0.000,-42.969,-50.293,-14.160,0.000
1737556679.126,0.000,-38.574,-59.570,-8.301,0.000
1737556679.130,0.000,-31.250,-52.734,0.977,0.000
1737556679.134,0.000,-37.598,0.000,0.000,0.000
1737556679.138,9.766,-43.945,0.000,0.000,0.000
1737556679.142,-26.855,-42.969,0.000,0.000,0.000
1737556679.146,-47.852,-31.738,0.000,0.000,0.000
1737556679.150,-53.223,-22.949,0.000,0.000,0.000
1737556679.154,-35.645,-23.926,0.000,0.000,0.000
1737556679.158,2.441,-27.344,0.000,0.000,0.000
1737556679.162,-15.137,-36.133,0.000,0.000,0.000
1737556679.165,-41.504,-41.992,0.000,0.000,0.000
1737556679.169,-29.297,-34.668,0.000,0.000,0.000
1737556679.173,-15.137,-27.344,0.000,0.000,0.000
1737556679.177,0.488,-25.391,0.000,0.000,0.000
1737556679.181,-60.059,-41.016,-26.855,-51.758,0.000
1737556679.185,-44.922,-42.969,-33.203,-56.641,0.000
1737556679.189,-14.160,-29.785,-33.203,-34.180,0.000
1737556679.193,5.371,-24.902,-46.875,-11.230,0.000
1737556679.197,-15.137,-24.414,-61.523,0.977,0.000
1737556679.201,-37.109,-22.949,-53.223,-20.020,0.000
1737556679.205,-26.855,-32.715,-40.039,-39.551,0.000
1737556679.208,-20.020,-48.828,-35.156,-28.809,0.000
1737556679.212,-5.859,-41.504,-31.250,-16.113,0.000
1737556679.216,-5.859,-27.344,-20.996,-10.742,0.000
1737556679.220,-23.438,-27.832,-32.715,-25.391,0.000
1737556679.224,-25.391,-38.086,-54.199,-22.461,0.000
1737556679.228,-29.297,-44.922,-61.035,0.000,0.000
1737556679.232,-14.160,-34.180,-40.039,0.000,0.000
1737556679.236,-21.484,-34.668,-29.785,0.000,0.000
1737556679.240,-45.898,-40.039,-44.434,0.000,0.000
1737556679.244,-31.738,-29.297,-44.434,0.000,0.000
1737556679.247,-5.859,-26.367,-32.715,0.000,0.000
1737556679.251,14.160,-33.691,-33.691,0.000,0.000
1737556679.255,-5.859,-36.133,-35.645,0.000,0.000
1737556679.259,-45.410,-35.645,-31.738,0.000,0.000
1737556679.263,-58.594,-36.133,-48.828,0.000,0.000
1737556679.267,-19.043,-34.668,-61.523,0.000,0.000
1737556679.271,8.789,-29.785,-41.504,0.000,0.000
1737556679.275,8.301,-27.832,-13.672,13.184,0.000
1737556679.279,-2.441,-31.250,-12.695,15.137,0.000
1737556679.283,-10.254,-29.785,-30.273,-4.883,0.000
1737556679.287,0.488,-22.949,-41.504,-17.578,0.000
1737556679.290,0.488,-22.949,-37.109,-10.742,0.000
1737556679.294,-0.488,-23.438,-24.902,-5.371,0.000
1737556679.298,-7.324,-26.855,-28.809,-0.977,0.000
1737556679.302,-23.926,-25.391,-43.457,-14.648,0.000
1737556679.306,-19.531,-22.461,-47.363,-30.762,0.000
1737556679.310,-2.441,-19.531,-57.617,-6.348,0.000
1737556679.314,18.066,-24.414,-60.547,17.090,0.000
1737556679.318,1.953,-28.809,-53.711,14.648,0.000
1737556679.322,-50.293,-30.762,-67.871,13.184,0.000
1737556679.326,-44.434,-33.203,-66.895,24.902,0.000
1737556679.330,-3.906,-22.949,-43.457,14.160,0.000
1737556679.333,-3.418,-18.555,-32.227,-13.672,0.000
1737556679.337,-32.715,-36.621,-25.391,-28.320,0.000
1737556679.341,-53.223,-44.434,-20.020,-37.109,0.000
1737556679.345,-50.781,-38.086,-23.438,-29.297,0.000
1737556679.349,2.441,-28.809,-31.250,6.836,0.000
1737556679.353,20.996,-17.578,-41.504,42.969,0.000
1737556679.357,-21.484,-25.391,-30.273,35.645,0.000
1737556679.361,-43.457,-36.133,-24.414,2.930,0.000
1737556679.365,-26.367,-39.062,-31.250,-21.973,0.000
1737556679.369,-12.695,-40.527,-21.973,-16.602,0.000
1737556679.372,-21.484,-34.668,-36.621,0.488,0.000
1737556679.376,-16.602,-34.180,-75.195,-2.441,0.000
1737556679.380,-16.602,-32.715,-65.918,-17.090,0.000
1737556679.384,-32.715,-34.180,-31.250,-16.113,0.000
1737556679.388,-42.480,-34.180,-2.930,-4.883,0.000
1737556679.392,-7.812,-26.367,-1.953,12.695,0.000
1737556679.396,-0.488,-27.832,-37.598,21.973,0.000
1737556679.400,-25.391,-33.691,-47.363,10.742,0.000
1737556679.404,-30.273,-40.039,-34.180,-6.836,0.000
1737556679.408,-21.484,-34.180,-34.180,-8.789,0.000
1737556679.412,-7.812,-25.391,-46.387,0.977,0.000
1737556679.415,-16.602,-25.391,0.000,0.000,0.000
1737556679.419,-28.809,-31.250,0.000,0.000,0.000
1737556679.423,-30.762,-37.109,0.000,0.000,0.000
1737556679.427,-44.922,-39.551,0.000,0.000,0.000
1737556679.431,-28.809,-33.691,0.000,0.000,0.000
1737556679.435,-7.812,-34.668,0.000,0.000,0.000
1737556679.439,-34.180,-41.504,0.000,0.000,0.000
1737556679.443,-53.711,-41.992,0.000,0.000,0.000
1737556679.447,-20.508,-41.504,0.000,0.000,0.000
1737556679.451,0.000,-38.574,0.000,0.000,0.000
1737556679.455,-24.414,-34.180,0.000,0.000,0.000
1737556679.458,-31.738,-34.180,0.000,0.000,0.000
1737556679.462,-33.203,-31.738,-76.172,-10.254,0.000
1737556679.466,-31.250,-37.109,-62.012,-22.461,0.000
1737556679.470,-7.812,-40.039,-30.762,-26.367,0.000
1737556679.474,0.488,-27.344,-39.062,-19.043,0.000
1737556679.478,-33.203,-26.367,-42.969,-24.902,0.000
1737556679.482,-49.316,-33.203,-16.113,-33.203,0.000
1737556679.486,-29.785,-36.621,-19.043,-26.855,0.000
1737556679.490,-21.973,-34.668,-31.738,-22.461,0.000
1737556679.494,-21.973,-37.598,-49.316,-17.090,0.000
1737556679.497,-26.855,-35.156,-53.223,-19.531,0.000
1737556679.501,-42.969,-36.133,-48.340,-35.156,0.000
1737556679.505,-40.527,-37.598,-41.016,-40.527,0.000
1737556679.509,0.000,-33.691,0.000,0.000,0.000
1737556679.513,0.000,-41.016,0.000,0.000,0.000
1737556679.517,0.000,-49.805,0.000,0.000,0.000
1737556679.521,0.000,-42.480,0.000,0.000,0.000
1737556679.525,0.000,-37.598,0.000,0.000,0.000
1737556679.529,0.000,-42.969,0.000,0.000,0.000
1737556679.533,0.000,-38.574,0.000,0.000,0.000
1737556679.537,0.000,-30.273,0.000,0.000,0.000
1737556679.540,0.000,-34.180,0.000,0.000,0.000
1737556679.544,0.000,-40.039,0.000,0.000,0.000
1737556679.548,0.000,-37.598,0.000,0.000,0.000
1737556679.552,0.000,-31.738,0.000,0.000,0.000
1737556679.556,-22.949,-28.320,-29.785,-16.113,0.000
1737556679.560,-9.277,-34.668,-46.875,-26.367,0.000
1737556679.564,-23.438,-42.969,-53.711,-36.133,0.000
1737556679.568,-47.852,-39.551,-43.945,-23.926,0.000
1737556679.572,-33.691,-31.738,-33.691,-17.090,0.000
1737556679.576,-11.719,-27.344,-34.668,-18.555,0.000
1737556679.579,-8.789,-32.715,-22.949,-30.273,0.000
1737556679.583,-3.906,-35.645,-23.926,-37.109,0.000
1737556679.587,-24.414,-32.715,-30.273,-20.996,0.000
1737556679.591,-36.621,-24.902,-29.785,-6.836,0.000
1737556679.595,-22.461,-22.461,-44.434,-8.789,0.000
1737556679.599,-9.277,-34.180,-53.711,-21.484,0.000
1737556679.603,-7.324,-41.016,-57.617,-20.996,0.000
1737556679.607,-26.367,-38.574,-38.086,-31.738,0.000
1737556679.611,-40.039,-25.879,14.160,-36.621,0.000
1737556679.615,-35.156,-6.836,42.969,11.719,0.000
1737556679.619,-19.043,-11.230,14.648,-10.742,0.000
1737556679.622,-15.625,-21.973,72.754,-56.152,0.000
1737556679.626,-34.180,-2.441,128.906,-30.762,0.000
1737556679.630,-38.574,2.930,119.629,-41.504,0.000
1737556679.634,-25.391,41.016,40.527,-21.973,0.000
1737556679.638,-15.625,83.008,-84.961,-44.922,0.000
1737556679.642,-25.391,13.672,-80.566,-131.348,0.000
1737556679.646,-36.621,-48.340,21.973,-194.824,0.000
1737556679.650,-191.895,39.551,142.090,0.000,0.000
1737556679.654,-200.195,89.844,62.012,0.000,0.000
1737556679.658,-269.043,-10.254,3.418,0.000,0.000
1737556679.662,-291.504,-27.344,24.902,0.000,0.000
1737556679.665,-306.152,21.484,72.754,0.000,0.000
1737556679.669,-321.289,80.566,109.863,0.000,0.000
1737556679.673,-278.320,62.500,46.875,0.000,0.000
1737556679.677,-291.504,20.996,99.121,0.000,0.000
1737556679.681,-327.148,54.688,166.504,0.000,0.000
1737556679.685,-319.824,97.168,185.059,0.000,0.000
1737556679.689,-280.762,110.352,227.051,0.000,0.000
1737556679.693,-267.090,109.863,253.906,0.000,0.000
1737556679.697,-283.691,114.258,256.836,-243.164,0.000
1737556679.701,-295.410,111.328,304.199,-283.691,0.000
1737556679.704,-310.547,104.492,367.676,-301.758,0.000
1737556679.708,-286.621,108.398,396.973,-266.113,0.000
1737556679.712,-247.559,112.305,396.484,-219.238,0.000
1737556679.716,-212.891,105.957,392.578,-190.918,0.000
1737556679.720,-237.793,90.820,383.789,-188.965,0.000
1737556679.724,-229.004,80.566,339.844,-203.125,0.000
1737556679.728,-201.660,78.613,306.152,-170.410,0.000
1737556679.732,-177.246,67.871,292.480,-125.000,0.000
1737556679.736,-121.582,50.293,254.395,-112.305,0.000
1737556679.740,-107.910,28.320,223.633,-87.891,0.000
1737556679.744,-93.262,-3.906,196.289,-74.707,0.000
1737556679.747,-71.777,-30.273,164.551,-56.152,0.000
1737556679.751,-38.574,-41.992,149.414,-20.996,0.000
1737556679.755,-24.902,-56.152,126.465,-25.879,0.000
1737556679.759,-28.320,-68.359,87.402,-23.438,0.000
1737556679.763,-17.090,-69.336,62.012,9.277,0.000
1737556679.767,3.906,-69.824,35.156,33.203,0.000
1737556679.771,38.574,-77.637,-23.926,67.871,0.000
1737556679.775,50.781,-83.984,-51.270,90.820,0.000
1737556679.779,42.969,-97.168,-31.738,84.473,0.000
1737556679.783,45.410,-110.840,-31.250,83.496,0.000
1737556679.786,79.590,-104.004,-48.340,121.582,0.000
1737556679.790,104.980,-95.703,-83.008,158.203,0.000
1737556679.794,119.629,-85.938,-96.680,157.227,0.000
1737556679.798,104.004,-90.332,-86.914,135.742,0.000
1737556679.802,80.566,-102.051,-97.656,119.629,0.000
1737556679.806,93.750,-97.656,-116.699,125.488,0.000
1737556679.810,100.098,-92.773,-128.906,149.902,0.000
1737556679.814,105.469,-87.402,-138.672,156.738,0.000
1737556679.818,102.539,-83.496,-149.902,137.207,0.000
1737556679.822,87.402,-83.496,-133.789,140.137,0.000
1737556679.826,75.684,-83.008,-100.098,130.371,0.000
1737556679.829,106.934,-76.660,-104.492,128.418,0.000
1737556679.833,123.047,-70.312,-117.188,135.254,0.000
1737556679.837,0.000,-76.660,-100.586,106.445,0.000
1737556679.841,0.000,-80.078,-97.168,93.750,0.000
1737556679.845,0.000,-77.637,-119.141,110.352,0.000
1737556679.849,0.000,-74.219,-131.836,128.418,0.000
1737556679.853,0.000,-65.430,-126.465,121.094,0.000
1737556679.857,0.000,-62.500,-135.254,114.258,0.000
1737556679.861,0.000,-65.918,-139.160,124.023,0.000
1737556679.865,0.000,-68.848,-99.609,116.211,0.000
1737556679.869,0.000,-74.219,-75.195,85.449,0.000
1737556679.872,0.000,-63.477,-86.914,81.055,0.000
1737556679.876,0.000,-53.223,-88.379,92.285,0.000
1737556679.880,0.000,-57.129,-92.773,99.121,0.000
1737556679.884,63.965,-53.223,0.000,97.656,0.000
1737556679.888,69.824,-46.875,0.000,102.051,0.000
1737556679.892,68.359,-46.875,0.000,90.332,0.000
1737556679.896,57.617,-53.223,0.000,68.848,0.000
1737556679.900,12.695,-60.547,0.000,57.129,0.000
1737556679.904,4.395,-58.105,0.000,68.359,0.000
1737556679.908,34.180,-47.363,0.000,73.730,0.000
1737556679.911,39.551,-51.270,0.000,63.477,0.000
1737556679.915,25.391,-62.988,0.000,47.363,0.000
1737556679.919,16.602,-65.430,0.000,36.133,0.000
1737556679.923,14.648,-58.594,0.000,33.203,0.000
1737556679.927,9.277,-47.852,0.000,46.387,0.000
1737556679.931,23.926,-45.410,-109.375,57.129,0.000
1737556679.935,43.457,-42.969,-108.887,59.082,0.000
1737556679.939,9.766,-43.945,-66.406,38.086,0.000
1737556679.943,-2.441,-61.035,-45.410,29.785,0.000
1737556679.947,0.977,-70.801,-58.105,45.898,0.000
1737556679.951,19.043,-50.293,-77.148,66.895,0.000
1737556679.954,40.039,-34.180,-82.520,69.336,0.000
1737556679.958,9.277,-44.434,-85.449,38.086,0.000
1737556679.962,-12.695,-41.016,-78.613,20.020,0.000
1737556679.966,1.953,-33.691,-44.922,26.855,0.000
1737556679.970,21.484,-32.227,-23.438,39.551,0.000
1737556679.974,7.324,-39.551,-36.133,34.180,0.000
1737556679.978,-2.930,-41.992,0.000,27.344,0.000
1737556679.982,-15.137,-43.457,0.000,28.809,0.000
1737556679.986,4.883,-39.062,0.000,27.832,0.000
1737556679.990,34.180,-32.715,0.000,52.734,0.000
1737556679.994,38.574,-34.668,0.000,78.613,0.000
1737556679.997,-2.930,-43.945,0.000,28.320,0.000
1737556680.001,-48.340,-49.316,0.000,-9.766,0.000
1737556680.005,-36.133,-43.457,0.000,-3.418,0.000
1737556680.009,1.953,-26.855,0.000,20.508,0.000
1737556680.013,30.762,-20.508,0.000,39.551,0.000
1737556680.017,13.184,-29.785,0.000,24.902,0.000
1737556680.021,5.859,-32.227,0.000,18.555,0.000
1737556680.025,9.277,-34.180,-72.754,16.113,0.000
1737556680.029,-3.418,-34.668,-60.547,19.531,0.000
1737556680.033,18.066,-33.203,-38.574,38.086,0.000
1737556680.036,7.812,-31.250,-38.086,28.320,0.000
1737556680.040,-14.648,-30.273,-37.598,5.371,0.000
1737556680.044,-15.625,-33.691,-41.504,-2.441,0.000
1737556680.048,-8.789,-31.250,-58.105,9.277,0.000
1737556680.052,23.926,-20.996,-67.383,38.574,0.000
1737556680.056,15.137,-22.461,-61.523,36.621,0.000
1737556680.060,-9.766,-33.203,-56.641,-4.395,0.000
1737556680.064,-6.836,-35.156,-40.039,-24.414,0.000
1737556680.068,-7.324,-35.156,-34.668,-2.930,0.000
1737556680.072,0.000,-39.062,-43.945,7.324,0.000
1737556680.076,0.000,-38.086,-42.480,2.930,0.000
1737556680.079,0.000,-36.133,-35.645,-2.441,0.000
1737556680.083,0.000,-34.668,-35.645,2.441,0.000
1737556680.087,0.000,-29.785,-32.715,10.742,0.000
1737556680.091,0.000,-23.926,-35.156,21.973,0.000
1737556680.095,0.000,-35.156,-47.852,34.180,0.000
1737556680.099,0.000,-38.574,-43.945,17.090,0.000
1737556680.103,0.000,-35.156,-33.691,-25.391,0.000
1737556680.107,0.000,-38.086,-18.555,-17.090,0.000
1737556680.111,0.000,-27.832,-11.230,0.977,0.000
1737556680.115,0.000,-26.367,-29.297,8.301,0.000
1737556680.119,4.883,-39.062,-46.875,8.789,0.000
1737556680.122,-4.883,-33.691,-54.199,-20.020,0.000
1737556680.126,-33.691,-20.020,-56.641,-0.977,0.000
1737556680.130,-21.484,-22.949,-37.109,36.133,0.000
1737556680.134,8.301,-29.297,-14.648,19.043,0.000
1737556680.138,-12.695,-23.926,-7.324,18.066,0.000
1737556680.142,-24.902,-24.414,-17.090,25.879,0.000
1737556680.146,-11.719,-28.809,-37.598,12.695,0.000
1737556680.150,-16.602,-36.621,-35.645,-3.906,0.000
1737556680.154,-25.391,-48.340,-25.391,-13.184,0.000
1737556680.158,-7.324,-37.109,-40.527,-24.902,0.000
1737556680.161,7.324,-32.227,-49.316,-23.438,0.000
1737556680.165,-28.809,-40.039,-38.574,-4.883,0.000
1737556680.169,-41.504,-28.809,-13.672,20.996,0.000
1737556680.173,-22.949,-27.344,-14.160,14.160,0.000
1737556680.177,12.695,-36.621,-44.922,-1.465,0.000
1737556680.181,16.113,-32.227,-51.270,-6.836,0.000
1737556680.185,-8.789,-21.484,-40.527,-13.672,0.000
1737556680.189,-15.137,-19.043,-25.879,-2.441,0.000
1737556680.193,-24.414,-24.902,-22.949,-10.254,0.000
1737556680.197,-17.578,-28.809,-30.762,-29.785,0.000
1737556680.201,-13.184,-25.879,-28.320,-21.484,0.000
1737556680.204,-11.719,-24.902,-24.902,-11.719,0.000
1737556680.208,-8.789,-22.949,-28.320,-7.812,0.000
1737556680.212,-21.484,-20.508,-41.016,0.977,0.000
1737556680.216,-21.973,-26.367,-45.410,1.465,0.000
1737556680.220,-18.066,-29.785,-45.898,0.488,0.000
1737556680.224,-23.438,-28.809,-45.898,-7.812,0.000
1737556680.228,-27.832,-29.785,-33.203,-15.625,0.000
1737556680.232,15.137,-24.902,-20.020,2.441,0.000
1737556680.236,17.090,-26.855,-23.926,0.000,0.000
1737556680.240,-37.598,-45.898,-34.180,-11.230,0.000
1737556680.243,-35.645,-44.434,-37.109,3.418,0.000
1737556680.247,-9.766,-28.320,-32.715,-18.555,0.000
1737556680.251,-3.906,-19.043,-26.367,-21.484,0.000
1737556680.255,-14.160,-16.602,-25.391,-13.184,0.000
1737556680.259,-25.391,-23.926,-26.367,-20.996,0.000
1737556680.263,-34.180,-25.879,-31.738,-21.484,0.000
1737556680.267,-15.137,-28.809,-40.527,-25.879,0.000
1737556680.271,10.254,-24.414,-28.320,-3.906,0.000
1737556680.275,18.066,-21.484,-13.672,14.160,0.000
1737556680.279,-18.555,-36.133,-23.926,-16.602,0.000
1737556680.283,-31.250,-34.180,-39.062,-25.391,0.000
1737556680.286,20.508,-23.926,-45.410,10.742,0.000
1737556680.290,2.441,-29.297,-45.410,5.371,0.000
1737556680.294,-18.555,-22.949,-40.039,-5.371,0.000
1737556680.298,-17.090,-21.484,-32.227,-19.043,0.000
1737556680.302,-46.875,-31.250,-32.715,-44.434,0.000
1737556680.306,-32.715,-38.086,-26.855,-47.852,0.000
1737556680.310,1.953,-28.809,-19.531,-8.301,0.000
1737556680.314,13.184,-12.695,-34.668,6.348,0.000
1737556680.318,9.766,-17.578,-28.809,-9.766,0.000
1737556680.322,-24.902,-23.438,-10.254,-24.414,0.000
1737556680.326,-27.344,-29.785,-20.020,-29.785,0.000
1737556680.329,-10.742,-34.668,-36.621,-9.277,0.000
1737556680.333,-19.531,-31.250,-38.086,-1.465,0.000
1737556680.337,-29.785,-40.039,-28.809,-23.438,0.000
1737556680.341,-28.809,-52.246,-17.090,-39.062,0.000
1737556680.345,-23.926,-44.434,-35.156,-29.785,0.000
1737556680.349,-8.301,-32.715,-65.430,-13.672,0.000
1737556680.353,9.766,-17.090,-44.922,0.488,0.000
1737556680.357,0.000,-12.695,-19.531,-2.930,0.000
1737556680.361,-20.020,-31.250,-9.277,-33.203,0.000
1737556680.365,-26.367,-41.504,-7.324,-59.082,0.000
1737556680.368,-15.137,-33.691,-11.230,-34.668,0.000
1737556680.372,8.789,-20.508,-15.625,-17.578,0.000
1737556680.376,-9.766,-18.555,-35.156,-26.367,0.000
1737556680.380,-30.273,-25.391,-49.316,-23.438,0.000
1737556680.384,-22.949,-21.484,-39.062,-22.949,0.000
1737556680.388,-19.043,-19.531,-37.598,-25.879,0.000
1737556680.392,-13.184,-25.391,-63.965,-30.273,0.000
1737556680.396,-6.836,-19.531,-58.105,-17.578,0.000
1737556680.400,-20.508,-23.438,-14.160,-1.465,0.000
1737556680.404,-10.254,-30.762,-5.859,-14.160,0.000
1737556680.408,-6.348,-24.414,-22.461,-34.180,0.000
1737556680.411,-11.719,-19.531,-22.461,-33.691,0.000
1737556680.415,5.371,-16.113,-10.254,-28.809,0.000
1737556680.419,-11.719,-15.137,-23.438,-26.855,0.000
1737556680.423,-42.480,-25.391,-42.969,-29.297,0.000
1737556680.427,-48.340,-28.809,-46.387,-24.902,0.000
1737556680.431,-25.879,-22.949,-40.039,-4.395,0.000
1737556680.435,-19.043,-18.555,-27.832,-5.859,0.000
1737556680.439,-40.039,-17.090,-27.344,-26.367,0.000
1737556680.443,-38.574,-20.996,-31.250,-31.250,0.000
1737556680.447,-30.273,-24.414,-27.344,-25.391,0.000
1737556680.451,-8.789,-27.344,-26.367,-12.695,0.000
1737556680.454,6.836,-27.344,-28.809,-13.184,0.000
1737556680.458,-26.855,-32.715,-35.156,-24.414,0.000
1737556680.462,-52.734,-39.062,-36.133,-33.203,0.000
1737556680.466,-39.062,-29.297,-42.480,-34.668,0.000
1737556680.470,-18.555,-21.484,-39.062,-13.184,0.000
1737556680.474,-3.906,-20.508,-37.109,1.953,0.000
1737556680.478,-1.953,-17.090,-45.410,-4.395,0.000
1737556680.482,-30.762,-24.414,-32.227,-34.668,0.000
1737556680.486,-41.016,-25.879,-23.926,-36.621,0.000
1737556680.490,-19.531,-22.949,-20.020,-16.602,0.000
1737556680.493,-7.812,-20.508,-19.043,-15.625,0.000
1737556680.497,-6.836,-23.926,-29.297,-18.555,0.000
1737556680.501,-27.344,-32.227,-35.156,-35.156,0.000
1737556680.505,-30.273,-30.273,-33.203,-34.180,0.000
1737556680.509,-2.441,-26.367,-33.691,-5.859,0.000
1737556680.513,-0.977,-24.414,-27.344,12.207,0.000
1737556680.517,-16.113,-24.414,-29.297,-8.789,0.000
1737556680.521,-21.973,-27.344,-45.898,-47.363,0.000
1737556680.525,-45.898,-30.273,-35.645,-46.387,0.000
1737556680.529,-41.504,-31.738,-16.602,-31.250,0.000
1737556680.533,-17.578,-28.320,-6.348,0.000,0.000
1737556680.536,-21.484,-29.785,-12.695,7.812,0.000
1737556680.540,-32.227,-34.668,-39.551,-9.766,0.000
1737556680.544,-20.020,-28.320,-42.969,-27.344,0.000
1737556680.548,-9.277,-21.973,-30.762,-35.645,0.000
1737556680.552,-13.184,-24.902,-29.785,-20.508,0.000
1737556680.556,-15.137,-23.926,-33.691,-9.277,0.000
1737556680.560,-31.250,-21.484,-38.086,-5.371,0.000
1737556680.564,-41.504,-24.902,-42.480,-8.789,0.000
1737556680.568,-18.066,-34.180,-37.598,-16.113,0.000
1737556680.572,-0.488,-40.527,-21.484,-22.949,0.000
1737556680.575,-0.977,-28.320,-11.230,-23.926,0.000
1737556680.579,-33.203,-27.832,-20.508,-37.598,0.000
1737556680.583,-56.152,-32.715,-29.785,-54.688,0.000
1737556680.587,-22.461,-34.668,-32.715,-49.316,0.000
1737556680.591,-14.648,-30.762,-27.832,-24.902,0.000
1737556680.595,-16.602,-24.902,-25.391,-11.230,0.000
1737556680.599,-11.719,-30.273,-20.996,-9.277,0.000
1737556680.603,-31.250,-40.039,-26.367,-27.832,0.000
1737556680.607,-45.898,-41.992,-40.527,-42.969,0.000
1737556680.611,-14.648,-34.668,-40.527,-13.184,0.000
1737556680.615,-2.441,-25.879,-37.109,-6.348,0.000
1737556680.618,-22.461,-20.020,-46.387,-23.926,0.000
1737556680.622,-31.250,-24.414,-40.527,-35.156,0.000
1737556680.626,-35.156,-31.250,-31.250,-32.227,0.000
1737556680.630,-21.484,-34.180,-25.391,-9.766,0.000
1737556680.634,-17.578,-39.551,-21.484,-6.348,0.000
1737556680.638,-31.250,-42.969,-30.762,-20.508,0.000
1737556680.642,-41.992,-38.574,-41.016,-37.109,0.000
1737556680.646,-39.551,-31.738,-42.480,-42.480,0.000
1737556680.650,0.000,-24.902,-47.852,-25.879,0.000
1737556680.654,19.531,-21.973,-39.062,-8.301,0.000
1737556680.658,-3.418,-28.809,-24.414,-9.277,0.000
1737556680.661,-36.621,-41.016,-41.016,-37.109,0.000
1737556680.665,-35.645,-44.434,-46.387,-43.457,0.000
1737556680.669,-4.395,-30.273,-25.391,-12.207,0.000
1737556680.673,10.254,-15.625,-22.461,0.488,0.000
1737556680.677,-15.625,-30.273,-35.156,-13.184,0.000
1737556680.681,-29.785,-53.223,-27.832,-25.391,0.000
1737556680.685,-46.387,-53.711,-20.508,-45.410,0.000
1737556680.689,-38.086,-36.621,-4.883,-36.621,0.000
1737556680.693,-19.043,-27.832,11.230,-17.090,0.000
1737556680.697,-12.207,-4.395,40.039,-5.859,0.000
1737556680.701,-21.973,-1.953,108.887,-3.418,0.000
1737556680.704,-8.301,42.969,94.238,8.301,0.000
1737556680.708,-26.855,19.043,7.812,-14.160,0.000
1737556680.712,-68.848,-52.246,55.176,-58.105,0.000
1737556680.716,-66.895,27.832,171.387,-57.617,0.000
1737556680.720,-80.566,107.422,3.906,-58.105,0.000
1737556680.724,-149.902,30.762,-133.301,-114.746,0.000
1737556680.728,-205.078,-66.895,-46.875,-177.246,0.000
1737556680.732,-221.680,-33.203,12.695,-211.426,0.000
1737556680.736,-255.371,9.277,62.012,-258.789,0.000
1737556680.740,-274.902,12.207,84.473,-296.875,0.000
1737556680.743,-292.969,8.789,24.902,-308.594,0.000
1737556680.747,-300.781,31.250,19.043,-309.570,0.000
1737556680.751,-266.602,45.898,61.523,-292.969,0.000
1737556680.755,-264.160,42.969,86.426,-292.969,0.000
1737556680.759,-348.145,41.504,108.398,-337.891,0.000
1737556680.763,-362.305,54.688,111.816,-346.680,0.000
1737556680.767,-308.105,69.336,106.445,-305.176,0.000
1737556680.771,-262.207,73.242,119.629,-264.648,0.000
1737556680.775,-240.723,69.824,135.254,-264.648,0.000
1737556680.779,-250.488,55.664,141.602,-266.113,0.000
1737556680.783,-253.418,48.828,140.137,-257.812,0.000
1737556680.786,-206.543,49.805,126.953,-232.910,0.000
1737556680.790,-154.785,46.387,112.305,-193.848,0.000
1737556680.794,-140.137,42.480,102.539,-168.945,0.000
1737556680.798,-143.066,19.531,85.449,-136.230,0.000
1737556680.802,-124.512,-16.602,68.848,-121.582,0.000
1737556680.806,-83.008,-36.621,43.945,-123.047,0.000
1737556680.810,-49.805,-50.781,14.160,-88.379,0.000
1737556680.814,-38.574,-63.965,9.766,-56.152,0.000
1737556680.818,-40.527,-76.172,15.625,-56.641,0.000
1737556680.822,-29.297,-82.520,9.277,-47.363,0.000
1737556680.825,-5.371,-82.031,-2.930,-38.086,0.000
1737556680.829,28.809,-82.031,-29.785,4.395,0.000
1737556680.833,72.266,-79.102,-64.941,59.082,0.000
1737556680.837,62.012,-83.496,-63.965,32.715,0.000
1737556680.841,44.922,-86.426,-65.430,17.090,0.000
1737556680.845,70.801,-89.844,-90.332,41.504,0.000
1737556680.849,82.520,-89.355,-82.520,60.547,0.000
1737556680.853,80.566,-79.590,-73.730,67.871,0.000
1737556680.857,97.168,-84.473,-92.285,62.012,0.000
1737556680.861,93.262,-93.750,-87.891,62.012,0.000
1737556680.865,71.289,-96.191,-63.477,65.430,0.000
1737556680.868,0.000,-96.680,-67.871,94.727,0.000
1737556680.872,0.000,-83.008,-95.703,104.004,0.000
1737556680.876,0.000,-76.172,-100.098,76.660,0.000
1737556680.880,0.000,-81.543,-90.820,72.266,0.000
1737556680.884,0.000,-77.148,-113.281,101.074,0.000
1737556680.888,0.000,-65.430,-109.863,104.980,0.000
1737556680.892,0.000,-67.383,-72.754,90.820,0.000
1737556680.896,0.000,-78.613,-73.242,86.914,0.000
1737556680.900,0.000,-75.684,-98.633,72.266,0.000
1737556680.904,0.000,-71.777,-93.262,66.895,0.000
1737556680.908,0.000,-73.730,-69.336,74.707,0.000
1737556680.911,0.000,-66.895,-57.617,85.449,0.000
1737556680.915,80.566,-64.941,-68.359,91.797,0.000
1737556680.919,109.375,-63.965,-109.863,92.285,0.000
1737556680.923,107.422,-62.988,-128.906,75.684,0.000
1737556680.927,80.566,-61.523,-94.727,49.316,0.000
1737556680.931,62.012,-50.293,-47.852,56.152,0.000
1737556680.935,80.078,-57.617,-46.875,62.988,0.000
1737556680.939,98.633,-57.129,-77.637,53.223,0.000
1737556680.943,84.961,-47.363,-86.914,48.828,0.000
1737556680.947,77.637,-48.340,-92.285,50.293,0.000
1737556680.950,64.941,-48.828,-96.191,61.035,0.000
1737556680.954,70.312,-47.852,-81.055,65.430,0.000
1737556680.958,92.773,-51.758,-61.035,45.898,0.000
1737556680.962,6.348,-52.246,-58.594,15.625,0.000
1737556680.966,16.602,-54.199,-60.547,22.949,0.000
1737556680.970,52.246,-54.688,-55.664,51.758,0.000
1737556680.974,58.105,-52.734,-62.500,62.500,0.000
1737556680.978,28.320,-44.922,-58.105,55.664,0.000
1737556680.982,18.555,-47.852,-61.523,36.133,0.000
1737556680.986,15.137,-59.082,-60.547,19.043,0.000
1737556680.990,1.465,-60.059,-51.758,22.461,0.000
1737556680.993,8.301,-50.293,-58.594,27.832,0.000
1737556680.997,16.602,-46.875,-57.129,35.645,0.000
1737556681.001,-0.488,-45.410,-58.594,31.738,0.000
1737556681.005,0.488,-43.945,-60.059,20.020,0.000
1737556681.009,0.000,-45.898,0.000,0.000,0.000
1737556681.013,0.000,-40.039,0.000,0.000,0.000
1737556681.017,0.000,-35.645,0.000,0.000,0.000
1737556681.021,0.000,-36.621,0.000,0.000,0.000
1737556681.025,0.000,-39.551,0.000,0.000,0.000
1737556681.029,0.000,-36.621,0.000,0.000,0.000
1737556681.033,0.000,-32.227,0.000,0.000,0.000
1737556681.036,0.000,-35.156,0.000,0.000,0.000
1737556681.040,0.000,-44.434,0.000,0.000,0.000
1737556681.044,0.000,-44.922,0.000,0.000,0.000
1737556681.048,0.000,-38.574,0.000,0.000,0.000
1737556681.052,0.000,-32.715,0.000,0.000,0.000
1737556681.056,26.855,-31.738,-57.129,11.230,0.000
1737556681.060,4.883,-33.691,-49.805,-2.441,0.000
1737556681.064,2.441,-33.691,-44.434,-11.719,0.000
1737556681.068,12.207,-32.227,-37.109,-7.324,0.000
1737556681.072,6.348,-36.133,-19.531,-8.301,0.000
1737556681.075,5.859,-31.738,-17.578,-6.836,0.000
1737556681.079,-0.977,-25.391,-34.668,-8.789,0.000
1737556681.083,-1.465,-29.297,-41.016,-18.555,0.000
1737556681.087,-9.277,-35.156,-38.086,-13.672,0.000
1737556681.091,-12.207,-32.715,-34.180,4.883,0.000
1737556681.095,2.441,-24.902,-39.551,16.113,0.000
1737556681.099,-4.395,-28.809,-52.246,-2.930,0.000
1737556681.103,-11.230,-37.109,-45.898,-27.832,0.000
1737556681.107,0.488,-35.645,-41.992,-42.969,0.000
1737556681.111,-8.301,-34.668,-35.156,-19.043,0.000
1737556681.115,-1.465,-37.109,-21.973,11.719,0.000
1737556681.118,-13.184,-47.363,-33.203,-15.137,0.000
1737556681.122,-26.855,-52.734,-45.410,-30.273,0.000
1737556681.126,-21.484,-44.922,-47.852,-18.066,0.000
1737556681.130,-20.996,-38.574,-42.480,-10.254,0.000
1737556681.134,-5.371,-36.133,-28.320,1.953,0.000
1737556681.138,-8.789,-34.668,-27.344,3.418,0.000
1737556681.142,-28.809,-39.062,-40.039,-10.254,0.000
1737556681.146,-20.508,-43.457,-55.664,-14.160,0.000
1737556681.150,-2.441,-39.062,-48.828,0.000,0.000
1737556681.154,7.812,-31.250,-29.297,18.066,0.000
1737556681.158,-9.277,-36.133,-21.484,6.348,0.000
1737556681.161,-42.480,-42.480,-27.832,-25.879,0.000
1737556681.165,-45.410,-43.457,-41.016,-35.156,0.000
1737556681.169,-32.227,-37.598,-40.039,-15.625,0.000
1737556681.173,-1.953,-33.203,-25.879,1.465,0.000
1737556681.177,-7.812,-32.715,-18.555,0.000,0.000
1737556681.181,-25.391,-34.668,-22.949,-13.184,0.000
1737556681.185,-23.926,-37.109,-34.180,-18.066,0.000
1737556681.189,-44.434,-33.691,-41.992,-3.906,0.000
1737556681.193,-25.391,-27.344,-33.203,-17.090,0.000
1737556681.197,3.418,-23.438,-27.832,-19.043,0.000
1737556681.200,-26.855,-29.297,-39.062,-17.090,0.000
1737556681.204,-46.387,-34.180,-38.086,-23.926,0.000
1737556681.208,-15.137,-31.738,-32.227,-14.160,0.000
1737556681.212,6.836,-22.949,-35.156,-1.953,0.000
1737556681.216,-0.488,-25.391,-30.762,1.953,0.000
1737556681.220,-13.184,-38.086,-26.367,-11.719,0.000
1737556681.224,-35.645,-40.039,-30.762,-33.691,0.000
1737556681.228,-41.504,-32.715,-37.598,-32.227,0.000
1737556681.232,-22.461,-28.320,-38.086,-14.160,0.000
1737556681.236,-13.672,-30.273,-25.879,9.277,0.000
1737556681.240,-24.414,-33.691,-20.508,-12.695,0.000
1737556681.243,-46.875,-35.156,0.000,-56.152,0.000
1737556681.247,-45.410,-25.879,0.000,-35.156,0.000
1737556681.251,-13.184,-14.648,0.000,0.000,0.000
1737556681.255,-2.441,-25.391,0.000,-1.465,0.000
1737556681.259,-36.133,-41.504,0.000,-24.902,0.000
1737556681.263,-56.641,-40.039,0.000,-29.785,0.000
1737556681.267,-38.086,-42.480,0.000,-28.320,0.000
1737556681.271,-2.441,-39.551,0.000,-12.207,0.000
1737556681.275,12.207,-33.203,0.000,13.184,0.000
1737556681.279,-3.906,-37.598,0.000,4.883,0.000
1737556681.282,-19.531,-40.527,0.000,-15.625,0.000
1737556681.286,-26.855,-36.621,0.000,-11.719,0.000
1737556681.290,-16.602,-28.809,-18.555,-1.465,0.000
1737556681.294,6.348,-28.809,-23.438,0.000,0.000
1737556681.298,-28.809,-33.203,-31.738,-11.230,0.000
1737556681.302,-50.781,-28.320,-27.344,-31.738,0.000
1737556681.306,-33.691,-25.391,-25.391,-31.250,0.000
1737556681.310,-12.207,-30.273,-30.762,-28.320,0.000
1737556681.314,12.695,-29.785,-28.809,-12.695,0.000
1737556681.318,-2.441,-35.156,-29.297,1.465,0.000
1737556681.322,-27.832,-43.945,-33.691,-16.602,0.000
1737556681.325,-34.180,-42.480,-38.086,-35.156,0.000
1737556681.329,-0.977,-31.738,-33.203,-17.578,0.000
1737556681.333,20.020,-29.785,-26.855,-3.906,0.000
1737556681.337,0.000,-34.668,-24.902,-30.273,0.000
1737556681.341,0.000,-37.109,-16.113,-49.316,0.000
1737556681.345,0.000,-35.156,-23.438,-33.203,0.000
1737556681.349,0.000,-28.809,-31.738,-0.488,0.000
1737556681.353,0.000,-18.555,-22.949,14.648,0.000
1737556681.357,0.000,-17.090,-36.133,-2.930,0.000
1737556681.361,0.000,-29.297,-41.504,-34.180,0.000
1737556681.365,0.000,-38.086,-32.227,-37.109,0.000
1737556681.368,0.000,-33.691,-29.297,-12.207,0.000
1737556681.372,0.000,-31.738,-37.598,0.977,0.000
1737556681.376,0.000,-34.180,-44.434,-16.113,0.000
1737556681.380,0.000,-32.715,-42.969,-19.531,0.000
1737556681.384,-22.949,-36.133,-39.551,-18.066,0.000
1737556681.388,-30.273,-35.645,-30.762,-29.297,0.000
1737556681.392,0.977,-33.691,-29.785,-20.020,0.000
1737556681.396,23.438,-29.785,-31.738,-3.906,0.000
1737556681.400,-9.277,-37.598,-30.762,-4.883,0.000
1737556681.404,-28.809,-43.457,-32.715,-9.766,0.000
1737556681.407,-7.812,-36.133,-33.691,-10.254,0.000
1737556681.411,10.254,-38.086,-26.855,-3.418,0.000
1737556681.415,22.949,-36.621,-26.855,9.766,0.000
1737556681.419,-7.812,-32.715,-31.250,1.465,0.000
1737556681.423,-27.832,-38.086,-43.945,-9.766,0.000
1737556681.427,-24.902,-38.574,-55.176,-6.836,0.000
1737556681.431,0.000,-33.691,-45.898,-9.766,0.000
1737556681.435,0.000,-27.832,-27.832,-11.230,0.000
1737556681.439,0.000,-22.949,-17.090,-13.672,0.000
1737556681.443,0.000,-21.973,-28.320,-20.020,0.000
1737556681.447,0.000,-21.973,-31.738,-23.926,0.000
1737556681.450,0.000,-27.832,-25.879,-24.414,0.000
1737556681.454,0.000,-37.598,-27.832,-17.090,0.000
1737556681.458,0.000,-45.410,-37.598,-14.160,0.000
1737556681.462,0.000,-40.039,-49.316,-31.250,0.000
1737556681.466,0.000,-34.668,-45.898,-32.715,0.000
1737556681.470,0.000,-30.762,-34.668,0.488,0.000
1737556681.474,0.000,-34.180,-29.785,9.766,0.000
1737556681.478,-8.789,-37.598,-26.367,-12.695,0.000
1737556681.482,-20.996,-30.273,-27.832,-27.344,0.000
1737556681.486,-23.926,-24.414,-25.391,-10.254,0.000
1737556681.490,-4.883,-22.949,-28.320,2.441,0.000
1737556681.493,2.930,-19.531,-32.715,-4.395,0.000
1737556681.497,2.441,-18.555,-25.391,-16.602,0.000
1737556681.501,-25.391,-24.414,-24.902,-32.227,0.000
1737556681.505,-41.504,-21.973,-29.785,-24.414,0.000
1737556681.509,0.488,-7.812,-5.859,-7.324,0.000
1737556681.513,20.020,0.977,0.000,-0.488,0.000
1737556681.517,7.812,36.621,86.426,10.742,0.000
1737556681.521,-30.762,4.883,108.398,-18.555,0.000
1737556681.525,-46.875,-22.949,59.082,-38.574,0.000
1737556681.529,-31.250,38.574,33.203,-29.785,0.000
1737556681.532,-51.758,36.133,41.504,-57.617,0.000
1737556681.536,-84.473,60.059,3.418,-81.543,0.000
1737556681.540,-145.020,38.086,-24.414,-131.836,0.000
1737556681.544,-204.590,-8.789,55.664,-197.266,0.000
1737556681.548,-209.961,1.953,48.828,-203.613,0.000
1737556681.552,-233.398,3.906,5.371,-228.027,0.000
1737556681.556,-235.352,25.879,1.953,-249.023,0.000
1737556681.560,-274.902,57.129,7.324,-263.184,0.000
1737556681.564,-348.145,43.457,9.766,-324.219,0.000
1737556681.568,-350.586,28.809,67.871,-350.586,0.000
1737556681.572,-305.664,63.965,118.164,-327.148,0.000
1737556681.575,-296.387,81.055,128.418,-312.988,0.000
1737556681.579,-317.383,80.078,138.184,-319.824,0.000
1737556681.583,-314.941,87.402,140.625,-329.590,0.000
1737556681.587,-299.316,94.238,136.719,-307.129,0.000
1737556681.591,-277.344,89.355,140.625,-280.273,0.000
1737556681.595,-245.605,82.031,145.996,-265.625,0.000
1737556681.599,-229.492,78.125,124.512,-249.023,0.000
1737556681.603,-232.422,68.359,84.961,-229.492,0.000
1737556681.607,-215.332,50.293,105.469,-226.074,0.000
1737556681.611,-179.688,42.480,139.648,-210.938,0.000
1737556681.614,-147.461,44.434,138.672,-167.969,0.000
1737556681.618,-142.090,21.973,91.309,-142.090,0.000
1737556681.622,-130.859,-9.766,39.551,-136.719,0.000
1737556681.626,-84.473,-34.668,53.711,-110.840,0.000
1737556681.630,-43.457,-58.594,55.664,-62.500,0.000
1737556681.634,-9.766,-78.125,12.695,-30.273,0.000
1737556681.638,-9.766,-88.867,-18.555,-26.367,0.000
1737556681.642,-10.742,-95.215,-24.902,-39.551,0.000
1737556681.646,3.906,-99.609,-31.738,-21.484,0.000
1737556681.650,31.738,-100.098,-45.410,27.344,0.000
1737556681.654,58.594,-97.168,-68.848,51.758,0.000
1737556681.657,72.754,-105.469,-68.848,44.434,0.000
1737556681.661,77.148,-112.305,-55.664,47.852,0.000
1737556681.665,65.430,-106.934,-62.012,71.777,0.000
1737556681.669,70.312,-104.004,-79.590,83.496,0.000
1737556681.673,92.285,-101.562,-81.055,93.262,0.000
1737556681.677,89.355,-95.215,-79.102,104.004,0.000
1737556681.681,70.801,-95.703,-91.797,92.773,0.000
1737556681.685,68.359,-105.469,-101.562,83.984,0.000
1737556681.689,90.820,-105.469,-98.633,96.191,0.000
1737556681.693,114.746,-94.238,-105.469,99.609,0.000
1737556681.697,114.746,-85.449,-108.887,116.699,0.000
1737556681.700,89.844,-83.984,-110.840,128.418,0.000
1737556681.704,75.195,-82.520,-100.586,93.262,0.000
1737556681.708,74.219,-74.219,-94.727,78.125,0.000
1737556681.712,0.000,-78.613,-94.727,0.000,0.000
1737556681.716,0.000,-85.938,-74.707,0.000,0.000
1737556681.720,0.000,-70.801,-71.289,0.000,0.000
1737556681.724,0.000,-56.641,-94.727,0.000,0.000
1737556681.728,0.000,-58.594,-102.539,0.000,0.000
1737556681.732,0.000,-50.781,-81.543,0.000,0.000
1737556681.736,0.000,-48.828,-80.566,0.000,0.000
1737556681.739,0.000,-63.965,-97.656,0.000,0.000
1737556681.743,0.000,-68.848,-98.633,0.000,0.000
1737556681.747,0.000,-66.895,-77.148,0.000,0.000
1737556681.751,0.000,-60.059,-62.988,0.000,0.000
1737556681.755,0.000,-49.316,-70.312,0.000,0.000
1737556681.759,62.012,-51.758,-73.242,82.031,0.000
1737556681.763,36.621,-60.059,-80.078,56.641,0.000
1737556681.767,22.461,-54.199,-96.191,49.316,0.000
1737556681.771,38.086,-51.758,-83.008,47.852,0.000
1737556681.775,51.270,-49.805,-56.152,45.410,0.000
1737556681.779,50.293,-42.480,-46.875,41.504,0.000
1737556681.782,31.250,-40.527,-55.664,41.016,0.000
1737556681.786,29.785,-40.039,-61.035,42.480,0.000
1737556681.790,40.039,-42.969,-74.219,43.945,0.000
1737556681.794,48.828,-40.039,-79.590,69.824,0.000
1737556681.798,47.363,-39.062,-73.242,65.918,0.000
1737556681.802,-0.977,-42.969,-64.453,28.320,0.000
1737556681.806,0.977,-39.062,-38.574,6.836,0.000
1737556681.810,27.832,-33.691,-31.250,12.695,0.000
1737556681.814,32.715,-40.527,-44.922,34.180,0.000
1737556681.818,16.602,-47.852,-49.805,32.715,0.000
1737556681.822,-8.789,-47.852,-57.129,19.531,0.000
1737556681.825,-5.371,-50.293,-61.035,20.508,0.000
1737556681.829,10.742,-36.133,-49.316,29.297,0.000
1737556681.833,29.297,-35.156,-58.594,25.879,0.000
1737556681.837,25.391,-39.551,-54.688,12.695,0.000
1737556681.841,-12.207,-35.156,-40.039,-9.766,0.000
1737556681.845,-13.672,-38.574,-51.270,-22.461,0.000
1737556681.849,15.137,-40.527,-51.270,-11.719,0.000
1737556681.853,2.930,-38.086,-39.551,-3.418,0.000
1737556681.857,-1.953,-40.527,-37.109,-8.301,0.000
1737556681.861,-6.348,-43.945,-41.504,-6.348,0.000
1737556681.865,-1.465,-36.133,-59.082,-1.953,0.000
1737556681.868,14.648,-31.250,-68.359,2.930,0.000
1737556681.872,1.953,-30.762,-56.152,8.789,0.000
1737556681.876,-4.395,-29.785,-54.199,-9.277,0.000
1737556681.880,-7.324,-40.527,-42.480,-22.949,0.000
1737556681.884,-13.672,-38.086,-21.973,-19.531,0.000
1737556681.888,1.465,-31.250,-22.461,-17.090,0.000
1737556681.892,20.996,-26.855,-19.531,-2.930,0.000
1737556681.896,30.273,-20.020,-19.043,1.953,0.000
1737556681.900,17.090,-23.438,-42.969,-11.230,0.000
1737556681.904,1.465,-36.133,-60.547,-11.230,0.000
1737556681.907,-6.836,-43.457,-48.828,-0.488,0.000
1737556681.911,-7.324,-39.551,-31.250,-6.348,0.000
1737556681.915,2.441,-29.785,-30.762,-17.090,0.000
1737556681.919,-13.184,-29.297,-28.809,-16.602,0.000
1737556681.923,-24.414,-39.551,-29.785,-19.531,0.000
1737556681.927,-29.785,-39.062,-33.691,-41.992,0.000
1737556681.931,3.906,-27.344,-33.203,-31.738,0.000
1737556681.935,52.246,-27.344,-52.246,6.836,0.000
1737556681.939,0.977,-37.109,-77.148,8.789,0.000
1737556681.943,-28.809,-38.086,-55.176,-10.254,0.000
1737556681.947,-14.648,-40.527,-25.879,-37.109,0.000
1737556681.950,-11.230,-30.762,-25.391,-33.203,0.000
1737556681.954,1.953,-19.531,-28.320,-14.648,0.000
1737556681.958,-22.949,-31.738,-19.531,-31.738,0.000
1737556681.962,-38.574,-36.133,-16.113,-34.668,0.000
1737556681.966,-22.461,-29.297,-26.367,-21.484,0.000
1737556681.970,-17.090,-33.691,-28.320,-12.695,0.000
1737556681.974,7.812,-34.668,-31.250,-17.578,0.000
1737556681.978,-2.441,-31.738,-36.133,-16.113,0.000
1737556681.982,-30.762,-36.621,-51.758,-17.578,0.000
1737556681.986,-31.250,-39.551,-70.312,-21.484,0.000
1737556681.989,-8.301,-39.062,-38.574,-18.555,0.000
1737556681.993,-5.859,-33.691,-5.859,-7.324,0.000
1737556681.997,-8.301,-29.297,-8.789,-0.977,0.000
1737556682.001,-13.672,-34.180,-14.648,-20.996,0.000
1737556682.005,-31.738,-38.086,-30.762,-39.551,0.000
1737556682.009,-21.973,-31.738,-51.758,-30.762,0.000
1737556682.013,-11.719,-23.926,-61.523,5.371,0.000
1737556682.017,-5.371,-20.020,-49.316,26.855,0.000
1737556682.021,-15.625,-29.297,-37.109,-24.902,0.000
1737556682.025,-27.832,-36.133,-17.578,-55.176,0.000
1737556682.029,-19.531,-28.320,-6.348,-47.852,0.000
1737556682.032,-2.441,-22.949,-15.625,-36.133,0.000
1737556682.036,-5.859,-28.320,-25.391,-17.578,0.000
1737556682.040,-20.996,-30.762,-43.457,-17.090,0.000
1737556682.044,-30.762,-25.391,-42.480,-25.879,0.000
1737556682.048,-51.270,-29.297,-36.133,-18.066,0.000
1737556682.052,-33.691,-29.785,-51.758,0.000,0.000
1737556682.056,-4.395,-26.855,-41.504,0.000,0.000
1737556682.060,-6.836,-28.809,-29.297,3.906,0.000
1737556682.064,-19.043,-33.203,-35.645,6.348,0.000
1737556682.068,-24.414,-34.180,-27.832,-10.742,0.000
1737556682.072,-15.137,-34.180,-29.297,-20.020,0.000
1737556682.075,-19.043,-37.109,-38.574,-14.160,0.000
1737556682.079,-33.691,-34.668,-31.738,-38.574,0.000
1737556682.083,-47.852,-37.109,-29.297,-51.270,0.000
1737556682.087,-44.434,-37.598,-27.832,-22.949,0.000
1737556682.091,-21.484,-30.273,-25.391,-24.902,0.000
1737556682.095,3.906,-29.297,-30.762,-23.438,0.000
1737556682.099,9.766,-32.227,-34.180,-20.508,0.000
1737556682.103,-20.508,-37.598,-42.480,-17.090,0.000
1737556682.107,-40.039,-40.039,-45.898,-19.043,0.000
1737556682.111,-19.043,-34.180,-26.855,-19.531,0.000
1737556682.114,14.160,-23.438,-25.879,-6.836,0.000
1737556682.118,-14.160,-22.461,-37.109,-12.207,0.000
1737556682.122,-30.762,-30.762,-46.875,-22.949,0.000
1737556682.126,-31.738,-38.086,-39.551,-16.113,0.000
1737556682.130,-13.672,-40.527,-22.949,-9.766,0.000
1737556682.134,4.883,-33.203,-26.855,-15.625,0.000
1737556682.138,-6.836,-19.043,-36.133,-3.418,0.000
1737556682.142,-29.297,-22.949,-42.480,-10.254,0.000
1737556682.146,-39.551,-33.203,-38.574,-38.086,0.000
1737556682.150,-17.090,-25.879,-21.973,-35.645,0.000
1737556682.154,3.906,-20.020,-20.020,-20.020,0.000
1737556682.157,5.859,-23.438,-26.367,-24.414,0.000
1737556682.161,-5.371,-33.203,-30.762,-32.715,0.000
1737556682.165,-32.227,-35.645,-32.715,-29.297,0.000
1737556682.169,-5.859,-22.461,-28.320,-9.766,0.000
1737556682.173,5.371,-13.672,-28.809,6.348,0.000
1737556682.177,-9.766,-21.973,-35.645,-10.742,0.000
1737556682.181,-26.855,-32.227,-33.691,-33.691,0.000
1737556682.185,-33.691,-29.297,-22.949,-35.156,0.000
1737556682.189,-16.602,-24.902,-17.090,-6.836,0.000
1737556682.193,2.441,-23.438,-17.090,1.465,0.000
1737556682.197,4.395,-20.996,-19.531,-12.207,0.000
1737556682.200,-8.789,-25.391,-26.855,-25.391,0.000
1737556682.204,-22.949,-31.250,-26.855,-30.273,0.000
1737556682.208,-32.715,-32.715,-21.484,-30.762,0.000
1737556682.212,-16.602,-26.855,-20.508,-15.137,0.000
1737556682.216,8.301,-21.973,-21.973,7.324,0.000
1737556682.220,-11.719,-34.180,-29.297,2.930,0.000
1737556682.224,-27.344,-34.668,-29.785,-3.906,0.000
1737556682.228,-18.555,-19.043,-6.348,-12.207,0.000
1737556682.232,1.465,-10.742,-7.812,-3.906,0.000
1737556682.236,14.160,-10.254,39.062,9.277,0.000
1737556682.239,-10.254,-8.301,91.309,-7.812,0.000
1737556682.243,-34.668,35.156,37.598,-25.391,0.000
1737556682.247,-60.059,34.668,35.156,-38.086,0.000
1737556682.251,-76.172,14.648,66.895,-55.664,0.000
1737556682.255,-80.078,65.430,19.043,-71.289,0.000
1737556682.259,-106.445,72.754,-43.945,-109.375,0.000
1737556682.263,-187.500,11.719,-25.391,-187.988,0.000
1737556682.267,-197.266,37.598,93.750,-186.523,0.000
1737556682.271,-188.477,62.012,53.711,-176.758,0.000
1737556682.275,-239.746,25.879,-9.277,-258.789,0.000
1737556682.279,-267.090,38.574,66.895,-293.945,0.000
1737556682.282,-297.852,65.430,32.715,-307.617,0.000
1737556682.286,-315.430,77.148,19.043,-331.543,0.000
1737556682.290,-299.316,117.676,53.223,-314.453,0.000
1737556682.294,-274.902,166.504,77.637,-289.062,0.000
1737556682.298,-285.645,190.918,108.398,-299.316,0.000
1737556682.302,-327.637,187.500,125.488,-318.848,0.000
1737556682.306,-321.289,196.777,124.023,-312.012,0.000
1737556682.310,-284.668,211.914,129.395,-275.391,0.000
1737556682.314,-251.953,220.215,135.254,-241.211,0.000
1737556682.318,-232.910,206.055,126.465,-238.281,0.000
1737556682.322,0.000,180.664,0.000,-250.977,0.000
1737556682.325,0.000,177.734,0.000,-232.910,0.000
1737556682.329,0.000,185.547,0.000,-194.336,0.000
1737556682.333,0.000,183.105,0.000,-157.227,0.000
1737556682.337,0.000,160.156,0.000,-141.602,0.000
1737556682.341,0.000,140.625,0.000,-158.691,0.000
1737556682.345,0.000,127.930,0.000,-155.273,0.000
1737556682.349,0.000,108.398,0.000,-108.887,0.000
1737556682.353,0.000,81.543,0.000,-83.984,0.000
1737556682.357,0.000,44.434,0.000,-68.848,0.000
1737556682.361,0.000,9.766,0.000,-33.203,0.000
1737556682.364,0.000,-16.602,0.000,-3.906,0.000
1737556682.368,-7.812,-38.086,-40.039,15.137,0.000
1737556682.372,10.254,-54.199,-72.754,34.668,0.000
1737556682.376,31.250,-65.918,-90.820,47.363,0.000
1737556682.380,48.340,-74.219,-85.938,50.781,0.000
1737556682.384,51.270,-86.914,-52.734,49.805,0.000
1737556682.388,52.246,-97.168,-51.270,67.871,0.000
1737556682.392,79.102,-106.934,-56.641,99.609,0.000
1737556682.396,80.566,-111.816,-51.270,116.211,0.000
1737556682.400,87.402,-104.492,-68.359,116.211,0.000
1737556682.404,99.609,-94.238,-105.957,125.488,0.000
1737556682.407,80.078,-97.168,-100.586,92.773,0.000
1737556682.411,77.637,-99.121,-69.336,64.941,0.000
1737556682.415,108.398,-95.215,-67.383,101.562,0.000
1737556682.419,112.793,-97.656,-75.684,110.352,0.000
1737556682.423,79.102,-100.098,-83.496,87.402,0.000
1737556682.427,64.453,-102.539,-87.402,81.055,0.000
1737556682.431,91.309,-96.680,-98.633,96.680,0.000
1737556682.435,129.883,-82.520,-110.840,114.746,0.000
1737556682.439,133.301,-82.520,-82.520,106.934,0.000
1737556682.443,88.867,-84.961,-65.430,95.703,0.000
1737556682.446,69.824,-84.961,-75.195,88.867,0.000
1737556682.450,84.473,-83.496,-95.215,101.074,0.000
1737556682.454,90.332,-77.148,-93.262,106.445,0.000
1737556682.458,73.730,-76.660,-71.289,92.285,0.000
1737556682.462,46.387,-81.543,-77.148,75.684,0.000
1737556682.466,48.340,-83.984,-80.078,57.617,0.000
1737556682.470,80.078,-82.520,-94.238,63.965,0.000
1737556682.474,91.309,-73.242,-96.680,86.426,0.000
1737556682.478,69.824,-73.730,-68.359,81.055,0.000
1737556682.482,44.922,-71.289,-61.035,49.316,0.000
1737556682.486,22.949,-68.848,-67.871,34.180,0.000
1737556682.489,27.344,-67.871,-67.383,41.992,0.000
1737556682.493,46.387,-66.895,-70.801,50.781,0.000
1737556682.497,57.129,-59.082,-89.355,62.988,0.000
1737556682.501,58.105,-53.711,-105.469,73.242,0.000
1737556682.505,42.969,-61.035,-81.543,44.434,0.000
1737556682.509,0.000,-65.918,0.000,25.879,0.000
1737556682.513,0.000,-61.523,0.000,31.250,0.000
1737556682.517,0.000,-55.664,0.000,25.391,0.000
1737556682.521,0.000,-53.223,0.000,17.090,0.000
1737556682.525,0.000,-58.105,0.000,16.113,0.000
1737556682.529,0.000,-59.082,0.000,32.227,0.000
1737556682.532,0.000,-57.129,0.000,44.922,0.000
1737556682.536,0.000,-59.570,0.000,44.434,0.000
1737556682.540,0.000,-64.941,0.000,34.668,0.000
1737556682.544,0.000,-60.547,0.000,31.738,0.000
1737556682.548,0.000,-53.223,0.000,16.113,0.000
1737556682.552,0.000,-50.781,0.000,7.812,0.000
1737556682.556,21.973,-40.527,-46.387,30.273,0.000
1737556682.560,8.301,-38.086,-34.180,33.203,0.000
1737556682.564,-5.371,-42.480,-34.180,12.695,0.000
1737556682.568,0.000,-41.016,-35.156,8.789,0.000
1737556682.571,26.367,-31.738,-48.340,29.297,0.000
1737556682.575,32.227,-28.320,-62.988,38.086,0.000
1737556682.579,10.254,-39.551,-61.035,23.926,0.000
1737556682.583,2.930,-48.340,-53.223,18.066,0.000
1737556682.587,-1.465,-42.969,-65.918,21.973,0.000
1737556682.591,0.977,-37.109,-67.871,9.766,0.000
1737556682.595,22.461,-42.480,-41.992,17.090,0.000
1737556682.599,15.625,-44.922,-26.855,28.809,0.000
1737556682.603,-11.230,-33.691,-40.527,-0.488,0.000
1737556682.607,-7.812,-30.273,-47.852,-4.395,0.000
1737556682.611,8.301,-30.273,-44.434,14.160,0.000
1737556682.614,27.344,-25.879,-34.180,21.973,0.000
1737556682.618,4.883,-31.738,-38.574,2.441,0.000
1737556682.622,-15.625,-38.086,-42.480,-2.930,0.000
1737556682.626,-19.531,-41.992,-29.785,0.977,0.000
1737556682.630,-6.348,-43.945,-21.973,7.324,0.000
1737556682.634,22.461,-41.504,-23.438,3.906,0.000
1737556682.638,7.812,-42.480,-20.508,-10.254,0.000
1737556682.642,-18.555,-39.551,-33.203,-15.625,0.000
1737556682.646,-30.762,-33.203,-39.062,-21.484,0.000
1737556682.650,-15.137,-25.879,-33.203,-13.184,0.000
1737556682.654,14.648,-13.184,-32.227,17.578,0.000
1737556682.657,20.996,-21.484,-34.668,26.855,0.000
1737556682.661,-9.766,-41.504,-40.039,-5.371,0.000
1737556682.665,-33.203,-50.781,-36.133,-22.949,0.000
1737556682.669,-25.879,-48.828,-31.738,-12.695,0.000
1737556682.673,3.418,-33.691,-25.879,2.441,0.000
1737556682.677,6.348,-31.250,-13.672,-5.371,0.000
1737556682.681,-14.160,-42.480,-12.207,-32.715,0.000
1737556682.685,-19.531,-43.457,-21.484,-29.785,0.000
1737556682.689,-25.391,-38.574,-32.715,-16.113,0.000
1737556682.693,-1.953,-33.691,-38.086,-5.371,0.000
1737556682.696,-8.301,-33.691,-44.922,4.883,0.000
1737556682.700,-20.996,-33.691,-61.523,6.836,0.000
1737556682.704,-29.297,-36.621,-52.246,-19.531,0.000
1737556682.708,-34.668,-42.969,-14.160,-42.969,0.000
1737556682.712,-19.043,-45.898,-4.395,-40.039,0.000
1737556682.716,-6.836,-38.086,-25.879,-29.785,0.000
1737556682.720,-14.160,-38.574,-38.086,-13.184,0.000
1737556682.724,-27.344,-48.828,-37.109,-22.949,0.000
1737556682.728,-32.227,-42.969,-33.691,-32.715,0.000
1737556682.732,-14.160,-35.156,-31.250,-30.762,0.000
1737556682.736,6.348,-34.668,-35.645,-22.461,0.000
1737556682.739,-15.137,-30.273,-33.691,-16.113,0.000
1737556682.743,0.000,-29.297,0.000,-24.902,0.000
1737556682.747,0.000,-37.109,0.000,-24.414,0.000
1737556682.751,0.000,-41.992,0.000,-10.254,0.000
1737556682.755,0.000,-35.156,0.000,-10.254,0.000
1737556682.759,0.000,-30.273,0.000,-19.043,0.000
1737556682.763,0.000,-39.551,0.000,-16.602,0.000
1737556682.767,0.000,-47.852,0.000,-35.156,0.000
1737556682.771,0.000,-42.480,0.000,-52.246,0.000
1737556682.775,0.000,-28.320,0.000,-33.691,0.000
1737556682.778,0.000,-27.344,0.000,-17.090,0.000
1737556682.782,0.000,-33.691,0.000,-31.250,0.000
1737556682.786,0.000,-38.574,0.000,-38.086,0.000
1737556682.790,-0.488,-33.203,-34.180,-15.137,0.000
1737556682.794,4.883,-27.344,-34.668,8.789,0.000
1737556682.798,-7.324,-28.809,-33.203,-10.254,0.000
1737556682.802,-25.391,-30.273,-28.809,-40.527,0.000
1737556682.806,-62.988,-32.227,-28.320,-34.668,0.000
1737556682.810,-54.199,-29.785,-30.762,-15.625,0.000
1737556682.814,-5.859,-21.484,-29.297,-16.113,0.000
1737556682.818,0.977,-22.949,-39.551,-6.348,0.000
1737556682.821,-10.742,-26.367,-51.758,-0.488,0.000
1737556682.825,-17.090,-31.738,-41.504,-14.648,0.000
1737556682.829,-22.461,-41.992,-21.973,-20.020,0.000
1737556682.833,0.488,-35.156,-20.020,3.906,0.000
1737556682.837,2.441,-29.785,-25.391,17.090,0.000
1737556682.841,-14.648,-34.180,-24.902,-9.766,0.000
1737556682.845,-20.020,-37.598,-22.949,-27.344,0.000
1737556682.849,-18.555,-30.762,-19.043,-16.113,0.000
1737556682.853,-15.625,-23.438,-19.043,-7.324,0.000
1737556682.857,0.000,-25.879,-18.066,-2.930,0.000
1737556682.861,-17.578,-38.086,-29.297,-6.836,0.000
1737556682.864,-36.621,-40.039,-41.016,-24.902,0.000
1737556682.868,-23.926,-37.598,-35.645,-27.832,0.000
1737556682.872,-10.254,-34.180,-25.879,-23.926,0.000
1737556682.876,0.000,-35.156,-25.879,-10.254,0.000
1737556682.880,-9.766,-38.086,-41.992,-12.207,0.000
1737556682.884,-21.973,-35.645,-53.223,-20.996,0.000
1737556682.888,-20.508,-37.598,-43.945,-5.371,0.000
1737556682.892,-11.230,-36.133,-34.668,-7.812,0.000
1737556682.896,10.742,-35.645,-32.227,3.906,0.000
1737556682.900,5.859,-39.062,-26.855,1.953,0.000
1737556682.903,-22.461,-39.551,-23.926,-14.160,0.000
1737556682.907,-21.973,-35.645,-28.320,0.000,0.000
1737556682.911,-1.465,-27.344,-20.996,11.719,0.000
1737556682.915,17.090,-24.414,-20.996,14.648,0.000
1737556682.919,14.160,-30.273,-30.273,-2.441,0.000
1737556682.923,-5.371,-35.156,-32.227,-17.090,0.000
1737556682.927,-15.137,-32.715,-36.621,-10.742,0.000
1737556682.931,0.488,-27.832,-42.480,12.207,0.000
1737556682.935,16.602,-28.809,-35.156,24.902,0.000
1737556682.939,8.789,-31.738,-28.320,1.465,0.000
1737556682.943,-5.371,-34.668,-36.621,-13.184,0.000
1737556682.946,-20.020,-34.668,-39.062,-8.301,0.000
1737556682.950,-0.488,-26.367,-33.691,2.930,0.000
1737556682.954,20.996,-31.738,-26.367,12.695,0.000
1737556682.958,1.465,-43.945,-16.113,10.254,0.000
1737556682.962,-18.555,-40.527,-17.578,5.371,0.000
1737556682.966,-25.391,-39.062,-29.297,9.766,0.000
1737556682.970,-4.883,-31.738,-33.203,11.719,0.000
1737556682.974,14.160,-24.902,-31.738,16.602,0.000
1737556682.978,11.230,-26.855,-33.691,19.043,0.000
1737556682.982,-4.883,-29.297,-36.621,14.648,0.000
1737556682.986,-11.719,-32.227,-28.320,-2.930,0.000
1737556682.989,-17.090,-36.621,-21.973,-24.902,0.000
1737556682.993,-20.508,-35.645,-33.203,-1.465,0.000
1737556682.997,-17.578,-21.484,-25.391,12.695,0.000
1737556683.001,-20.020,-23.926,-9.277,-4.395,0.000
1737556683.005,-30.762,-36.621,-4.395,-27.832,0.000
1737556683.009,-26.855,-20.996,-17.578,-28.809,0.000
1737556683.013,-22.949,-10.254,-13.672,-11.719,0.000
1737556683.017,-18.555,2.441,68.848,-5.859,0.000
1737556683.021,-25.879,27.832,107.910,-22.461,0.000
1737556683.025,-65.918,-10.742,47.363,-48.340,0.000
1737556683.028,-117.188,-16.113,15.625,-88.379,0.000
1737556683.032,-123.535,76.172,46.387,-106.934,0.000
1737556683.036,-150.391,24.414,49.316,-137.207,0.000
1737556683.040,-208.008,-18.066,26.855,-181.641,0.000
1737556683.044,-271.484,42.969,7.324,-245.605,0.000
1737556683.048,-284.668,83.496,46.875,-271.973,0.000
1737556683.052,-291.016,37.109,50.781,-284.668,0.000
1737556683.056,-288.086,5.371,23.438,-282.227,0.000
1737556683.060,-294.434,15.625,9.766,-276.855,0.000
1737556683.064,-316.895,26.367,6.348,-302.734,0.000
1737556683.068,-317.871,35.156,32.715,-335.938,0.000
1737556683.071,-302.246,43.945,61.523,-328.613,0.000
1737556683.075,-276.367,47.852,75.195,-306.152,0.000
1737556683.079,-269.531,44.922,84.961,-303.223,0.000
1737556683.083,-290.527,41.992,80.566,-303.711,0.000
1737556683.087,-297.363,37.598,64.941,-284.668,0.000
1737556683.091,-255.371,38.086,41.016,-243.652,0.000
1737556683.095,-198.730,34.668,45.898,-213.867,0.000
1737556683.099,-184.082,32.227,74.219,-184.570,0.000
1737556683.103,-200.684,29.297,70.312,-165.527,0.000
1737556683.107,-165.039,19.043,48.340,-182.129,0.000
1737556683.111,-124.512,9.766,23.926,-150.391,0.000
1737556683.114,-113.281,0.488,0.000,-101.562,0.000
1737556683.118,-89.844,-20.996,-8.301,-70.312,0.000
1737556683.122,-66.406,-42.969,-21.973,-37.598,0.000
1737556683.126,-59.570,-53.223,-27.344,-23.926,0.000
1737556683.130,-21.973,-59.082,-25.391,-19.043,0.000
1737556683.134,35.645,-59.570,-44.922,16.113,0.000
1737556683.138,47.852,-59.570,-79.590,52.246,0.000
1737556683.142,22.461,-70.801,-88.867,62.012,0.000
1737556683.146,34.180,-81.543,-92.285,51.758,0.000
1737556683.150,61.035,-84.473,-72.754,51.758,0.000
1737556683.153,78.613,-83.984,-38.086,81.055,0.000
1737556683.157,99.609,-71.289,-34.668,108.398,0.000
1737556683.161,83.008,-71.777,-62.988,117.676,0.000
1737556683.165,71.777,-78.125,-79.102,121.582,0.000
1737556683.169,104.004,-73.242,-87.891,116.211,0.000
1737556683.173,114.746,-67.383,-83.984,125.977,0.000
1737556683.177,117.188,-65.430,-76.660,141.113,0.000
1737556683.181,111.328,-66.895,-92.285,132.324,0.000
1737556683.185,90.820,-73.730,-102.051,96.680,0.000
1737556683.189,100.098,-72.754,-85.938,89.355,0.000
1737556683.193,121.094,-65.430,-81.055,106.445,0.000
1737556683.196,119.141,-58.594,-78.613,114.258,0.000
1737556683.200,97.168,-59.082,-70.312,122.070,0.000
1737556683.204,89.355,-65.430,-73.730,113.281,0.000
1737556683.208,100.586,-59.570,-97.656,89.844,0.000
1737556683.212,113.770,-50.781,-91.797,100.586,0.000
1737556683.216,114.746,-48.828,-83.496,120.117,0.000
1737556683.220,95.703,-48.340,-92.285,107.422,0.000
1737556683.224,70.801,-47.852,-78.613,93.750,0.000
1737556683.228,63.477,-43.945,-77.637,77.148,0.000
1737556683.232,74.219,-41.504,-73.730,64.941,0.000
1737556683.236,78.125,-45.898,-48.340,71.289,0.000
1737556683.239,59.570,-43.945,-44.922,56.641,0.000
1737556683.243,45.410,-44.922,-54.199,49.805,0.000
1737556683.247,50.293,-45.898,-59.082,60.059,0.000
1737556683.251,61.035,-37.109,-56.152,67.383,0.000
1737556683.255,59.082,-39.551,-48.340,65.918,0.000
1737556683.259,50.293,-44.922,-50.781,51.758,0.000
1737556683.263,39.551,-44.922,-54.199,42.969,0.000
1737556683.267,26.855,-41.504,-53.223,56.641,0.000
1737556683.271,25.879,-35.156,-61.035,66.406,0.000
1737556683.275,32.227,-40.527,-71.777,66.895,0.000
1737556683.278,25.879,-40.039,-74.219,59.570,0.000
1737556683.282,18.555,-41.992,-65.918,43.945,0.000
1737556683.286,-0.488,-46.387,-47.363,30.762,0.000
1737556683.290,-3.418,-34.668,-34.180,24.414,0.000
1737556683.294,27.832,-34.668,-37.109,27.832,0.000
1737556683.298,28.320,-37.109,-37.109,33.691,0.000
1737556683.302,-7.812,-38.086,-51.270,25.391,0.000
1737556683.306,-15.625,-40.039,-56.641,0.488,0.000
1737556683.310,-1.953,-38.086,-44.434,3.906,0.000
1737556683.314,19.043,-31.250,-43.457,32.715,0.000
1737556683.318,36.621,-25.879,-45.898,45.410,0.000
1737556683.321,-2.441,-33.691,-43.945,28.809,0.000
1737556683.325,-22.461,-36.133,-42.480,10.254,0.000
1737556683.329,13.184,-35.645,-37.109,19.043,0.000
1737556683.333,40.527,-33.203,-34.180,44.922,0.000
1737556683.337,27.832,-30.273,-44.922,46.875,0.000
1737556683.341,-2.930,-29.785,-41.504,33.691,0.000
1737556683.345,-5.859,-24.902,-28.320,24.414,0.000
1737556683.349,3.418,-21.484,-31.250,10.742,0.000
1737556683.353,23.926,-20.020,-35.645,9.277,0.000
1737556683.357,33.691,-18.555,-29.785,21.973,0.000
1737556683.361,6.836,-25.391,-24.902,8.301,0.000
1737556683.364,-10.254,-32.227,-34.180,-15.137,0.000
1737556683.368,1.953,-30.762,-39.551,-0.488,0.000
1737556683.372,11.230,-26.367,-40.527,18.555,0.000
1737556683.376,10.254,-17.578,-32.715,21.973,0.000
1737556683.380,0.000,-23.438,-35.156,19.531,0.000
1737556683.384,-8.301,-32.715,-37.598,13.184,0.000
1737556683.388,-5.859,-31.250,-26.367,4.395,0.000
1737556683.392,3.906,-29.297,-25.879,10.254,0.000
1737556683.396,17.578,-27.344,-22.461,10.742,0.000
1737556683.400,2.930,-28.320,-21.484,-7.812,0.000
1737556683.403,-10.254,-38.574,-33.203,-19.531,0.000
1737556683.407,-11.230,-40.039,-33.691,-14.648,0.000
1737556683.411,-3.418,-25.391,-32.715,-7.812,0.000
1737556683.415,-0.488,-21.484,-37.598,6.348,0.000
1737556683.419,-15.625,-28.809,-41.992,-1.465,0.000
1737556683.423,-23.438,-37.109,-44.922,-11.230,0.000
1737556683.427,-26.855,-40.039,-41.504,0.488,0.000
1737556683.431,-13.184,-30.273,-37.109,13.184,0.000
1737556683.435,12.695,-30.273,-37.598,-9.766,0.000
1737556683.439,3.906,-36.621,-28.809,-19.043,0.000
1737556683.443,-32.715,-40.039,-16.113,-12.695,0.000
1737556683.446,-51.758,-46.387,-21.973,-10.254,0.000
1737556683.450,-30.762,-41.504,-34.180,-7.812,0.000
1737556683.454,-9.277,-35.645,-30.762,-8.301,0.000
1737556683.458,-11.230,-39.062,-32.227,-4.395,0.000
1737556683.462,-27.832,-43.945,-32.227,-24.414,0.000
1737556683.466,-39.062,-44.434,-33.691,-27.832,0.000
1737556683.470,-44.922,-41.504,-49.316,0.000,0.000
1737556683.474,-31.738,-40.039,-52.734,2.930,0.000
1737556683.478,-14.648,-38.086,-46.387,-6.836,0.000
1737556683.482,-25.391,-40.527,-45.410,-10.742,0.000
1737556683.485,-40.527,-41.016,-34.180,-12.207,0.000
1737556683.489,-25.879,-38.086,-35.156,-13.184,0.000
