timestamps,TP9,AF7,AF8,TP10,Right AUX
1737556265.891,-41.504,-13.672,-17.578,-1000.000,0.000
1737556265.895,-63.477,-20.996,-24.902,-1000.000,0.000
1737556265.898,-60.547,-21.484,-16.602,-1000.000,0.000
1737556265.902,-30.273,-18.066,-5.859,-1000.000,0.000
1737556265.906,-7.812,-9.277,0.488,-1000.000,0.000
1737556265.910,-29.297,-5.371,-1.953,-1000.000,0.000
1737556265.914,-60.547,-19.043,-16.602,-1000.000,0.000
1737556265.918,-60.547,-31.250,-30.273,-933.594,0.000
1737556265.922,-37.598,-23.438,-21.484,-1000.000,0.000
1737556265.926,3.906,-13.672,-10.254,-332.031,0.000
1737556265.930,32.227,-5.371,-20.508,999.512,0.000
1737556265.934,-45.410,-20.508,-32.227,116.699,0.000
1737556265.938,-101.074,-42.480,-36.621,-1000.000,0.000
1737556265.941,-63.965,-33.203,-28.809,-1000.000,0.000
1737556265.945,1.953,-14.648,-14.648,-281.250,0.000
1737556265.949,34.668,-6.348,-12.207,999.512,0.000
1737556265.953,-52.734,-15.137,-23.438,158.691,0.000
1737556265.957,-112.305,-21.973,-31.250,-1000.000,0.000
1737556265.961,-84.961,-19.531,-25.391,-1000.000,0.000
1737556265.965,-24.414,-7.812,-21.973,-620.605,0.000
1737556265.969,50.781,9.277,-20.996,949.707,0.000
1737556265.973,-8.301,-5.371,-26.855,234.863,0.000
1737556265.977,-81.055,-25.879,-34.668,-1000.000,0.000
1737556265.980,-37.598,-20.020,-32.227,-959.961,0.000
1737556265.984,0.000,-8.789,-21.973,-1000.000,0.000
1737556265.988,0.000,-5.859,-13.672,-550.293,0.000
1737556265.992,0.000,-18.555,-19.043,-587.402,0.000
1737556265.996,0.000,-23.926,-24.414,-1000.000,0.000
1737556266.000,0.000,-11.719,-19.043,-979.492,0.000
1737556266.004,0.000,-2.441,-8.789,-1000.000,0.000
1737556266.008,0.000,5.371,-6.836,411.621,0.000
1737556266.012,0.000,-9.277,-19.043,478.027,0.000
1737556266.016,0.000,-31.250,-34.668,-1000.000,0.000
1737556266.020,0.000,-31.738,-34.668,-979.980,0.000
1737556266.023,0.000,-21.484,-20.508,-1000.000,0.000
1737556266.027,0.000,-10.254,-14.160,129.395,0.000
1737556266.031,29.785,-7.812,-20.996,936.035,0.000
1737556266.035,-59.082,-23.438,-28.320,-516.113,0.000
1737556266.039,-74.707,-28.320,-32.227,-1000.000,0.000
1737556266.043,-16.113,-13.184,-25.391,-665.039,0.000
1737556266.047,44.922,1.953,-14.160,617.676,0.000
1737556266.051,31.250,6.836,-17.090,999.512,0.000
1737556266.055,-47.852,-8.301,-30.273,123.047,0.000
1737556266.059,-90.820,-23.926,-37.598,-1000.000,0.000
1737556266.063,-46.387,-22.461,-24.902,-878.418,0.000
1737556266.066,24.902,-3.418,-5.859,419.922,0.000
1737556266.070,32.227,7.812,-6.836,999.512,0.000
1737556266.074,-52.246,-8.789,-21.973,98.145,0.000
1737556266.078,-99.121,-27.344,-31.250,-1000.000,0.000
1737556266.082,-54.688,-22.461,-22.461,-1000.000,0.000
1737556266.086,11.719,-9.766,-9.277,-126.465,0.000
1737556266.090,23.926,-11.719,-10.742,999.512,0.000
1737556266.094,-65.918,-26.367,-23.438,90.820,0.000
1737556266.098,-100.098,-23.438,-28.320,-1000.000,0.000
1737556266.102,-51.758,-16.113,-22.949,-1000.000,0.000
1737556266.105,8.789,-9.277,-14.648,-252.441,0.000
1737556266.109,36.621,-1.953,-18.066,999.512,0.000
1737556266.113,-43.945,-10.254,-26.367,241.699,0.000
1737556266.117,-98.633,-20.020,-26.367,-1000.000,0.000
1737556266.121,-60.059,-22.949,-17.578,-1000.000,0.000
1737556266.125,14.160,-6.348,-0.488,-215.820,0.000
1737556266.129,41.992,-1.465,-5.371,999.512,0.000
1737556266.133,-34.180,-20.020,-20.508,454.590,0.000
1737556266.137,-97.656,-31.738,-26.855,-890.625,0.000
1737556266.141,-76.172,-29.297,-21.973,-1000.000,0.000
1737556266.145,-5.859,-8.301,-4.395,-220.215,0.000
1737556266.148,25.391,1.953,-0.977,999.512,0.000
1737556266.152,-30.762,-14.648,-15.625,755.859,0.000
1737556266.156,-83.984,-25.391,-22.461,-575.684,0.000
1737556266.160,-74.707,-27.344,-20.508,-1000.000,0.000
1737556266.164,4.883,-9.766,-12.695,-257.324,0.000
1737556266.168,51.758,8.789,-3.418,999.023,0.000
1737556266.172,5.859,4.883,-11.719,979.980,0.000
1737556266.176,-62.988,-13.184,-26.855,-213.867,0.000
1737556266.180,-84.961,-26.855,-29.297,-1000.000,0.000
1737556266.184,-13.184,-16.113,-19.531,-388.184,0.000
1737556266.188,48.340,-0.488,-8.789,904.785,0.000
1737556266.191,26.367,0.488,-13.184,999.512,0.000
1737556266.195,-52.246,-19.531,-22.461,40.527,0.000
1737556266.199,-93.262,-34.180,-23.926,-1000.000,0.000
1737556266.203,-23.926,-15.625,-18.555,-595.215,0.000
1737556266.207,38.086,-6.348,-8.789,759.766,0.000
1737556266.211,19.531,-12.207,-11.719,999.512,0.000
1737556266.215,-56.152,-26.367,-25.879,62.500,0.000
1737556266.219,-90.332,-36.621,-29.297,-1000.000,0.000
1737556266.223,-36.621,-24.902,-16.113,-900.879,0.000
1737556266.227,32.715,-2.441,0.488,361.816,0.000
1737556266.230,39.551,7.324,-8.301,999.512,0.000
1737556266.234,-48.828,-14.160,-28.320,162.598,0.000
1737556266.238,-104.980,-25.879,-26.855,-1000.000,0.000
1737556266.242,-46.387,-13.672,-15.625,-967.773,0.000
1737556266.246,38.574,0.488,-5.371,266.602,0.000
1737556266.250,35.645,-2.930,-10.254,999.512,0.000
1737556266.254,-39.062,-17.090,-21.973,251.953,0.000
1737556266.258,-78.613,-20.020,-25.879,-1000.000,0.000
1737556266.262,-43.945,-17.090,-18.555,-1000.000,0.000
1737556266.266,36.621,-4.395,-4.395,87.402,0.000
1737556266.270,55.664,6.836,-0.977,999.512,0.000
1737556266.273,-18.555,-7.324,-13.672,520.020,0.000
1737556266.277,-86.914,-29.297,-27.344,-804.199,0.000
1737556266.281,-71.777,-28.809,-17.090,-1000.000,0.000
1737556266.285,16.602,-5.859,-2.441,-61.035,0.000
1737556266.289,38.086,5.371,-4.395,999.512,0.000
1737556266.293,-24.414,-10.742,-14.648,878.906,0.000
1737556266.297,-84.961,-30.273,-32.715,-375.000,0.000
1737556266.301,-91.309,-28.320,-33.203,-1000.000,0.000
1737556266.305,-11.719,-14.648,-10.742,-84.473,0.000
1737556266.309,19.043,-11.719,-10.742,999.512,0.000
1737556266.313,-28.809,-23.926,-32.227,983.887,0.000
1737556266.316,-84.473,-34.668,-33.691,-151.855,0.000
1737556266.320,-86.426,-29.297,-21.484,-1000.000,0.000
1737556266.324,8.301,-12.207,-11.230,-188.965,0.000
1737556266.328,52.734,-3.418,-8.789,999.512,0.000
1737556266.332,5.859,-5.859,-13.672,999.512,0.000
1737556266.336,-64.453,-23.438,-27.344,-47.852,0.000
1737556266.340,-89.844,-34.668,-32.715,-1000.000,0.000
1737556266.344,-8.789,-16.113,-20.020,-335.449,0.000
1737556266.348,38.574,-7.324,-15.137,952.148,0.000
1737556266.352,-1.465,-14.160,-14.648,999.512,0.000
1737556266.355,-67.871,-26.367,-20.996,2.930,0.000
1737556266.359,0.000,-34.180,-29.785,-1000.000,0.000
1737556266.363,0.000,-17.578,-17.090,-491.699,0.000
1737556266.367,0.000,2.441,-2.930,855.469,0.000
1737556266.371,0.000,-2.441,-12.207,999.512,0.000
1737556266.375,0.000,-23.926,-22.461,21.973,0.000
1737556266.379,0.000,-26.367,-23.438,-1000.000,0.000
1737556266.383,0.000,-20.020,-16.602,-890.137,0.000
1737556266.387,0.000,-8.789,-4.395,370.605,0.000
1737556266.391,0.000,-6.348,-8.301,999.512,0.000
1737556266.395,0.000,-31.250,-20.996,135.254,0.000
1737556266.398,0.000,-41.504,-18.555,-1000.000,0.000
1737556266.402,0.000,-24.902,-11.230,-986.816,0.000
1737556266.406,-95.703,-8.789,-8.301,213.379,0.000
1737556266.410,-24.902,-7.324,-4.883,999.512,0.000
1737556266.414,43.457,-21.484,-18.555,274.414,0.000
1737556266.418,14.160,-32.227,-24.902,-976.562,0.000
1737556266.422,-70.312,-28.320,-18.555,-1000.000,0.000
1737556266.426,-98.145,-7.324,-10.742,-46.875,0.000
1737556266.430,-39.551,0.488,-14.160,999.512,0.000
1737556266.434,35.645,-18.066,-28.809,384.277,0.000
1737556266.437,31.250,-36.621,-34.668,-927.246,0.000
1737556266.441,-63.477,-30.273,-26.855,-1000.000,0.000
1737556266.445,-100.098,-10.742,-14.160,-129.883,0.000
1737556266.449,-45.410,-6.348,-12.695,999.512,0.000
1737556266.453,-46.875,-19.531,-23.926,815.430,0.000
1737556266.457,-111.328,-32.227,-28.320,-483.887,0.000
1737556266.461,-111.816,-34.180,-21.973,-1000.000,0.000
1737556266.465,-22.461,-23.926,-13.672,-123.535,0.000
1737556266.469,10.254,-16.602,-17.090,996.582,0.000
1737556266.473,-34.668,-13.672,-26.367,999.512,0.000
1737556266.477,-87.402,-20.020,-29.297,80.078,0.000
1737556266.480,-114.746,-30.273,-23.926,-1000.000,0.000
1737556266.484,-23.438,-15.625,-5.371,-214.355,0.000
1737556266.488,32.227,-5.859,-2.930,999.512,0.000
1737556266.492,-29.297,-20.020,-10.742,958.496,0.000
1737556266.496,-103.027,-34.668,-20.508,-219.238,0.000
1737556266.500,0.000,-39.062,-24.414,-1000.000,0.000
1737556266.504,0.000,-24.414,-14.160,-462.891,0.000
1737556266.508,0.000,-4.395,-12.207,884.277,0.000
1737556266.512,0.000,-3.418,-19.043,999.512,0.000
1737556266.516,0.000,-16.113,-33.691,-150.879,0.000
1737556266.519,0.000,-15.625,-36.133,-1000.000,0.000
1737556266.523,0.000,-8.301,-22.461,-756.348,0.000
1737556266.527,0.000,-5.371,-20.996,591.797,0.000
1737556266.531,0.000,-8.301,-24.902,999.512,0.000
1737556266.535,0.000,-23.438,-30.762,-159.180,0.000
1737556266.539,0.000,-28.809,-31.250,-1000.000,0.000
1737556266.543,0.000,-20.508,-23.926,-950.195,0.000
1737556266.547,2.930,-6.836,-15.137,220.215,0.000
1737556266.551,8.789,-2.930,-18.066,999.512,0.000
1737556266.555,-78.613,-22.461,-34.668,143.555,0.000
1737556266.559,-115.723,-32.227,-35.645,-1000.000,0.000
1737556266.562,-56.641,-20.996,-26.855,-979.492,0.000
1737556266.566,21.973,6.348,-16.602,229.004,0.000
1737556266.570,29.297,9.766,-17.578,999.512,0.000
1737556266.574,-48.828,-15.625,-31.250,362.305,0.000
1737556266.578,-101.562,-28.320,-37.598,-987.793,0.000
1737556266.582,-67.383,-25.879,-26.367,-1000.000,0.000
1737556266.586,11.719,-5.859,-12.695,282.227,0.000
1737556266.590,29.785,1.465,-10.254,999.512,0.000
1737556266.594,-30.273,-16.113,-16.602,758.301,0.000
1737556266.598,-94.727,-31.250,-25.391,-503.906,0.000
1737556266.602,-92.773,-31.250,-22.949,-1000.000,0.000
1737556266.605,-4.395,-9.766,-12.207,-79.102,0.000
1737556266.609,27.344,-0.977,-10.742,999.512,0.000
1737556266.613,-38.086,-13.184,-20.508,823.242,0.000
1737556266.617,-104.492,-24.902,-32.715,-456.055,0.000
1737556266.621,-109.375,-33.203,-29.785,-1000.000,0.000
1737556266.625,-26.855,-26.367,-20.508,-184.082,0.000
1737556266.629,15.625,-13.184,-21.973,999.512,0.000
1737556266.633,-47.852,-22.949,-23.926,863.770,0.000
1737556266.637,-117.188,-39.551,-32.227,-419.922,0.000
1737556266.641,37.598,-38.086,-36.133,0.000,0.000
1737556266.645,13.672,-14.160,-22.461,0.000,0.000
1737556266.649,-80.566,0.488,-13.184,0.000,0.000
1737556266.652,-111.816,-13.672,-24.414,0.000,0.000
1737556266.656,-46.387,-27.344,-38.086,0.000,0.000
1737556266.660,20.020,-26.367,-39.062,0.000,0.000
1737556266.664,9.766,-18.555,-26.367,0.000,0.000
1737556266.668,-69.336,-12.695,-15.625,0.000,0.000
1737556266.672,-121.094,-9.766,-18.066,0.000,0.000
1737556266.676,-66.895,-21.973,-24.414,0.000,0.000
1737556266.680,22.949,-27.344,-25.391,0.000,0.000
1737556266.684,25.391,-15.137,-16.113,0.000,0.000
1737556266.688,-49.316,0.000,-1.465,0.000,0.000
1737556266.692,-110.840,-6.836,-7.324,0.000,0.000
1737556266.696,-81.543,-31.250,-20.020,0.000,0.000
1737556266.699,7.812,-34.668,-22.461,0.000,0.000
1737556266.703,23.926,-20.508,-16.113,0.000,0.000
1737556266.707,-29.297,0.488,-10.742,0.000,0.000
1737556266.711,-86.914,1.953,-20.996,0.000,0.000
1737556266.715,-79.590,-19.043,-31.738,0.000,0.000
1737556266.719,8.789,-33.691,-31.250,0.000,0.000
1737556266.723,35.645,-24.902,-23.438,0.000,0.000
1737556266.727,-26.855,0.000,-12.695,0.000,0.000
1737556266.731,-89.355,8.301,-13.184,0.000,0.000
1737556266.735,0.000,-10.254,-27.344,0.000,0.000
1737556266.739,0.000,-35.645,-36.133,0.000,0.000
1737556266.742,0.000,-30.762,-29.297,0.000,0.000
1737556266.746,0.000,-5.371,-9.766,0.000,0.000
1737556266.750,0.000,-4.883,-3.418,0.000,0.000
1737556266.754,0.000,-8.789,-15.625,0.000,0.000
1737556266.758,0.000,-18.555,-24.902,0.000,0.000
1737556266.762,0.000,-28.809,-19.043,0.000,0.000
1737556266.766,0.000,-9.277,-10.742,0.000,0.000
1737556266.770,0.000,5.371,-14.648,0.000,0.000
1737556266.774,0.000,-7.324,-19.043,0.000,0.000
1737556266.778,0.000,-23.438,-23.926,0.000,0.000
1737556266.782,-85.938,-22.461,-23.926,-1000.000,0.000
1737556266.785,-1.953,-5.859,-10.254,-192.871,0.000
1737556266.789,39.551,2.930,-3.906,999.512,0.000
1737556266.793,-29.297,-15.137,-13.184,893.555,0.000
1737556266.797,-100.098,-30.273,-29.297,-372.070,0.000
1737556266.801,-97.656,-25.391,-22.949,-1000.000,0.000
1737556266.805,0.000,-1.465,-0.977,-178.711,0.000
1737556266.809,46.875,7.812,-1.465,999.512,0.000
1737556266.813,-13.672,-15.625,-16.113,998.047,0.000
1737556266.817,-80.566,-35.156,-27.344,-140.137,0.000
1737556266.820,-100.098,-35.156,-21.484,-1000.000,0.000
1737556266.824,-25.879,-17.578,-8.789,-335.449,0.000
1737556266.828,27.832,-5.859,-4.395,922.363,0.000
1737556266.832,-2.930,-6.836,-8.301,999.512,0.000
1737556266.836,-72.754,-20.020,-19.531,137.207,0.000
1737556266.840,-109.863,-30.273,-21.973,-1000.000,0.000
1737556266.844,-43.457,-16.113,-13.672,-690.918,0.000
1737556266.848,37.109,7.324,1.465,689.941,0.000
1737556266.852,26.367,4.883,-0.488,999.512,0.000
1737556266.856,-62.988,-22.949,-17.578,-36.621,0.000
1737556266.860,-89.844,-27.344,-22.949,-1000.000,0.000
1737556266.863,-43.457,-17.090,-15.137,-1000.000,0.000
1737556266.867,9.766,-10.742,-6.348,-19.043,0.000
1737556266.871,21.484,-11.719,-11.230,999.512,0.000
1737556266.875,-61.035,-27.344,-26.855,1.953,0.000
1737556266.879,-94.727,-35.645,-33.691,-1000.000,0.000
1737556266.883,-66.895,-29.785,-31.738,-1000.000,0.000
1737556266.887,-9.766,-11.230,-22.949,-65.918,0.000
1737556266.891,23.926,-1.953,-19.531,999.512,0.000
1737556266.895,-48.340,-15.625,-29.785,254.395,0.000
1737556266.899,-98.633,-25.879,-28.809,-1000.000,0.000
1737556266.903,-68.359,-18.555,-15.137,-1000.000,0.000
1737556266.906,-0.977,1.465,-6.348,218.750,0.000
1737556266.910,-10.742,-2.441,-13.184,999.512,0.000
1737556266.914,-94.727,-21.973,-28.809,630.859,0.000
1737556266.918,-149.414,-35.156,-39.551,-668.457,0.000
1737556266.922,-143.066,-39.551,-35.156,-1000.000,0.000
1737556266.926,-65.918,-23.438,-22.949,-110.352,0.000
1737556266.930,-34.668,-12.695,-17.090,999.512,0.000
1737556266.934,-92.773,-27.344,-27.344,669.922,0.000
1737556266.938,-143.555,-44.922,-39.551,-669.922,0.000
1737556266.942,-128.906,-35.645,-33.203,-1000.000,0.000
1737556266.945,-51.270,-14.648,-18.555,-209.473,0.000
1737556266.949,-16.602,-13.184,-20.508,999.512,0.000
1737556266.953,-73.730,-25.879,-29.785,761.230,0.000
1737556266.957,-139.160,-36.621,-31.738,-565.430,0.000
1737556266.961,-128.906,-34.668,-26.855,-1000.000,0.000
1737556266.965,-52.246,-21.484,-11.719,-354.004,0.000
1737556266.969,-6.348,-14.160,-9.766,951.172,0.000
1737556266.973,-37.109,-14.648,-21.484,999.512,0.000
1737556266.977,-99.609,-24.902,-22.949,-203.613,0.000
1737556266.981,-108.887,-31.250,-23.438,-1000.000,0.000
1737556266.985,-32.227,-13.184,-13.672,-452.637,0.000
1737556266.988,30.762,7.324,-1.953,912.109,0.000
1737556266.992,-12.207,0.488,-5.859,999.512,0.000
1737556266.996,-93.750,-27.832,-20.020,-250.000,0.000
1737556267.000,-103.027,-37.109,-25.391,-1000.000,0.000
1737556267.004,-59.082,-31.250,-19.531,-870.605,0.000
1737556267.008,0.977,-18.555,-13.672,366.211,0.000
1737556267.012,10.742,-12.695,-17.578,999.512,0.000
1737556267.016,-61.035,-25.879,-28.320,80.566,0.000
1737556267.020,-96.680,-30.762,-25.879,-1000.000,0.000
1737556267.024,-39.062,-17.090,-11.719,-624.512,0.000
1737556267.028,35.645,0.977,-0.488,710.938,0.000
1737556267.031,25.879,2.930,-7.812,999.512,0.000
1737556267.035,-41.016,-6.348,-17.090,444.336,0.000
1737556267.039,-91.309,-21.973,-18.555,-941.406,0.000
1737556267.043,-64.453,-27.344,-17.578,-976.074,0.000
1737556267.047,15.137,-12.695,-6.836,370.117,0.000
1737556267.051,24.902,-10.254,-3.418,999.512,0.000
1737556267.055,-54.688,-31.738,-19.531,194.824,0.000
1737556267.059,-102.539,-44.434,-30.762,-986.816,0.000
1737556267.063,-66.895,-34.180,-20.996,-1000.000,0.000
1737556267.067,9.277,-10.254,-9.277,-165.527,0.000
1737556267.071,39.551,0.977,-13.184,999.512,0.000
1737556267.074,-50.293,-23.926,-29.297,198.242,0.000
1737556267.078,-108.887,-43.457,-29.297,-1000.000,0.000
1737556267.082,-67.383,-33.203,-22.461,-1000.000,0.000
1737556267.086,2.441,-11.230,-14.160,-260.254,0.000
1737556267.090,42.480,2.930,-8.789,999.512,0.000
1737556267.094,-17.578,-11.719,-22.461,374.512,0.000
1737556267.098,-76.172,-29.297,-31.738,-945.312,0.000
1737556267.102,-57.617,-25.879,-25.879,-1000.000,0.000
1737556267.106,14.160,-10.254,-15.625,-265.625,0.000
1737556267.110,55.176,-0.488,0.000,999.512,0.000
1737556267.114,-3.906,-5.859,0.000,938.477,0.000
1737556267.117,-72.266,-18.555,0.000,-316.406,0.000
1737556267.121,-84.473,-25.391,0.000,-1000.000,0.000
1737556267.125,-16.113,-15.625,0.000,-241.699,0.000
1737556267.129,32.715,1.465,0.000,999.512,0.000
1737556267.133,-12.695,-2.441,0.000,939.453,0.000
1737556267.137,-90.332,-30.273,0.000,-368.652,0.000
1737556267.141,-106.445,-46.387,0.000,-1000.000,0.000
1737556267.145,-49.805,-27.344,0.000,-1000.000,0.000
1737556267.149,13.184,-5.859,0.000,111.816,0.000
1737556267.152,-22.461,-18.555,0.000,418.945,0.000
1737556267.156,-106.445,-39.062,-16.113,-1000.000,0.000
1737556267.160,-87.402,-35.645,-7.324,-1000.000,0.000
1737556267.164,-38.574,-24.902,4.395,-958.496,0.000
1737556267.168,-24.902,-19.531,7.324,-1000.000,0.000
1737556267.172,-50.293,-18.555,-5.371,-1000.000,0.000
1737556267.176,-73.242,-21.973,-18.066,-1000.000,0.000
1737556267.180,-73.730,-21.973,-20.996,-1000.000,0.000
1737556267.184,-58.594,-21.973,-15.625,-1000.000,0.000
1737556267.188,-45.898,-15.137,-6.348,-1000.000,0.000
1737556267.192,-68.848,-16.113,-16.113,-1000.000,0.000
1737556267.195,-108.398,-27.832,-35.645,-972.168,0.000
1737556267.199,-120.605,-26.855,-38.086,-989.746,0.000
1737556267.203,-109.863,-22.461,-33.691,-1000.000,0.000
1737556267.207,-59.082,-9.766,-27.832,171.875,0.000
1737556267.211,-54.688,-8.301,-34.180,999.512,0.000
1737556267.215,-104.980,-22.949,-49.316,963.379,0.000
1737556267.219,-148.438,-31.738,-54.688,-223.633,0.000
1737556267.223,-136.230,-22.949,-47.363,-1000.000,0.000
1737556267.227,-40.527,-8.789,-35.645,251.953,0.000
1737556267.231,-3.418,-12.695,-36.621,999.512,0.000
1737556267.235,-64.453,-24.414,-45.898,243.164,0.000
1737556267.238,-115.234,-35.156,-52.246,-956.543,0.000
1737556267.242,-80.566,-31.250,-45.410,-1000.000,0.000
1737556267.246,0.977,-13.672,-33.691,-293.457,0.000
1737556267.250,0.000,-4.395,-27.344,0.000,0.000
1737556267.254,0.000,-25.391,-34.668,0.000,0.000
1737556267.258,0.000,-43.945,-39.062,0.000,0.000
1737556267.262,0.000,-37.109,-28.809,0.000,0.000
1737556267.266,0.000,-24.902,-15.625,0.000,0.000
1737556267.270,0.000,-10.254,-10.742,0.000,0.000
1737556267.274,0.000,-18.555,-18.555,0.000,0.000
1737556267.277,0.000,-31.250,-20.996,0.000,0.000
1737556267.281,0.000,-24.902,-10.742,0.000,0.000
1737556267.285,0.000,-9.766,8.301,0.000,0.000
1737556267.289,0.000,4.883,13.672,0.000,0.000
1737556267.293,0.000,1.465,4.395,0.000,0.000
1737556267.297,9.277,-4.883,-2.930,950.684,0.000
1737556267.301,17.090,-1.953,-6.836,975.586,0.000
1737556267.305,43.945,4.883,7.812,970.703,0.000
1737556267.309,56.152,4.395,19.531,970.703,0.000
1737556267.313,30.762,-4.883,8.789,970.703,0.000
1737556267.317,1.465,-8.789,-0.977,970.703,0.000
1737556267.320,-5.859,-7.812,-3.906,970.703,0.000
1737556267.324,15.137,-8.789,-0.977,970.703,0.000
1737556267.328,26.367,-11.719,10.742,970.703,0.000
1737556267.332,-8.789,-23.438,6.836,970.703,0.000
1737556267.336,-40.527,-30.762,-9.766,970.703,0.000
1737556267.340,-43.945,-24.902,-14.648,970.703,0.000
1737556267.344,-25.391,-19.531,-4.883,970.703,0.000
1737556267.348,-10.742,-15.137,0.977,970.703,0.000
1737556267.352,-38.574,-17.578,-11.230,970.703,0.000
1737556267.356,-73.730,-27.344,-20.020,970.703,0.000
1737556267.360,-87.402,-34.180,-21.484,971.191,0.000
1737556267.363,-73.242,-26.855,-20.020,971.191,0.000
1737556267.367,-62.012,-23.926,-13.672,908.203,0.000
1737556267.371,-66.895,-30.273,-21.973,999.512,0.000
1737556267.375,-118.652,-37.109,-43.945,184.570,0.000
1737556267.379,-164.062,-44.434,-50.293,-1000.000,0.000
1737556267.383,-116.211,-32.227,-38.086,-983.398,0.000
1737556267.387,-67.871,-19.531,-22.949,-973.145,0.000
1737556267.391,-64.453,-18.066,0.000,-1000.000,0.000
1737556267.395,-90.820,-21.973,0.000,-1000.000,0.000
1737556267.399,-98.145,-29.785,0.000,-932.129,0.000
1737556267.403,-81.543,-27.832,0.000,-1000.000,0.000
1737556267.406,-44.434,-14.648,0.000,-619.629,0.000
1737556267.410,8.301,4.883,0.000,865.234,0.000
1737556267.414,-24.902,-2.441,0.000,933.105,0.000
1737556267.418,-98.145,-26.367,0.000,-547.363,0.000
1737556267.422,-92.773,-25.391,0.000,-1000.000,0.000
1737556267.426,-1.465,-3.906,0.000,291.504,0.000
1737556267.430,29.785,6.836,0.000,999.512,0.000
1737556267.434,-15.625,-0.977,0.000,911.621,0.000
1737556267.438,0.000,-15.137,-21.484,0.000,0.000
1737556267.442,0.000,-13.672,-30.762,0.000,0.000
1737556267.445,0.000,0.977,-38.086,0.000,0.000
1737556267.449,0.000,5.859,-30.762,0.000,0.000
1737556267.453,0.000,-2.930,-13.184,0.000,0.000
1737556267.457,0.000,-7.324,-5.371,0.000,0.000
1737556267.461,0.000,-4.395,-16.113,0.000,0.000
1737556267.465,0.000,-6.348,-21.973,0.000,0.000
1737556267.469,0.000,-3.418,-17.578,0.000,0.000
1737556267.473,0.000,-5.371,-7.812,0.000,0.000
1737556267.477,0.000,-15.625,2.441,0.000,0.000
1737556267.481,0.000,-15.625,-8.301,0.000,0.000
1737556267.485,13.184,-10.742,-12.695,970.703,0.000
1737556267.488,33.691,-5.371,-8.301,970.703,0.000
1737556267.492,17.578,0.977,-15.137,970.703,0.000
1737556267.496,-10.742,-11.719,-25.391,970.703,0.000
1737556267.500,-21.973,-21.484,-28.809,970.703,0.000
1737556267.504,0.000,-10.254,-18.066,970.703,0.000
1737556267.508,14.160,-1.953,-5.371,970.703,0.000
1737556267.512,-7.324,-13.184,-11.719,970.703,0.000
1737556267.516,-30.762,-24.414,-21.973,970.703,0.000
1737556267.520,-40.527,-25.391,-16.602,970.703,0.000
1737556267.523,-24.414,-24.902,-12.207,970.703,0.000
1737556267.527,-0.977,-16.113,-1.953,970.703,0.000
1737556267.531,-15.625,-20.020,0.000,0.000,0.000
1737556267.535,-48.828,-31.738,0.000,0.000,0.000
1737556267.539,-49.316,-26.855,0.000,0.000,0.000
1737556267.543,-27.832,-20.020,0.000,0.000,0.000
1737556267.547,0.000,-7.812,0.000,0.000,0.000
1737556267.551,-0.488,2.441,0.000,0.000,0.000
1737556267.555,-32.715,-9.277,0.000,0.000,0.000
1737556267.559,-52.734,-26.367,0.000,0.000,0.000
1737556267.563,-34.180,-24.902,0.000,0.000,0.000
1737556267.566,-2.441,-12.695,0.000,0.000,0.000
1737556267.570,-3.418,-11.230,0.000,0.000,0.000
1737556267.574,-36.621,-20.996,0.000,0.000,0.000
1737556267.578,0.000,-28.320,-22.461,970.703,0.000
1737556267.582,0.000,-24.414,-20.020,970.703,0.000
1737556267.586,0.000,-11.230,-14.160,970.703,0.000
1737556267.590,0.000,-9.277,-15.137,970.703,0.000
1737556267.594,0.000,-19.043,-30.762,970.703,0.000
1737556267.598,0.000,-20.508,-33.203,970.703,0.000
1737556267.602,0.000,-19.531,-32.715,970.703,0.000
1737556267.606,0.000,-22.949,-27.832,970.703,0.000
1737556267.609,0.000,-15.625,-16.113,970.703,0.000
1737556267.613,0.000,-15.137,-26.367,970.703,0.000
1737556267.617,0.000,-29.785,-40.039,970.703,0.000
1737556267.621,0.000,-26.367,-34.180,970.703,0.000
1737556267.625,-16.113,-13.184,-17.578,970.703,0.000
1737556267.629,-0.977,-5.859,-14.648,970.703,0.000
1737556267.633,-28.809,-11.230,-25.391,970.703,0.000
1737556267.637,-55.664,-25.879,-36.621,970.703,0.000
1737556267.641,-49.805,-25.879,-30.762,970.703,0.000
1737556267.645,-18.066,-3.418,-17.578,970.215,0.000
1737556267.649,-13.672,-7.324,-11.719,973.145,0.000
1737556267.652,-50.781,-23.438,-19.531,954.590,0.000
1737556267.656,-84.961,-15.625,-42.480,999.512,0.000
1737556267.660,-111.816,-13.184,-39.062,839.844,0.000
1737556267.664,-119.629,-27.832,-18.066,719.727,0.000
1737556267.668,-103.516,-15.625,-7.324,917.480,0.000
1737556267.672,-118.164,-11.719,-16.602,999.512,0.000
1737556267.676,-178.223,-30.762,-52.246,119.141,0.000
1737556267.680,-252.441,-44.434,-88.379,-1000.000,0.000
1737556267.684,-277.832,-58.594,-105.469,-976.074,0.000
1737556267.688,-266.113,-46.387,-113.770,-977.539,0.000
1737556267.691,-295.410,-48.340,-133.301,-1000.000,0.000
1737556267.695,-329.102,-68.359,-143.066,-1000.000,0.000
1737556267.699,-310.059,-65.430,-148.926,-1000.000,0.000
1737556267.703,-248.535,-59.570,-153.809,-1000.000,0.000
1737556267.707,-211.914,-58.105,-148.438,-1000.000,0.000
1737556267.711,-207.031,-52.246,-140.137,-1000.000,0.000
1737556267.715,-230.957,-58.594,-143.555,-999.023,0.000
1737556267.719,0.000,-57.129,0.000,0.000,0.000
1737556267.723,0.000,-59.082,0.000,0.000,0.000
1737556267.727,0.000,-45.898,0.000,0.000,0.000
1737556267.731,0.000,-38.086,0.000,0.000,0.000
1737556267.734,0.000,-48.828,0.000,0.000,0.000
1737556267.738,0.000,-51.270,0.000,0.000,0.000
1737556267.742,0.000,-60.059,0.000,0.000,0.000
1737556267.746,0.000,-45.410,0.000,0.000,0.000
1737556267.750,0.000,-21.484,0.000,0.000,0.000
1737556267.754,0.000,-26.855,0.000,0.000,0.000
1737556267.758,0.000,-32.715,0.000,0.000,0.000
1737556267.762,0.000,-30.762,0.000,0.000,0.000
1737556267.766,-135.254,-25.879,-54.199,-971.680,0.000
1737556267.770,-108.398,-16.113,-44.434,-1000.000,0.000
1737556267.774,-113.770,-17.090,-61.035,-1000.000,0.000
1737556267.777,-111.816,-16.602,-57.129,-1000.000,0.000
1737556267.781,-82.031,-21.484,-33.691,-1000.000,0.000
1737556267.785,-29.297,-13.672,-25.391,-1000.000,0.000
1737556267.789,1.953,-6.836,-20.996,-1000.000,0.000
1737556267.793,-3.418,-7.324,-13.672,-1000.000,0.000
1737556267.797,-7.812,-0.977,-14.648,-1000.000,0.000
1737556267.801,4.883,0.000,-14.160,-1000.000,0.000
1737556267.805,51.758,15.137,9.277,-1000.000,0.000
1737556267.809,86.426,31.250,27.344,-1000.000,0.000
1737556267.813,0.000,14.648,0.000,0.000,0.000
1737556267.817,0.000,0.000,0.000,0.000,0.000
1737556267.820,0.000,0.977,0.000,0.000,0.000
1737556267.824,0.000,3.418,0.000,0.000,0.000
1737556267.828,0.000,7.812,0.000,0.000,0.000
1737556267.832,0.000,13.184,0.000,0.000,0.000
1737556267.836,0.000,8.301,0.000,0.000,0.000
1737556267.840,0.000,-5.371,0.000,0.000,0.000
1737556267.844,0.000,-9.277,0.000,0.000,0.000
1737556267.848,0.000,0.488,0.000,0.000,0.000
1737556267.852,0.000,1.465,0.000,0.000,0.000
1737556267.855,0.000,-7.324,0.000,0.000,0.000
1737556267.860,61.035,-8.301,7.812,-1000.000,0.000
1737556267.863,70.312,-6.836,13.184,-1000.000,0.000
1737556267.867,84.473,-3.906,16.113,-1000.000,0.000
1737556267.871,74.707,-7.812,17.090,-1000.000,0.000
1737556267.875,42.969,-17.578,10.254,-997.070,0.000
1737556267.879,41.016,-8.301,8.301,-943.359,0.000
1737556267.883,42.480,-8.301,10.742,-1000.000,0.000
1737556267.887,91.797,-5.859,15.625,-154.785,0.000
1737556267.891,116.211,3.906,15.625,992.676,0.000
1737556267.895,59.082,-14.648,-4.883,999.512,0.000
1737556267.898,-1.953,-32.715,-11.719,229.004,0.000
1737556267.902,-41.016,-32.227,-2.930,-1000.000,0.000
1737556267.906,37.109,-11.719,11.719,-111.328,0.000
1737556267.910,82.520,-0.977,24.902,999.512,0.000
1737556267.914,34.668,-11.719,15.625,999.512,0.000
1737556267.918,-25.391,-25.879,3.418,126.465,0.000
1737556267.922,-56.152,-27.832,1.465,-1000.000,0.000
1737556267.926,13.184,-10.742,7.812,-270.996,0.000
1737556267.930,67.383,3.418,11.230,999.512,0.000
1737556267.934,19.531,-10.742,4.883,739.746,0.000
1737556267.938,-53.711,-26.367,-3.418,-698.242,0.000
1737556267.941,-58.594,-23.438,-5.859,-1000.000,0.000
1737556267.945,-13.184,-15.625,3.418,-937.988,0.000
1737556267.949,4.395,-12.695,10.254,-1000.000,0.000
1737556267.953,-14.160,-21.973,1.953,-1000.000,0.000
1737556267.957,-30.762,-26.367,-11.719,-1000.000,0.000
1737556267.961,-27.344,-21.973,-14.648,-1000.000,0.000
1737556267.965,2.930,-13.184,-4.395,-1000.000,0.000
1737556267.969,20.996,-7.324,3.906,-1000.000,0.000
1737556267.973,-6.348,-7.812,-6.348,-1000.000,0.000
1737556267.977,-31.738,-13.672,-20.020,-1000.000,0.000
1737556267.981,-40.039,-26.367,-20.996,-1000.000,0.000
1737556267.984,-16.113,-26.855,-21.484,-1000.000,0.000
1737556267.988,15.625,-15.625,-11.719,-1000.000,0.000
1737556267.992,0.977,-11.719,-5.859,-1000.000,0.000
1737556267.996,-31.738,-21.484,-22.949,-1000.000,0.000
1737556268.000,-40.039,-24.902,-33.691,-1000.000,0.000
1737556268.004,-13.184,-12.695,-20.996,-1000.000,0.000
1737556268.008,10.742,-5.371,-10.742,-1000.000,0.000
1737556268.012,-5.371,-11.719,-15.137,-1000.000,0.000
1737556268.016,-34.668,-16.602,-22.461,-1000.000,0.000
1737556268.020,-37.109,-15.625,-26.367,-982.910,0.000
1737556268.024,-10.742,-10.742,-20.020,-974.121,0.000
1737556268.027,3.906,-12.207,-17.090,-1000.000,0.000
1737556268.031,40.039,-6.348,-14.648,180.176,0.000
1737556268.035,-0.977,-13.672,-18.066,261.230,0.000
1737556268.039,-71.289,-21.973,-31.250,-1000.000,0.000
1737556268.043,-41.992,-10.742,-29.785,-1000.000,0.000
1737556268.047,-20.020,1.953,-31.738,-823.730,0.000
1737556268.051,25.879,9.277,-23.438,723.633,0.000
1737556268.055,-12.695,-8.301,-25.879,458.984,0.000
1737556268.059,-128.906,-28.320,-60.059,-988.281,0.000
1737556268.063,-113.770,-17.578,-46.875,-1000.000,0.000
1737556268.066,-130.859,-22.461,-66.895,-716.797,0.000
1737556268.070,-338.379,-15.137,-222.656,817.871,0.000
1737556268.074,-362.305,14.160,-230.957,568.359,0.000
1737556268.078,-200.684,-24.902,-71.777,-901.367,0.000
1737556268.082,-168.945,-58.105,-36.621,-1000.000,0.000
1737556268.086,-224.609,-30.762,-56.152,-729.004,0.000
1737556268.090,-198.730,-41.016,-26.367,602.051,0.000
1737556268.094,-274.414,-85.449,-41.504,999.512,0.000
1737556268.098,-332.520,-53.711,-43.457,-105.469,0.000
1737556268.102,-317.383,-50.293,-38.086,-1000.000,0.000
1737556268.106,-192.871,-87.402,27.832,-362.793,0.000
1737556268.109,-128.418,-89.844,40.039,908.691,0.000
1737556268.113,-273.926,-103.027,-65.430,999.512,0.000
1737556268.117,-244.141,-69.336,-21.484,180.664,0.000
1737556268.121,-238.281,-96.680,-27.344,-1000.000,0.000
1737556268.125,-209.961,-138.184,-25.879,-318.359,0.000
1737556268.129,-16.602,-58.105,43.945,999.512,0.000
1737556268.133,6.836,-68.848,28.320,968.750,0.000
1737556268.137,-38.086,-94.238,20.996,933.594,0.000
1737556268.141,-7.812,-111.816,22.949,980.469,0.000
1737556268.145,116.211,-133.301,77.148,984.375,0.000
1737556268.149,198.730,-119.141,80.078,903.320,0.000
1737556268.152,152.344,-143.555,19.043,999.512,0.000
1737556268.156,86.914,-180.664,-28.320,606.934,0.000
1737556268.160,-1.465,-206.543,-61.523,-813.965,0.000
1737556268.164,6.348,-205.078,-43.457,-1000.000,0.000
1737556268.168,27.832,-207.520,-27.832,-942.871,0.000
1737556268.172,-8.301,-202.148,-12.207,-1000.000,0.000
1737556268.176,-38.574,-187.500,2.930,-1000.000,0.000
1737556268.180,-49.316,-187.012,-1.465,-1000.000,0.000
1737556268.184,-17.578,-177.246,22.949,-1000.000,0.000
1737556268.188,5.859,-175.293,59.570,-1000.000,0.000
1737556268.192,-5.371,-172.852,75.195,-1000.000,0.000
1737556268.195,-24.902,-148.438,76.660,-1000.000,0.000
1737556268.199,-34.668,-132.812,79.102,-1000.000,0.000
1737556268.203,-23.438,-114.746,89.355,-1000.000,0.000
1737556268.207,14.160,-76.172,115.234,-1000.000,0.000
1737556268.211,20.020,-65.430,124.023,-1000.000,0.000
1737556268.215,-23.926,-83.008,95.703,-1000.000,0.000
1737556268.219,-35.156,-67.871,82.520,-1000.000,0.000
1737556268.223,10.742,-37.109,97.656,-1000.000,0.000
1737556268.227,57.617,-4.395,117.188,-1000.000,0.000
1737556268.230,74.707,27.344,125.000,-1000.000,0.000
1737556268.234,51.758,40.039,114.258,-1000.000,0.000
1737556268.238,41.016,50.781,96.680,-1000.000,0.000
1737556268.242,61.523,76.660,103.516,-1000.000,0.000
1737556268.246,95.703,108.887,128.906,-1000.000,0.000
1737556268.250,115.234,136.230,141.113,-1000.000,0.000
1737556268.254,88.867,149.902,137.207,-1000.000,0.000
1737556268.258,53.711,137.695,122.070,-1000.000,0.000
1737556268.262,49.805,128.418,121.582,-1000.000,0.000
1737556268.266,74.707,128.418,136.719,-1000.000,0.000
1737556268.270,75.195,125.488,143.066,-1000.000,0.000
1737556268.273,40.527,120.117,126.953,-1000.000,0.000
1737556268.277,16.113,108.887,108.398,-1000.000,0.000
1737556268.281,9.766,98.145,104.004,-1000.000,0.000
1737556268.285,37.598,98.633,103.516,-1000.000,0.000
1737556268.289,53.711,95.215,100.098,-1000.000,0.000
1737556268.293,21.484,73.730,78.125,-1000.000,0.000
1737556268.297,-14.648,49.805,53.711,-1000.000,0.000
1737556268.301,-17.578,49.316,54.199,-1000.000,0.000
1737556268.305,16.113,57.129,58.594,-1000.000,0.000
1737556268.309,32.715,52.246,58.594,-1000.000,0.000
1737556268.313,2.441,40.039,54.199,-1000.000,0.000
1737556268.316,-30.762,32.227,46.387,-996.582,0.000
1737556268.320,-40.527,20.020,37.109,-944.336,0.000
1737556268.324,-35.645,9.766,33.203,-1000.000,0.000
1737556268.328,23.438,28.809,41.504,-194.336,0.000
1737556268.332,49.805,41.504,43.945,999.512,0.000
1737556268.336,-18.555,21.484,32.227,831.543,0.000
1737556268.340,-90.332,7.812,31.250,-532.227,0.000
1737556268.344,-96.680,3.906,36.621,-1000.000,0.000
1737556268.348,-5.859,27.832,47.363,258.301,0.000
1737556268.352,12.695,48.340,50.293,999.512,0.000
1737556268.355,-46.875,25.391,34.668,999.512,0.000
1737556268.359,-106.934,-4.883,20.508,140.625,0.000
1737556268.363,-129.395,-12.207,20.508,-1000.000,0.000
1737556268.367,-35.156,11.719,35.645,-188.965,0.000
1737556268.371,13.672,27.344,42.480,999.512,0.000
1737556268.375,0.000,5.371,24.414,827.148,0.000
1737556268.379,0.000,-9.766,15.625,-437.012,0.000
1737556268.383,0.000,-12.695,21.973,-1000.000,0.000
1737556268.387,0.000,-4.883,23.438,-469.238,0.000
1737556268.391,0.000,6.348,20.996,950.684,0.000
1737556268.395,0.000,6.348,13.184,858.887,0.000
1737556268.398,0.000,-8.789,-1.465,-538.086,0.000
1737556268.402,0.000,-20.020,-4.883,-1000.000,0.000
1737556268.406,0.000,1.953,10.742,-883.789,0.000
1737556268.410,0.000,16.113,17.090,494.141,0.000
1737556268.414,0.000,-2.441,2.930,916.016,0.000
1737556268.418,0.000,-20.020,-9.766,-585.938,0.000
1737556268.422,-52.734,-16.602,0.000,-1000.000,0.000
1737556268.426,-116.699,-4.395,0.000,-888.184,0.000
1737556268.430,-119.629,9.766,0.000,300.293,0.000
1737556268.434,-55.176,12.695,0.000,999.512,0.000
1737556268.437,8.789,-7.812,0.000,159.668,0.000
1737556268.441,-23.926,-9.277,0.000,-1000.000,0.000
1737556268.445,-105.957,0.977,0.000,-496.094,0.000
1737556268.449,-102.051,-9.277,0.000,844.238,0.000
1737556268.453,-38.086,-29.297,0.000,999.512,0.000
1737556268.457,14.648,-43.457,0.000,558.594,0.000
1737556268.461,-11.719,-45.410,0.000,-862.793,0.000
1737556268.465,-98.633,-36.621,0.000,-960.449,0.000
1737556268.469,-128.418,25.879,-43.457,443.848,0.000
1737556268.473,32.715,43.457,64.453,999.512,0.000
1737556268.477,-232.910,-54.688,-50.781,124.512,0.000
1737556268.480,-221.191,-59.082,-8.301,-1000.000,0.000
1737556268.484,-230.957,-13.672,4.883,-1000.000,0.000
1737556268.488,-362.305,-35.156,-123.535,-189.453,0.000
1737556268.492,-242.676,-2.441,-83.008,999.512,0.000
1737556268.496,-268.066,-50.781,-34.180,761.230,0.000
1737556268.500,-310.059,-95.703,-73.730,-641.113,0.000
1737556268.504,-219.727,-44.922,-53.711,-1000.000,0.000
1737556268.508,-108.887,-16.113,-22.949,248.535,0.000
1737556268.512,-47.363,-11.230,-36.133,999.512,0.000
1737556268.516,-120.117,-71.289,-140.137,913.086,0.000
1737556268.520,-102.051,-88.379,-159.668,969.238,0.000
1737556268.523,-0.488,-89.844,-98.145,971.191,0.000
1737556268.527,42.480,-115.723,-132.812,970.703,0.000
1737556268.531,141.602,-77.148,-104.980,970.703,0.000
1737556268.535,238.770,-89.844,-62.012,970.215,0.000
1737556268.539,168.945,-148.438,-122.559,970.703,0.000
1737556268.543,123.047,-145.508,-157.227,970.703,0.000
1737556268.547,139.648,-116.211,-150.879,970.703,0.000
1737556268.551,58.594,-103.027,-161.621,970.703,0.000
1737556268.555,-46.387,-70.801,-138.184,970.703,0.000
1737556268.558,-33.203,-41.992,-93.750,970.703,0.000
1737556268.563,-4.395,-10.254,-101.562,977.051,0.000
1737556268.566,-4.395,25.879,-89.844,943.848,0.000
1737556268.570,-0.488,48.340,-71.289,957.031,0.000
1737556268.574,-26.855,62.500,-69.336,999.512,0.000
1737556268.578,-89.355,70.801,-57.129,-211.914,0.000
1737556268.582,-104.980,75.684,-42.480,-1000.000,0.000
1737556268.586,-35.645,93.262,-22.949,-942.871,0.000
1737556268.590,-11.719,107.422,14.648,-998.535,0.000
1737556268.594,-80.078,97.656,13.184,-1000.000,0.000
1737556268.598,-134.766,86.914,-4.395,-1000.000,0.000
1737556268.601,-130.371,83.496,6.348,-1000.000,0.000
1737556268.605,-92.773,92.285,27.832,-1000.000,0.000
1737556268.609,0.000,116.699,0.000,-1000.000,0.000
1737556268.613,0.000,114.746,0.000,-1000.000,0.000
1737556268.617,0.000,91.309,0.000,-1000.000,0.000
1737556268.621,0.000,99.609,0.000,-1000.000,0.000
1737556268.625,0.000,131.836,0.000,-1000.000,0.000
1737556268.629,0.000,154.297,0.000,-1000.000,0.000
1737556268.633,0.000,154.297,0.000,-1000.000,0.000
1737556268.637,0.000,143.555,0.000,-1000.000,0.000
1737556268.641,0.000,150.391,0.000,-1000.000,0.000
1737556268.644,0.000,182.129,0.000,-1000.000,0.000
1737556268.648,0.000,206.543,0.000,-1000.000,0.000
1737556268.652,0.000,203.613,0.000,-1000.000,0.000
1737556268.656,67.871,188.477,82.520,-1000.000,0.000
1737556268.660,41.016,174.805,73.730,-1000.000,0.000
1737556268.664,54.199,171.875,64.453,-1000.000,0.000
1737556268.668,77.148,185.059,69.824,-1000.000,0.000
1737556268.672,64.941,174.805,80.078,-1000.000,0.000
1737556268.676,10.742,142.090,63.477,-1000.000,0.000
1737556268.680,-11.719,124.023,46.387,-928.223,0.000
1737556268.684,5.859,117.676,53.711,-1000.000,0.000
1737556268.687,56.152,122.070,65.918,-460.449,0.000
1737556268.691,98.145,133.301,68.359,933.594,0.000
1737556268.695,40.039,110.352,53.711,998.047,0.000
1737556268.699,-10.254,91.797,41.992,915.527,0.000
1737556268.703,0.000,98.145,0.000,980.469,0.000
1737556268.707,0.000,89.355,0.000,972.168,0.000
1737556268.711,0.000,83.496,0.000,970.215,0.000
1737556268.715,0.000,71.289,0.000,970.703,0.000
1737556268.719,0.000,47.852,0.000,970.703,0.000
1737556268.723,0.000,41.504,0.000,970.703,0.000
1737556268.727,0.000,44.434,0.000,970.703,0.000
1737556268.730,0.000,42.480,0.000,970.703,0.000
1737556268.734,0.000,27.832,0.000,970.703,0.000
1737556268.738,0.000,7.324,0.000,970.703,0.000
1737556268.742,0.000,-1.953,0.000,970.703,0.000
1737556268.746,0.000,6.348,0.000,970.703,0.000
1737556268.750,-41.016,14.648,39.062,970.703,0.000
1737556268.754,-68.848,2.441,29.785,970.703,0.000
1737556268.758,-104.980,-11.230,14.648,970.703,0.000
1737556268.762,-103.516,-11.719,11.719,970.703,0.000
1737556268.766,-64.453,-9.277,20.508,970.703,0.000
1737556268.770,-39.062,0.488,25.879,970.703,0.000
1737556268.773,-65.430,-0.977,12.207,970.703,0.000
1737556268.777,-99.121,-14.648,-3.418,970.703,0.000
1737556268.781,-96.680,-16.113,-6.348,970.703,0.000
1737556268.785,-61.523,-9.277,0.488,970.703,0.000
1737556268.789,-34.668,0.000,9.277,970.703,0.000
1737556268.793,-51.758,-1.465,6.836,970.703,0.000
1737556268.797,-83.008,-13.184,0.000,970.703,0.000
1737556268.801,-85.938,-17.090,1.465,970.703,0.000
1737556268.805,-53.711,-6.836,5.859,970.703,0.000
1737556268.809,-17.578,2.441,10.742,970.703,0.000
1737556268.812,-23.438,-6.348,9.277,970.703,0.000
1737556268.816,-62.500,-10.742,-7.324,970.703,0.000
1737556268.820,-82.031,-15.137,-20.508,970.703,0.000
1737556268.824,-59.570,-20.508,-15.137,970.703,0.000
1737556268.828,-25.879,-4.883,3.906,970.703,0.000
1737556268.832,-26.855,-0.488,-0.488,970.703,0.000
1737556268.836,-61.035,-12.695,-13.672,970.703,0.000
1737556268.840,-76.660,-15.137,-18.066,970.703,0.000
1737556268.844,-60.547,-8.789,-21.973,970.703,0.000
1737556268.848,-25.879,0.977,-7.812,977.539,0.000
1737556268.852,-28.809,4.395,-2.441,921.387,0.000
1737556268.855,-67.383,-3.418,-17.578,999.512,0.000
1737556268.859,-87.402,-7.324,-24.414,751.465,0.000
1737556268.863,-113.281,-9.277,-20.996,-710.449,0.000
1737556268.867,-50.781,5.371,-13.672,-142.090,0.000
1737556268.871,7.324,12.207,-11.230,999.512,0.000
1737556268.875,-48.828,-1.465,-14.648,930.176,0.000
1737556268.879,-78.125,-4.395,-17.578,954.102,0.000
1737556268.883,-66.895,-0.488,-13.672,974.609,0.000
1737556268.887,-32.715,11.230,-7.324,970.703,0.000
1737556268.891,-19.043,22.461,-3.418,970.703,0.000
1737556268.895,-53.223,14.648,-8.789,970.703,0.000
1737556268.898,-82.031,8.301,-16.113,970.703,0.000
1737556268.902,-84.473,6.348,-21.484,970.703,0.000
1737556268.906,-54.688,-3.906,-15.137,970.703,0.000
1737556268.910,-70.312,9.766,-23.438,970.703,0.000
1737556268.914,-166.504,24.902,-63.477,970.703,0.000
1737556268.918,-170.410,-23.926,-48.340,970.703,0.000
1737556268.922,-57.617,-12.207,3.906,970.703,0.000
1737556268.926,-118.164,35.645,-27.832,970.703,0.000
1737556268.930,-205.078,35.645,-62.988,970.703,0.000
1737556268.933,-107.422,7.812,-5.371,970.703,0.000
1737556268.938,0.000,-42.480,-43.457,970.703,0.000
1737556268.941,0.000,-47.363,-75.195,970.703,0.000
1737556268.945,0.000,-22.949,-60.059,970.703,0.000
1737556268.949,0.000,-24.902,-101.074,970.703,0.000
1737556268.953,0.000,-32.715,-136.719,970.703,0.000
1737556268.957,0.000,-6.348,-126.953,970.703,0.000
1737556268.961,0.000,-12.695,-104.004,970.703,0.000
1737556268.965,0.000,-23.438,-112.793,970.703,0.000
1737556268.969,0.000,-3.906,-102.051,970.703,0.000
1737556268.973,0.000,9.766,-95.215,970.703,0.000
1737556268.976,0.000,-6.836,-106.445,970.703,0.000
1737556268.980,0.000,-16.113,-99.121,970.703,0.000
1737556268.984,-168.945,0.000,-80.566,970.703,0.000
1737556268.988,-142.578,11.230,-66.406,970.703,0.000
1737556268.992,-156.250,16.602,-65.918,970.703,0.000
1737556268.996,-215.332,7.324,-78.125,970.703,0.000
1737556269.000,-252.930,3.418,-66.895,970.703,0.000
1737556269.004,-257.324,36.621,-50.781,970.703,0.000
1737556269.008,-252.441,57.129,-37.109,970.703,0.000
1737556269.012,-237.793,59.082,-29.785,970.703,0.000
1737556269.016,-265.625,58.594,-34.180,970.703,0.000
1737556269.019,-282.715,59.082,-31.250,970.703,0.000
1737556269.023,-226.074,72.266,-17.578,979.492,0.000
1737556269.027,-147.461,88.379,-1.465,899.414,0.000
1737556269.031,-84.473,103.027,11.719,999.512,0.000
1737556269.035,-97.656,103.027,12.695,364.746,0.000
1737556269.039,-126.465,87.891,5.371,-1000.000,0.000
1737556269.043,-61.523,91.309,12.695,-1000.000,0.000
1737556269.047,30.273,106.445,30.273,-958.984,0.000
1737556269.051,83.496,114.258,36.133,-1000.000,0.000
1737556269.055,86.914,101.074,28.320,-992.188,0.000
1737556269.059,95.703,83.008,23.438,-950.684,0.000
1737556269.062,130.859,75.195,18.066,-1000.000,0.000
1737556269.066,229.004,83.984,22.461,-83.008,0.000
1737556269.070,302.734,94.238,33.691,999.512,0.000
1737556269.074,267.578,83.984,26.855,937.012,0.000
1737556269.078,0.000,68.359,0.000,0.000,0.000
1737556269.082,0.000,61.035,0.000,0.000,0.000
1737556269.086,0.000,62.988,0.000,0.000,0.000
1737556269.090,0.000,64.453,0.000,0.000,0.000
1737556269.094,0.000,54.688,0.000,0.000,0.000
1737556269.098,0.000,38.574,0.000,0.000,0.000
1737556269.102,0.000,31.738,0.000,0.000,0.000
1737556269.105,0.000,33.691,0.000,0.000,0.000
1737556269.109,0.000,34.180,0.000,0.000,0.000
1737556269.113,0.000,19.043,0.000,0.000,0.000
1737556269.117,0.000,-3.906,0.000,0.000,0.000
1737556269.121,0.000,-15.137,0.000,0.000,0.000
1737556269.125,121.582,-16.602,65.918,970.703,0.000
1737556269.129,152.832,-11.719,84.473,970.703,0.000
1737556269.133,141.113,-16.113,88.379,970.703,0.000
1737556269.137,90.332,-34.668,78.125,970.703,0.000
1737556269.141,60.059,-41.992,82.520,970.703,0.000
1737556269.144,73.242,-32.227,96.680,970.703,0.000
1737556269.148,91.797,-26.367,102.539,970.703,0.000
1737556269.152,63.477,-45.898,89.844,970.703,0.000
1737556269.156,6.348,-65.918,69.824,970.703,0.000
1737556269.160,-16.113,-70.801,70.312,970.703,0.000
1737556269.164,-4.883,-65.918,83.984,970.703,0.000
1737556269.168,17.578,-51.758,98.145,970.703,0.000
1737556269.172,20.508,-42.969,92.285,970.703,0.000
1737556269.176,-20.020,-50.781,72.754,970.703,0.000
1737556269.180,-56.641,-65.430,63.477,970.703,0.000
1737556269.184,-47.852,-62.988,61.035,970.703,0.000
1737556269.187,-1.465,-44.922,67.383,970.703,0.000
1737556269.191,9.277,-32.227,67.383,970.703,0.000
1737556269.195,-31.738,-40.039,47.852,970.703,0.000
1737556269.199,-59.570,-61.035,31.738,970.703,0.000
1737556269.203,-45.898,-59.082,24.902,970.703,0.000
1737556269.207,-3.418,-36.133,31.738,970.703,0.000
1737556269.211,7.324,-29.297,34.180,970.703,0.000
1737556269.215,-24.902,-36.621,17.578,970.703,0.000
1737556269.219,-41.504,-33.203,7.812,970.703,0.000
1737556269.223,-35.156,-36.621,0.488,970.703,0.000
1737556269.227,0.977,-28.809,2.441,970.703,0.000
1737556269.230,12.695,-20.020,7.812,970.703,0.000
1737556269.234,-21.973,-24.902,-7.324,970.703,0.000
1737556269.238,-44.922,-24.902,-27.832,970.703,0.000
1737556269.242,-37.598,-32.227,-41.504,970.703,0.000
1737556269.246,0.000,-28.809,-35.156,970.703,0.000
1737556269.250,25.391,-12.695,-19.531,970.703,0.000
1737556269.254,8.789,-12.207,-25.391,970.703,0.000
1737556269.258,-18.555,-24.414,-37.109,970.703,0.000
1737556269.262,-19.043,-27.832,-39.062,970.703,0.000
1737556269.266,19.043,-9.277,-31.738,970.703,0.000
1737556269.269,51.758,0.977,-20.020,970.703,0.000
1737556269.273,35.645,-5.859,-20.508,970.703,0.000
1737556269.277,5.371,-10.742,-38.574,970.703,0.000
1737556269.281,1.953,-11.230,-44.922,970.703,0.000
1737556269.285,34.668,1.953,-26.855,970.703,0.000
1737556269.289,64.941,9.277,-12.695,970.703,0.000
1737556269.293,54.688,1.465,-18.066,970.703,0.000
1737556269.297,20.020,-7.812,-32.715,970.703,0.000
1737556269.301,6.836,-13.184,-34.180,970.703,0.000
1737556269.305,30.273,-6.348,-24.902,970.703,0.000
1737556269.308,58.105,-0.977,-14.648,970.703,0.000
1737556269.312,64.453,11.230,-9.277,970.703,0.000
1737556269.316,20.508,-2.930,-28.809,970.703,0.000
1737556269.320,-1.953,-11.719,-38.574,970.703,0.000
1737556269.324,23.438,-3.418,-30.273,970.703,0.000
1737556269.328,47.852,-2.930,-20.996,970.703,0.000
1737556269.332,44.434,3.418,-21.484,970.703,0.000
1737556269.336,-1.953,-12.695,-37.109,970.703,0.000
1737556269.340,-26.855,-32.227,-41.016,970.703,0.000
1737556269.344,-8.789,-24.414,-29.785,970.703,0.000
1737556269.348,27.832,-6.836,-12.695,970.703,0.000
1737556269.351,36.133,-2.930,-4.395,970.703,0.000
1737556269.355,2.930,-14.648,-15.625,970.703,0.000
1737556269.359,0.000,-27.832,0.000,970.703,0.000
1737556269.363,0.000,-34.180,0.000,970.703,0.000
1737556269.367,0.000,-17.090,0.000,971.191,0.000
1737556269.371,0.000,-1.953,0.000,967.773,0.000
1737556269.375,0.000,-13.672,0.000,970.215,0.000
1737556269.379,0.000,-25.879,0.000,982.910,0.000
1737556269.383,0.000,-21.973,0.000,838.867,0.000
1737556269.387,0.000,-12.695,0.000,872.070,0.000
1737556269.391,0.000,-12.207,0.000,927.734,0.000
1737556269.394,0.000,-14.160,0.000,999.512,0.000
1737556269.398,0.000,-23.438,0.000,289.062,0.000
1737556269.402,0.000,-32.227,0.000,-1000.000,0.000
1737556269.406,-26.855,-26.855,-6.348,-901.855,0.000
1737556269.410,51.758,-6.836,7.812,416.504,0.000
1737556269.414,54.199,-0.488,5.371,999.512,0.000
1737556269.418,-51.270,-20.508,-21.484,43.457,0.000
1737556269.422,-103.516,-32.715,-37.598,-1000.000,0.000
1737556269.426,-75.195,-22.949,-44.922,-1000.000,0.000
1737556269.430,-34.668,-11.230,-29.297,-401.855,0.000
1737556269.433,-27.832,-18.555,-24.414,999.512,0.000
1737556269.437,-123.535,-29.785,-57.129,156.250,0.000
1737556269.441,-200.195,-38.574,-90.820,-1000.000,0.000
1737556269.445,-213.379,-40.039,-111.328,-1000.000,0.000
1737556269.449,-180.176,-36.133,-113.770,-300.781,0.000
1737556269.453,-170.898,-44.434,-125.488,999.512,0.000
1737556269.457,-252.441,-61.523,-151.367,607.910,0.000
1737556269.461,-316.895,-74.707,-167.480,-891.113,0.000
1737556269.465,-252.930,-70.801,-161.133,-991.211,0.000
1737556269.469,-119.629,-42.969,-145.996,451.172,0.000
1737556269.473,-92.285,-36.133,-144.043,999.512,0.000
1737556269.476,-150.391,-58.105,-156.738,906.250,0.000
1737556269.480,-151.855,-76.660,-170.410,977.539,0.000
1737556269.484,-92.773,-67.871,-161.133,970.703,0.000
1737556269.488,-34.180,-61.523,-136.719,970.703,0.000
1737556269.492,7.324,-56.152,-129.395,970.703,0.000
1737556269.496,16.113,-50.781,-142.578,970.703,0.000
1737556269.500,0.000,-61.035,-148.438,970.703,0.000
1737556269.504,0.000,-57.617,-125.977,970.703,0.000
1737556269.508,0.000,-47.363,-90.820,970.703,0.000
1737556269.512,0.000,-45.410,-75.195,970.703,0.000
1737556269.516,0.000,-49.805,-74.219,970.703,0.000
1737556269.519,0.000,-42.969,-72.266,970.703,0.000
1737556269.523,0.000,-28.809,-70.801,971.680,0.000
1737556269.527,0.000,-19.531,-56.641,967.285,0.000
1737556269.531,0.000,-20.996,-36.621,914.062,0.000
1737556269.535,0.000,-28.320,-35.645,999.512,0.000
1737556269.539,0.000,-25.391,-47.852,122.559,0.000
1737556269.543,0.000,-12.207,-44.434,-1000.000,0.000
1737556269.547,0.977,16.602,0.000,0.000,0.000
1737556269.551,19.531,45.410,0.000,0.000,0.000
1737556269.555,54.199,56.641,0.000,0.000,0.000
1737556269.558,36.621,57.129,0.000,0.000,0.000
1737556269.562,-22.949,67.871,0.000,0.000,0.000
1737556269.566,-48.340,111.816,0.000,0.000,0.000
1737556269.570,-30.273,141.602,0.000,0.000,0.000
1737556269.574,-4.395,152.832,0.000,0.000,0.000
1737556269.578,-34.180,170.410,0.000,0.000,0.000
1737556269.582,-99.609,190.918,0.000,0.000,0.000
1737556269.586,-183.594,215.820,0.000,0.000,0.000
1737556269.590,-230.469,250.000,0.000,0.000,0.000
1737556269.594,-55.176,272.949,122.070,999.512,0.000
1737556269.598,-105.469,266.602,145.508,954.590,0.000
1737556269.601,-79.102,250.977,189.453,943.359,0.000
1737556269.605,-7.812,247.070,247.070,977.539,0.000
1737556269.609,65.918,251.953,315.430,970.703,0.000
1737556269.613,114.258,229.492,374.023,970.703,0.000
1737556269.617,104.980,173.340,396.973,970.703,0.000
1737556269.621,90.332,125.000,430.664,970.703,0.000
1737556269.625,116.699,87.402,471.680,970.703,0.000
1737556269.629,150.879,51.270,493.164,970.703,0.000
1737556269.633,151.367,17.578,498.535,970.703,0.000
1737556269.636,122.559,-18.555,473.633,970.703,0.000
1737556269.641,0.000,-47.363,444.336,970.703,0.000
1737556269.644,0.000,-64.941,416.504,970.703,0.000
1737556269.648,0.000,-77.637,377.930,970.703,0.000
1737556269.652,0.000,-93.750,325.684,970.703,0.000
1737556269.656,0.000,-117.188,258.301,970.703,0.000
1737556269.660,0.000,-134.277,191.406,970.703,0.000
1737556269.664,0.000,-137.695,147.461,970.703,0.000
1737556269.668,0.000,-137.695,117.676,970.703,0.000
1737556269.672,0.000,-143.066,89.355,970.703,0.000
1737556269.676,0.000,-158.691,47.852,970.703,0.000
1737556269.679,0.000,-168.457,11.230,970.703,0.000
1737556269.683,0.000,-164.551,-0.977,970.703,0.000
1737556269.687,122.070,-154.297,-7.324,970.703,0.000
1737556269.691,129.395,-149.902,-19.043,970.703,0.000
1737556269.695,97.168,-155.762,-42.969,970.703,0.000
1737556269.699,64.941,-163.086,-62.988,970.703,0.000
1737556269.703,64.941,-162.598,-68.359,970.703,0.000
1737556269.707,102.051,-140.625,-57.129,970.703,0.000
1737556269.711,115.723,-120.117,-48.828,970.703,0.000
1737556269.715,72.754,-122.559,-61.523,970.703,0.000
1737556269.719,33.203,-123.535,-75.684,970.703,0.000
1737556269.722,30.762,-115.234,-73.730,970.703,0.000
1737556269.726,59.570,-103.516,-65.430,970.703,0.000
1737556269.730,87.891,-82.520,-56.152,970.703,0.000
1737556269.734,0.000,-73.730,-56.152,970.703,0.000
1737556269.738,0.000,-76.660,-62.988,970.703,0.000
1737556269.742,0.000,-74.219,-70.801,970.703,0.000
1737556269.746,0.000,-64.453,-65.430,970.703,0.000
1737556269.750,0.000,-56.152,-42.969,970.703,0.000
1737556269.754,0.000,-50.781,-39.551,970.703,0.000
1737556269.758,0.000,-56.641,-60.059,970.703,0.000
1737556269.762,0.000,-62.500,-72.754,970.703,0.000
1737556269.765,0.000,-53.711,-67.383,970.703,0.000
1737556269.769,0.000,-38.574,-59.570,970.703,0.000
1737556269.773,0.000,-35.156,-62.012,970.703,0.000
1737556269.777,0.000,-35.156,-72.266,970.703,0.000
1737556269.781,-6.348,-36.133,-85.449,970.703,0.000
1737556269.785,6.348,-42.969,-85.938,970.703,0.000
1737556269.789,38.086,-35.645,-71.289,970.703,0.000
1737556269.793,35.156,-30.762,-69.824,970.703,0.000
1737556269.797,-2.930,-29.297,-79.102,970.703,0.000
1737556269.801,-16.113,-24.414,-82.520,970.703,0.000
1737556269.805,2.441,-23.438,-81.543,970.703,0.000
1737556269.808,33.691,-18.555,-71.777,970.703,0.000
1737556269.812,37.109,-16.113,-59.570,970.703,0.000
1737556269.816,-0.488,-22.949,-74.219,970.703,0.000
1737556269.820,-23.438,-27.832,-91.309,970.703,0.000
1737556269.824,-10.742,-21.484,-89.844,970.703,0.000
1737556269.828,28.809,-4.395,-73.730,970.703,0.000
1737556269.832,49.805,0.000,-62.988,970.703,0.000
1737556269.836,19.043,-8.301,-77.637,970.703,0.000
1737556269.840,-10.742,-18.066,-93.750,970.703,0.000
1737556269.844,2.930,-18.066,-98.145,970.703,0.000
1737556269.848,52.246,6.348,-88.379,970.703,0.000
1737556269.851,70.801,17.578,-75.195,970.703,0.000
1737556269.855,30.762,-6.836,-82.520,970.703,0.000
1737556269.859,-0.977,-23.438,-94.238,970.703,0.000
1737556269.863,12.207,-10.742,-83.008,970.703,0.000
1737556269.867,42.480,-0.977,-67.871,970.703,0.000
1737556269.871,45.410,-2.930,-63.477,970.703,0.000
1737556269.875,0.000,-6.348,-70.312,970.703,0.000
1737556269.879,0.000,-17.578,-83.496,970.703,0.000
1737556269.883,0.000,-24.414,-84.473,970.703,0.000
1737556269.887,0.000,-16.113,-69.336,970.703,0.000
1737556269.890,0.000,-0.977,-50.293,970.703,0.000
1737556269.894,0.000,-0.488,-45.898,970.703,0.000
1737556269.898,0.000,-14.160,-55.664,970.703,0.000
1737556269.902,0.000,-19.531,-62.012,970.703,0.000
1737556269.906,0.000,-12.207,-55.664,970.703,0.000
1737556269.910,0.000,4.395,-45.898,970.703,0.000
1737556269.914,0.000,4.883,-46.875,970.703,0.000
1737556269.918,0.000,-11.230,-56.152,970.703,0.000
1737556269.922,-16.113,-22.949,-43.945,970.703,0.000
1737556269.926,20.996,-1.953,-17.090,970.703,0.000
1737556269.930,0.000,16.113,-47.363,970.703,0.000
1737556269.933,-18.555,-3.418,-35.156,970.703,0.000
1737556269.937,-63.477,-42.480,-50.293,970.703,0.000
1737556269.941,-264.160,-44.434,-184.570,970.703,0.000
1737556269.945,-155.273,-2.930,-89.844,970.703,0.000
1737556269.949,60.547,22.461,51.270,970.703,0.000
1737556269.953,15.137,-7.812,-7.812,970.703,0.000
1737556269.957,-98.145,-51.270,-89.355,970.703,0.000
1737556269.961,-269.531,-78.613,-164.062,970.215,0.000
1737556269.965,-342.285,-66.895,-166.016,971.680,0.000
1737556269.969,-158.203,16.113,-42.969,967.773,0.000
1737556269.973,-103.516,-37.109,-20.508,913.086,0.000
1737556269.976,-222.168,-104.004,-123.535,999.512,0.000
1737556269.980,-386.230,-78.125,-210.938,194.336,0.000
1737556269.984,-313.965,-55.176,-112.305,-1000.000,0.000
1737556269.988,-98.145,-20.996,-59.082,-173.828,0.000
1737556269.992,-72.754,-31.250,-138.672,999.512,0.000
1737556269.996,-62.988,-72.266,-155.762,999.512,0.000
1737556270.000,-109.863,-70.312,-158.203,258.301,0.000
1737556270.004,-50.781,-67.871,-105.957,-1000.000,0.000
1737556270.008,126.465,-40.039,-75.195,-204.102,0.000
1737556270.011,125.977,-5.371,-135.742,999.512,0.000
1737556270.015,0.000,-38.086,-134.277,946.289,0.000
1737556270.019,0.000,-77.637,-40.039,943.848,0.000
1737556270.023,0.000,-94.238,-83.008,978.027,0.000
1737556270.027,0.000,-54.688,-63.477,907.715,0.000
1737556270.031,0.000,-43.457,-28.809,999.512,0.000
1737556270.035,0.000,-51.758,-73.730,189.453,0.000
1737556270.039,0.000,-77.148,-94.238,-1000.000,0.000
1737556270.043,0.000,-119.141,-90.820,-983.887,0.000
1737556270.047,0.000,-105.469,-62.012,-973.145,0.000
1737556270.051,0.000,-76.172,-20.996,-1000.000,0.000
1737556270.054,0.000,-79.102,-0.977,-1000.000,0.000
1737556270.058,0.000,-85.938,2.930,-1000.000,0.000
1737556270.062,91.797,-81.543,10.254,-1000.000,0.000
1737556270.066,150.391,-62.500,38.574,-1000.000,0.000
1737556270.070,198.730,-64.941,72.754,-1000.000,0.000
1737556270.074,146.484,-82.031,82.031,-1000.000,0.000
1737556270.078,107.422,-87.891,84.473,-1000.000,0.000
1737556270.082,114.258,-95.215,85.938,-1000.000,0.000
1737556270.086,156.250,-91.797,104.492,-1000.000,0.000
1737556270.090,198.730,-70.801,118.164,-1000.000,0.000
1737556270.094,198.242,-47.852,103.516,-1000.000,0.000
1737556270.097,175.781,-25.391,84.473,-1000.000,0.000
1737556270.101,176.270,1.953,77.148,-1000.000,0.000
1737556270.105,195.801,10.742,77.148,-1000.000,0.000
1737556270.109,227.539,23.438,85.449,-1000.000,0.000
1737556270.113,235.352,46.875,83.496,-1000.000,0.000
1737556270.117,188.965,45.410,67.383,-1000.000,0.000
1737556270.121,145.020,25.879,59.570,-1000.000,0.000
1737556270.125,156.250,20.996,65.918,-1000.000,0.000
1737556270.129,195.801,28.320,80.566,-1000.000,0.000
1737556270.133,186.523,19.043,85.938,-1000.000,0.000
1737556270.137,118.652,-8.789,79.102,-1000.000,0.000
1737556270.140,71.777,-32.715,71.289,-1000.000,0.000
1737556270.144,68.848,-40.039,75.195,-1000.000,0.000
1737556270.148,101.562,-26.855,91.797,-1000.000,0.000
1737556270.152,99.609,-25.391,96.680,-1000.000,0.000
1737556270.156,37.109,-40.527,84.961,-1000.000,0.000
1737556270.160,-17.578,-59.082,67.871,-977.051,0.000
1737556270.164,-37.598,-69.824,67.871,-980.469,0.000
1737556270.168,-19.043,-59.570,82.520,-1000.000,0.000
1737556270.172,28.809,-44.434,88.379,70.312,0.000
1737556270.176,13.672,-42.480,79.102,999.512,0.000
1737556270.179,-96.191,-55.176,56.641,187.500,0.000
1737556270.183,-162.109,-75.195,41.504,-1000.000,0.000
1737556270.187,-88.867,-65.430,46.387,-415.527,0.000
1737556270.191,-11.230,-39.551,49.805,974.609,0.000
1737556270.195,-61.035,-43.945,38.086,986.816,0.000
1737556270.199,-121.582,-55.664,20.508,925.781,0.000
1737556270.203,-129.883,-58.105,13.672,982.910,0.000
1737556270.207,-106.934,-49.805,20.508,970.703,0.000
1737556270.211,-86.914,-41.504,18.066,970.703,0.000
1737556270.215,-111.816,-49.316,9.277,970.703,0.000
1737556270.219,-160.645,-60.059,-9.766,970.703,0.000
1737556270.222,-160.156,-53.711,-16.602,970.703,0.000
1737556270.226,-125.977,-42.969,0.488,970.703,0.000
1737556270.230,-100.586,-34.180,7.324,970.703,0.000
1737556270.234,-108.398,-27.344,-2.441,970.703,0.000
1737556270.238,-152.344,-33.203,-19.531,970.703,0.000
1737556270.242,-171.875,-40.039,-23.438,970.703,0.000
1737556270.246,-142.090,-33.691,-14.160,970.703,0.000
1737556270.250,-110.840,-28.809,-4.395,970.703,0.000
1737556270.254,-122.070,-37.109,-6.348,970.703,0.000
1737556270.258,-153.320,-43.945,-12.695,970.703,0.000
1737556270.262,-160.645,-39.551,-10.254,970.703,0.000
1737556270.265,-136.230,-33.691,-9.277,970.703,0.000
1737556270.269,-84.961,-14.160,0.000,970.703,0.000
1737556270.273,-72.266,-9.766,7.324,970.703,0.000
1737556270.277,-120.117,-33.691,-14.160,970.703,0.000
1737556270.281,-145.020,-41.504,-26.367,970.703,0.000
1737556270.285,-123.047,-38.086,-18.066,970.703,0.000
1737556270.289,-82.031,-26.855,-13.672,974.609,0.000
1737556270.293,-70.801,-13.672,-4.883,904.297,0.000
1737556270.297,0.000,-27.344,-12.695,0.000,0.000
1737556270.301,0.000,-43.457,-39.062,0.000,0.000
1737556270.305,0.000,-38.574,-42.969,0.000,0.000
1737556270.308,0.000,-17.578,-23.438,0.000,0.000
1737556270.312,0.000,-2.441,-11.230,0.000,0.000
1737556270.316,0.000,-7.324,-24.902,0.000,0.000
1737556270.320,0.000,-33.203,-45.410,0.000,0.000
1737556270.324,0.000,-46.875,-44.434,0.000,0.000
1737556270.328,0.000,-25.879,-24.902,0.000,0.000
1737556270.332,0.000,-9.277,-19.043,0.000,0.000
1737556270.336,0.000,-8.789,-26.367,0.000,0.000
1737556270.340,0.000,-26.855,-37.598,0.000,0.000
1737556270.344,-160.156,-39.551,-41.992,-1000.000,0.000
1737556270.347,-91.797,-24.902,-30.273,-856.445,0.000
1737556270.351,-15.137,5.859,-16.113,416.016,0.000
1737556270.355,-25.879,11.230,-18.066,999.512,0.000
1737556270.359,-125.488,-22.949,-41.992,207.520,0.000
1737556270.363,-175.781,-40.039,-49.316,-1000.000,0.000
1737556270.367,-114.258,-24.414,-32.715,-770.508,0.000
1737556270.371,-30.273,-1.465,-11.719,572.266,0.000
1737556270.375,-39.062,0.000,-7.324,999.512,0.000
1737556270.379,-117.188,-19.531,-20.996,448.730,0.000
1737556270.383,-173.828,-36.621,-32.715,-869.629,0.000
1737556270.386,-134.277,-27.832,-26.855,-1000.000,0.000
1737556270.390,0.000,-0.977,0.000,62.988,0.000
1737556270.394,0.000,6.836,0.000,999.512,0.000
1737556270.398,0.000,-6.348,0.000,264.648,0.000
1737556270.402,0.000,-25.391,0.000,-954.590,0.000
1737556270.406,0.000,-32.227,0.000,-1000.000,0.000
1737556270.410,0.000,-14.160,0.000,-438.477,0.000
1737556270.414,0.000,4.395,0.000,999.512,0.000
1737556270.418,0.000,-19.043,0.000,192.383,0.000
1737556270.422,0.000,-45.410,0.000,-1000.000,0.000
1737556270.426,0.000,-36.133,0.000,-969.727,0.000
1737556270.429,0.000,-21.484,0.000,-974.121,0.000
1737556270.433,0.000,-17.578,0.000,-1000.000,0.000
1737556270.437,-92.285,-14.160,-32.715,-1000.000,0.000
1737556270.441,-96.191,-15.137,-35.645,-949.707,0.000
1737556270.445,-86.426,-18.066,-29.785,-1000.000,0.000
1737556270.449,-49.805,-4.395,-18.555,-900.391,0.000
1737556270.453,2.441,6.836,-18.066,566.406,0.000
1737556270.457,-53.711,7.812,-26.367,913.086,0.000
1737556270.461,-148.926,-11.719,-33.203,-547.363,0.000
1737556270.465,-155.273,-25.879,-37.109,-1000.000,0.000
1737556270.469,-110.352,-9.277,-38.574,-456.055,0.000
1737556270.472,-78.125,5.371,-36.621,924.316,0.000
1737556270.476,-254.395,10.254,-95.215,962.402,0.000
1737556270.480,-356.445,-4.395,-109.863,-439.941,0.000
1737556270.484,-277.832,-30.762,-84.473,-1000.000,0.000
1737556270.488,-380.371,-43.457,-175.293,-1000.000,0.000
1737556270.492,-362.793,-50.293,-137.695,-236.328,0.000
1737556270.496,-241.211,-29.785,-5.371,560.059,0.000
1737556270.500,-326.660,-32.227,-6.836,-875.000,0.000
1737556270.504,-396.973,-48.828,-72.754,-1000.000,0.000
1737556270.508,-427.734,-20.996,-125.000,-935.547,0.000
1737556270.511,-356.934,-17.578,-87.891,-1000.000,0.000
1737556270.515,-297.852,-42.480,-78.613,-1000.000,0.000
1737556270.519,-300.293,-39.062,-127.930,-975.098,0.000
1737556270.523,-196.289,-51.758,-109.375,-983.398,0.000
1737556270.527,-74.219,-36.621,-50.293,-1000.000,0.000
1737556270.531,0.000,-2.930,-38.086,161.133,0.000
1737556270.535,0.000,-10.742,-74.219,999.512,0.000
1737556270.539,0.000,-23.438,-132.324,915.039,0.000
1737556270.543,0.000,-36.621,-158.691,967.773,0.000
1737556270.547,0.000,-56.152,-128.418,975.098,0.000
1737556270.551,0.000,-54.199,-80.566,956.055,0.000
1737556270.554,0.000,-60.547,-93.750,935.059,0.000
1737556270.558,0.000,-140.137,-132.324,999.512,0.000
1737556270.562,0.000,-153.809,-116.699,-39.551,0.000
1737556270.566,0.000,-103.516,-85.449,-1000.000,0.000
1737556270.570,0.000,-95.215,-66.406,-959.961,0.000
1737556270.574,0.000,-95.215,-23.438,-987.793,0.000
1737556270.578,202.637,-53.223,8.301,0.000,0.000
1737556270.582,177.246,-20.996,29.785,0.000,0.000
1737556270.586,189.453,-15.625,95.703,0.000,0.000
1737556270.590,161.133,-2.930,125.488,0.000,0.000
1737556270.594,63.965,-10.742,169.922,0.000,0.000
1737556270.597,-67.871,20.020,212.402,0.000,0.000
1737556270.601,-120.117,41.992,222.656,0.000,0.000
1737556270.605,-137.207,17.578,214.355,0.000,0.000
1737556270.609,-125.000,47.852,241.211,0.000,0.000
1737556270.613,-125.488,104.004,257.812,0.000,0.000
1737556270.617,-147.461,103.516,236.816,0.000,0.000
1737556270.621,-114.258,110.352,216.797,0.000,0.000
1737556270.625,-20.996,129.395,202.148,-1000.000,0.000
1737556270.629,106.934,142.578,221.680,-1000.000,0.000
1737556270.633,185.059,125.000,224.121,-1000.000,0.000
1737556270.637,174.316,94.727,193.848,-1000.000,0.000
1737556270.640,159.668,73.242,166.992,-1000.000,0.000
1737556270.644,180.176,49.805,152.832,-1000.000,0.000
1737556270.648,213.379,30.273,148.438,-1000.000,0.000
1737556270.652,231.934,18.066,132.324,-1000.000,0.000
1737556270.656,191.895,2.930,104.492,-1000.000,0.000
1737556270.660,131.836,-20.508,71.777,-1000.000,0.000
1737556270.664,117.676,-29.297,54.199,-1000.000,0.000
1737556270.668,140.625,-22.461,50.293,-1000.000,0.000
1737556270.672,155.273,-17.578,0.000,-1000.000,0.000
1737556270.676,115.234,-27.832,0.000,-1000.000,0.000
1737556270.679,21.484,-54.199,0.000,-964.355,0.000
1737556270.683,-42.969,-72.266,0.000,-1000.000,0.000
1737556270.687,-15.625,-60.059,0.000,-996.094,0.000
1737556270.691,57.617,-27.832,0.000,301.758,0.000
1737556270.695,27.832,-26.367,0.000,999.512,0.000
1737556270.699,-62.500,-57.617,0.000,908.203,0.000
1737556270.703,-74.219,-66.895,0.000,974.121,0.000
1737556270.707,-34.668,-59.570,0.000,971.191,0.000
1737556270.711,-29.785,-54.199,0.000,970.703,0.000
1737556270.715,-28.809,-55.664,0.000,970.703,0.000
1737556270.719,-23.438,-61.523,2.441,970.703,0.000
1737556270.722,-71.777,-67.383,-21.484,970.703,0.000
1737556270.726,-92.773,-72.266,-36.621,970.703,0.000
1737556270.730,-48.828,-51.270,-1.465,970.703,0.000
1737556270.734,-205.566,-48.828,-84.961,970.703,0.000
1737556270.738,-364.258,-50.781,-175.781,970.703,0.000
1737556270.742,-117.188,-30.273,-34.668,970.703,0.000
1737556270.746,82.031,-43.457,94.238,970.703,0.000
1737556270.750,73.730,-46.875,131.348,970.703,0.000
1737556270.754,-73.730,-38.086,88.867,970.703,0.000
1737556270.758,-305.176,-60.547,-26.855,970.703,0.000
1737556270.761,-279.785,-58.105,-49.316,970.703,0.000
1737556270.765,-389.648,-62.500,-86.426,970.703,0.000
1737556270.769,-454.102,-23.926,-112.305,970.703,0.000
1737556270.773,-119.629,29.785,29.785,970.703,0.000
1737556270.777,-55.664,-57.617,71.289,970.703,0.000
1737556270.781,-185.547,-109.863,9.766,970.703,0.000
1737556270.785,-214.844,-58.594,-52.734,970.703,0.000
1737556270.789,-166.992,-52.246,-79.102,970.703,0.000
1737556270.793,-107.910,-63.477,-86.426,970.703,0.000
1737556270.797,-115.723,-83.984,-155.273,970.703,0.000
1737556270.800,-118.164,-141.113,-202.637,970.703,0.000
1737556270.804,3.418,-150.391,-203.125,970.703,0.000
1737556270.808,151.855,-228.027,-216.797,970.703,0.000
1737556270.812,283.203,-253.418,-185.547,970.703,0.000
1737556270.816,290.527,-116.211,-220.703,970.703,0.000
1737556270.820,291.016,-68.848,-300.293,970.703,0.000
1737556270.824,310.547,-186.035,-282.227,970.703,0.000
1737556270.828,314.941,-230.957,-177.246,982.422,0.000
1737556270.832,373.535,-119.629,-124.023,920.410,0.000
1737556270.836,331.055,-283.691,-181.152,999.512,0.000
1737556270.840,200.684,-301.270,-185.547,839.355,0.000
1737556270.843,81.055,-89.355,-166.504,-531.738,0.000
1737556270.847,164.062,-23.926,-170.898,-1000.000,0.000
1737556270.851,232.422,-153.809,-54.199,-936.523,0.000
1737556270.855,-53.223,-198.242,47.852,-1000.000,0.000
1737556270.859,-199.219,-114.258,1.465,0.000,0.000
1737556270.863,-165.039,11.719,6.348,0.000,0.000
1737556270.867,-235.352,116.699,32.227,0.000,0.000
1737556270.871,-208.984,109.863,69.824,0.000,0.000
1737556270.875,-204.590,143.066,98.145,0.000,0.000
1737556270.879,-329.590,137.695,127.930,0.000,0.000
1737556270.883,-378.418,118.652,147.949,0.000,0.000
1737556270.886,-320.801,118.164,187.988,0.000,0.000
1737556270.890,-234.375,119.141,234.375,0.000,0.000
1737556270.894,-188.965,117.676,242.676,0.000,0.000
1737556270.898,-194.336,125.000,225.098,0.000,0.000
1737556270.902,-172.852,132.324,207.031,0.000,0.000
1737556270.906,-108.398,138.184,197.266,970.703,0.000
1737556270.910,-53.223,133.301,183.594,970.703,0.000
1737556270.914,-49.805,124.512,150.879,970.703,0.000
1737556270.918,-76.660,109.863,105.957,970.703,0.000
1737556270.922,-79.102,93.750,72.754,970.703,0.000
1737556270.926,-57.617,82.031,46.387,970.703,0.000
1737556270.929,-20.020,74.219,30.273,970.703,0.000
1737556270.933,-0.488,63.965,13.184,970.703,0.000
1737556270.937,-30.762,46.875,-25.879,970.703,0.000
1737556270.941,-58.594,20.508,-54.688,970.703,0.000
1737556270.945,-50.781,9.766,-57.129,970.703,0.000
1737556270.949,-24.902,18.066,-51.758,970.703,0.000
1737556270.953,-30.273,14.648,-51.758,970.703,0.000
1737556270.957,-76.172,-0.977,-58.594,970.703,0.000
1737556270.961,-113.281,-11.719,-74.219,970.703,0.000
1737556270.965,-108.887,-19.043,-75.195,970.703,0.000
1737556270.969,-72.754,-21.973,-46.387,970.703,0.000
1737556270.972,-64.941,-10.254,-26.367,970.703,0.000
1737556270.976,-93.262,-17.090,-29.785,970.703,0.000
1737556270.980,-123.047,-45.410,-40.039,970.703,0.000
1737556270.984,-124.512,-42.969,-42.969,970.703,0.000
1737556270.988,-88.379,-22.949,-26.855,970.703,0.000
1737556270.992,-83.496,-11.719,-22.949,970.703,0.000
1737556270.996,-93.262,-26.367,-20.508,970.703,0.000
1737556271.000,0.000,-51.270,0.000,970.703,0.000
1737556271.004,0.000,-60.547,0.000,972.656,0.000
1737556271.008,0.000,-62.500,0.000,962.402,0.000
1737556271.011,0.000,-46.875,0.000,921.387,0.000
1737556271.015,0.000,-42.480,0.000,999.512,0.000
1737556271.019,0.000,-55.664,0.000,53.223,0.000
1737556271.023,0.000,-62.012,0.000,-1000.000,0.000
1737556271.027,0.000,-65.430,0.000,-966.309,0.000
1737556271.031,0.000,-38.574,0.000,-982.910,0.000
1737556271.035,0.000,-26.855,0.000,-1000.000,0.000
1737556271.039,0.000,-45.898,0.000,-1000.000,0.000
1737556271.043,0.000,-59.570,0.000,-1000.000,0.000
1737556271.047,-150.879,-39.551,-44.922,-1000.000,0.000
1737556271.050,-148.438,-8.789,-25.879,-1000.000,0.000
1737556271.054,-58.105,-5.371,-38.086,-1000.000,0.000
1737556271.058,-40.039,-0.977,-55.176,-1000.000,0.000
1737556271.062,-113.281,-29.297,-59.570,-1000.000,0.000
1737556271.066,-246.094,-23.438,-45.898,-1000.000,0.000
1737556271.070,-263.184,5.859,-20.508,-1000.000,0.000
1737556271.074,-242.188,-1.953,-10.254,-1000.000,0.000
1737556271.078,-138.184,-8.301,-9.766,-1000.000,0.000
1737556271.082,-18.066,-18.066,-19.531,-1000.000,0.000
1737556271.086,-80.566,-16.113,-21.484,-1000.000,0.000
1737556271.089,-125.000,-3.906,1.953,-1000.000,0.000
1737556271.093,22.461,5.371,17.578,-1000.000,0.000
1737556271.097,-10.742,-2.441,9.766,-1000.000,0.000
1737556271.101,-32.715,-25.391,-6.836,-998.535,0.000
1737556271.105,0.977,-26.855,-21.484,-940.918,0.000
1737556271.109,61.035,-10.742,-17.578,-1000.000,0.000
1737556271.113,144.043,9.277,-4.395,-185.547,0.000
1737556271.117,166.992,9.766,-11.230,999.512,0.000
1737556271.121,129.395,-8.301,-30.273,885.254,0.000
1737556271.125,142.578,-21.973,-43.945,886.719,0.000
1737556271.129,190.430,-34.668,-40.039,989.258,0.000
1737556271.132,223.633,-30.762,-25.391,967.285,0.000
1737556271.136,190.430,-18.555,-29.297,970.215,0.000
1737556271.140,141.602,-27.832,-41.992,970.703,0.000
1737556271.144,120.605,-32.715,-51.270,970.703,0.000
1737556271.148,108.887,-22.949,-42.480,970.703,0.000
1737556271.152,78.125,-18.555,-34.180,970.703,0.000
1737556271.156,16.113,-19.043,-39.062,970.703,0.000
1737556271.160,-61.523,-24.414,-46.387,970.703,0.000
1737556271.164,-114.746,-35.645,-54.199,970.703,0.000
1737556271.168,-92.773,-31.738,-45.410,970.703,0.000
1737556271.171,-58.594,-19.043,-27.832,970.703,0.000
1737556271.175,-77.148,-14.160,-25.879,970.703,0.000
1737556271.179,-106.934,-14.160,-34.668,970.703,0.000
1737556271.183,-115.723,-22.461,-32.715,970.703,0.000
1737556271.187,-70.801,-17.578,-21.484,984.863,0.000
1737556271.191,-23.438,-7.324,-15.137,903.809,0.000
1737556271.195,-25.391,-8.301,-6.836,999.512,0.000
1737556271.199,-71.289,-14.648,-18.555,644.531,0.000
1737556271.203,-120.117,-20.508,-36.621,-786.133,0.000
1737556271.207,-72.266,-2.441,-30.762,-1000.000,0.000
1737556271.211,-7.324,12.695,-18.555,-940.430,0.000
1737556271.214,-2.930,1.465,-16.113,-1000.000,0.000
1737556271.218,-28.320,-14.160,-35.645,-1000.000,0.000
1737556271.222,-40.039,-20.020,-48.828,-1000.000,0.000
1737556271.226,-15.137,-11.719,-38.086,-1000.000,0.000
1737556271.230,37.598,7.324,-25.879,-1000.000,0.000
1737556271.234,50.293,6.348,-23.926,-1000.000,0.000
1737556271.238,2.441,-10.254,-40.039,-1000.000,0.000
1737556271.242,-22.461,-17.090,-53.711,-1000.000,0.000
1737556271.246,0.488,-5.859,-51.270,-1000.000,0.000
1737556271.250,36.621,14.648,-44.434,-1000.000,0.000
1737556271.254,51.758,27.832,-35.156,-1000.000,0.000
1737556271.257,21.484,18.066,-43.457,-1000.000,0.000
1737556271.261,-17.090,-2.441,-67.383,-1000.000,0.000
1737556271.265,-14.160,-10.254,-69.336,-1000.000,0.000
1737556271.269,9.277,3.418,-60.547,-1000.000,0.000
1737556271.273,9.766,4.883,-62.012,-1000.000,0.000
1737556271.277,-23.926,-1.465,-70.312,-1000.000,0.000
1737556271.281,-66.406,-9.277,-80.078,-1000.000,0.000
1737556271.285,-63.477,-12.695,-79.590,-1000.000,0.000
1737556271.289,-29.785,-8.301,-66.406,-1000.000,0.000
1737556271.293,-15.137,3.906,-63.965,-1000.000,0.000
1737556271.297,-45.898,7.812,-76.660,-1000.000,0.000
1737556271.300,-88.867,0.488,-91.309,-1000.000,0.000
1737556271.304,-107.422,-10.254,-87.891,-1000.000,0.000
1737556271.308,-96.191,-17.090,-78.613,-1000.000,0.000
1737556271.312,-89.844,-7.812,-78.125,-1000.000,0.000
1737556271.316,-128.418,-13.184,-90.820,-1000.000,0.000
1737556271.320,-180.176,-32.227,-113.770,-1000.000,0.000
1737556271.324,-195.801,-38.574,-110.352,-1000.000,0.000
1737556271.328,-162.109,-33.203,-95.703,-1000.000,0.000
1737556271.332,-117.676,-30.273,-83.008,-1000.000,0.000
1737556271.336,-108.398,-25.391,-70.312,-1000.000,0.000
1737556271.339,-122.559,-29.785,-76.660,-1000.000,0.000
1737556271.343,-111.816,-36.621,-77.637,-1000.000,0.000
1737556271.347,-62.500,-18.555,-56.152,-1000.000,0.000
1737556271.351,-14.160,3.906,-27.344,-1000.000,0.000
1737556271.355,-15.625,-3.906,-16.113,-1000.000,0.000
1737556271.359,-49.805,-24.902,-20.020,-1000.000,0.000
1737556271.363,-48.340,-25.391,-22.461,-1000.000,0.000
1737556271.367,-12.207,-11.230,-7.324,-1000.000,0.000
1737556271.371,29.785,1.953,10.254,-1000.000,0.000
1737556271.375,40.039,2.930,11.230,-1000.000,0.000
1737556271.379,7.812,-7.812,-1.465,-1000.000,0.000
1737556271.382,-3.906,-7.324,-7.324,-1000.000,0.000
1737556271.386,22.949,-5.371,3.906,-1000.000,0.000
1737556271.390,60.059,-4.395,17.090,-1000.000,0.000
1737556271.394,74.219,11.719,22.949,-1000.000,0.000
1737556271.398,41.992,7.324,13.184,-1000.000,0.000
1737556271.402,14.160,-13.184,1.465,-930.176,0.000
1737556271.406,25.391,-17.090,2.930,-1000.000,0.000
1737556271.410,81.543,-5.371,14.160,-580.566,0.000
1737556271.414,138.184,9.766,17.578,781.250,0.000
1737556271.418,106.934,8.789,6.348,999.512,0.000
1737556271.422,0.000,-6.348,-4.395,144.531,0.000
1737556271.425,0.000,-16.113,-0.488,-1000.000,0.000
1737556271.429,0.000,6.348,18.555,-98.633,0.000
1737556271.433,0.000,23.926,29.297,999.512,0.000
1737556271.437,0.000,12.207,18.555,935.547,0.000
1737556271.441,0.000,6.836,1.953,950.684,0.000
1737556271.445,0.000,14.160,0.488,975.586,0.000
1737556271.449,0.000,10.254,10.254,970.703,0.000
1737556271.453,0.000,12.207,20.508,970.703,0.000
1737556271.457,0.000,7.812,14.648,970.703,0.000
1737556271.461,0.000,-10.254,-6.348,970.703,0.000
1737556271.464,0.000,-10.254,-15.137,970.703,0.000
1737556271.468,41.992,0.488,-0.488,970.703,0.000
1737556271.472,66.406,8.301,6.348,970.703,0.000
1737556271.476,50.781,8.789,-3.906,970.703,0.000
1737556271.480,11.719,-1.465,-15.625,970.703,0.000
1737556271.484,1.953,-6.348,-20.020,970.703,0.000
1737556271.488,32.227,8.789,-9.766,970.703,0.000
1737556271.492,59.570,20.996,-2.930,974.121,0.000
1737556271.496,45.898,11.719,-4.883,955.078,0.000
1737556271.500,-0.488,-0.977,-11.719,999.512,0.000
1737556271.503,-16.113,-9.766,-17.578,893.555,0.000
1737556271.507,11.230,-7.812,-5.859,744.629,0.000
1737556271.511,43.457,4.395,2.930,875.000,0.000
1737556271.515,44.922,3.418,-0.488,999.512,0.000
1737556271.519,-14.160,-13.184,-9.766,428.223,0.000
1737556271.523,-78.613,-34.180,-17.578,-884.766,0.000
1737556271.527,-41.016,-27.832,-12.695,-1000.000,0.000
1737556271.531,37.109,-2.930,-3.906,-328.125,0.000
1737556271.535,86.426,12.695,4.395,999.512,0.000
1737556271.539,13.184,1.465,-10.254,333.008,0.000
1737556271.543,-64.453,-21.484,-26.367,-982.422,0.000
1737556271.546,-28.809,-16.602,-21.973,-1000.000,0.000
1737556271.550,25.391,-2.441,-11.230,-775.879,0.000
1737556271.554,84.473,15.137,-2.930,776.855,0.000
1737556271.558,28.320,5.859,-13.184,487.305,0.000
1737556271.562,-74.707,-23.438,-25.391,-976.562,0.000
1737556271.566,-56.641,-22.949,-21.973,-1000.000,0.000
1737556271.570,-4.883,-13.672,-6.836,-773.438,0.000
1737556271.574,49.805,3.906,-2.441,548.340,0.000
1737556271.578,30.273,3.418,-15.625,999.512,0.000
1737556271.582,-61.523,-11.719,-27.344,-89.844,0.000
1737556271.586,-76.660,-21.973,-28.809,-1000.000,0.000
1737556271.589,8.789,-16.602,-15.625,-507.324,0.000
1737556271.593,78.125,3.906,-1.465,817.383,0.000
1737556271.597,46.387,-1.953,-7.812,999.512,0.000
1737556271.601,-44.434,-28.809,-23.926,144.531,0.000
1737556271.605,-82.520,-40.527,-28.320,-1000.000,0.000
1737556271.609,0.000,-24.414,-12.207,-756.348,0.000
1737556271.613,0.000,-1.465,1.953,593.262,0.000
1737556271.617,0.000,1.465,-8.789,999.512,0.000
1737556271.621,0.000,-22.949,-26.855,120.117,0.000
1737556271.625,0.000,-41.504,-32.715,-1000.000,0.000
1737556271.629,0.000,-23.438,-20.996,-1000.000,0.000
1737556271.632,0.000,0.000,-8.789,111.816,0.000
1737556271.636,0.000,0.977,-14.160,999.512,0.000
1737556271.640,0.000,-24.414,-29.785,112.793,0.000
1737556271.644,0.000,-34.668,-36.621,-1000.000,0.000
1737556271.648,0.000,-19.043,-25.391,-1000.000,0.000
1737556271.652,0.000,-3.906,-8.301,-246.582,0.000
1737556271.656,54.688,9.766,-6.836,999.512,0.000
1737556271.660,-43.457,-9.766,-20.996,195.801,0.000
1737556271.664,-101.562,-27.832,-24.414,-1000.000,0.000
1737556271.668,-52.734,-11.230,-17.090,-1000.000,0.000
1737556271.672,28.320,10.742,-7.812,-238.770,0.000
1737556271.675,66.895,18.555,-7.812,999.512,0.000
1737556271.679,-12.207,1.953,-17.578,392.090,0.000
1737556271.683,-80.078,-23.438,-29.785,-926.270,0.000
1737556271.687,-57.617,-25.879,-28.320,-1000.000,0.000
1737556271.691,13.184,-11.230,-17.578,-406.738,0.000
1737556271.695,57.617,5.859,-18.066,999.512,0.000
1737556271.699,-16.602,-4.395,-30.273,434.570,0.000
1737556271.703,-103.516,-31.250,-38.086,-975.098,0.000
1737556271.707,-75.684,-30.273,-35.156,-1000.000,0.000
1737556271.711,-12.695,-12.695,-19.531,-1000.000,0.000
1737556271.714,48.828,6.348,-7.324,363.281,0.000
1737556271.718,3.418,-4.395,-18.555,443.848,0.000
1737556271.722,-97.656,-26.367,-28.320,-1000.000,0.000
1737556271.726,-79.590,-21.973,-26.855,-1000.000,0.000
1737556271.730,-29.785,-20.020,-19.531,-960.938,0.000
1737556271.734,-12.695,-23.926,-16.602,-1000.000,0.000
1737556271.738,-44.434,-25.391,-26.367,-1000.000,0.000
1737556271.742,-66.406,-23.926,-32.715,-1000.000,0.000
1737556271.746,-47.852,-20.996,-33.691,-1000.000,0.000
1737556271.750,0.000,-14.160,0.000,-1000.000,0.000
1737556271.754,0.000,-3.906,0.000,-1000.000,0.000
1737556271.757,0.000,-9.277,0.000,-1000.000,0.000
1737556271.761,0.000,-26.367,0.000,-1000.000,0.000
1737556271.765,0.000,-33.691,0.000,-1000.000,0.000
1737556271.769,0.000,-15.137,0.000,-1000.000,0.000
1737556271.773,0.000,-0.977,0.000,-1000.000,0.000
1737556271.777,0.000,-15.625,0.000,-1000.000,0.000
1737556271.781,0.000,-26.855,0.000,-1000.000,0.000
1737556271.785,0.000,-26.367,0.000,-938.965,0.000
1737556271.789,0.000,-24.902,0.000,-1000.000,0.000
1737556271.793,0.000,-9.277,0.000,-260.742,0.000
1737556271.797,66.406,-2.930,-9.766,999.512,0.000
1737556271.800,-34.180,-27.832,-22.461,149.414,0.000
1737556271.804,-87.402,-37.109,-29.297,-1000.000,0.000
1737556271.808,-37.598,-25.879,-23.926,-1000.000,0.000
1737556271.812,30.762,-6.348,-11.230,-244.141,0.000
1737556271.816,62.500,11.719,-6.836,999.512,0.000
1737556271.820,-17.578,-4.883,-20.508,307.617,0.000
1737556271.824,-85.449,-32.715,-29.785,-1000.000,0.000
1737556271.828,-43.457,-29.785,-20.020,-1000.000,0.000
1737556271.832,2.441,-17.578,-6.348,-1000.000,0.000
1737556271.836,52.246,0.488,-6.836,331.543,0.000
1737556271.839,4.883,-5.859,-22.461,262.207,0.000
1737556271.843,-71.289,-26.367,-27.832,-1000.000,0.000
1737556271.847,-27.344,-14.160,-21.484,-983.398,0.000
1737556271.851,19.531,-1.953,-12.695,-973.633,0.000
1737556271.855,25.879,2.441,-9.766,-1000.000,0.000
1737556271.859,-10.742,-8.789,-24.902,-1000.000,0.000
1737556271.863,-27.344,-17.090,-28.320,-1000.000,0.000
1737556271.867,-14.648,-17.578,-19.043,-1000.000,0.000
1737556271.871,15.137,-14.648,-13.672,-1000.000,0.000
1737556271.875,30.762,-9.277,-10.742,-1000.000,0.000
1737556271.878,-17.090,-14.648,-18.555,-1000.000,0.000
1737556271.882,-52.246,-23.438,-28.809,-1000.000,0.000
1737556271.886,-32.715,-20.020,-28.320,-1000.000,0.000
1737556271.890,10.742,-13.672,-16.602,-1000.000,0.000
1737556271.894,23.926,-10.254,-10.742,-1000.000,0.000
1737556271.898,-15.625,-14.648,-19.531,-1000.000,0.000
1737556271.902,-45.410,-21.973,-28.320,-1000.000,0.000
1737556271.906,-38.574,-23.926,-30.762,-1000.000,0.000
1737556271.910,2.930,-10.254,-18.066,-1000.000,0.000
1737556271.914,30.762,-0.977,-9.766,-1000.000,0.000
1737556271.918,-1.465,-10.254,-15.137,-1000.000,0.000
1737556271.921,-35.645,-18.066,-26.855,-1000.000,0.000
1737556271.925,-37.109,-18.066,-34.180,-1000.000,0.000
1737556271.929,-2.441,-5.371,-22.461,-1000.000,0.000
1737556271.933,27.344,8.301,-13.672,-1000.000,0.000
1737556271.937,0.488,2.930,-19.043,-1000.000,0.000
1737556271.941,-47.852,-15.137,-30.273,-1000.000,0.000
1737556271.945,-52.246,-23.926,-41.504,-937.988,0.000
1737556271.949,-18.555,-17.578,-35.156,-1000.000,0.000
1737556271.953,21.484,-5.371,-24.414,-729.492,0.000
1737556271.957,53.711,9.766,-20.020,863.281,0.000
1737556271.961,-21.484,0.977,-26.367,265.625,0.000
1737556271.964,-91.309,-16.602,-33.691,-1000.000,0.000
1737556271.968,-40.527,-18.555,-27.344,-1000.000,0.000
1737556271.972,35.156,-4.883,-15.625,-44.922,0.000
1737556271.976,42.480,3.418,-19.531,999.512,0.000
1737556271.980,-17.090,-14.160,-34.180,935.547,0.000
1737556271.984,-40.527,-27.344,-37.598,953.613,0.000
1737556271.988,-27.832,-28.809,-32.715,974.121,0.000
1737556271.992,3.418,-15.625,-17.090,970.703,0.000
1737556271.996,6.348,-4.883,-10.742,970.703,0.000
1737556272.000,-30.273,-16.602,-22.949,970.703,0.000
1737556272.004,-58.105,-27.832,-29.785,970.703,0.000
1737556272.007,-38.574,-27.344,-25.879,970.703,0.000
1737556272.011,-0.977,-17.090,-13.672,970.703,0.000
1737556272.015,3.418,-6.836,-4.883,970.703,0.000
1737556272.019,-32.227,-15.137,-13.672,970.703,0.000
1737556272.023,-55.176,-23.438,-22.461,970.703,0.000
1737556272.027,-35.645,-22.949,-20.508,970.703,0.000
1737556272.031,0.000,-16.602,-11.230,970.703,0.000
1737556272.035,3.418,-16.113,-8.301,970.703,0.000
1737556272.039,-38.574,-25.391,-16.602,970.703,0.000
1737556272.043,-67.383,-35.156,-21.484,970.703,0.000
1737556272.047,-53.223,-34.180,-18.555,970.703,0.000
1737556272.050,-12.207,-17.090,-9.766,981.934,0.000
1737556272.054,6.348,-10.742,-2.930,912.109,0.000
1737556272.058,-26.367,-27.344,-11.230,999.512,0.000
1737556272.062,-60.059,-29.785,-18.066,735.352,0.000
1737556272.066,-90.820,-30.762,-20.508,-831.543,0.000
1737556272.070,-41.504,-22.461,-12.207,-622.070,0.000
1737556272.074,44.434,-7.324,0.000,861.328,0.000
1737556272.078,18.555,-15.625,-11.230,999.512,0.000
1737556272.082,-63.477,-29.785,-25.391,172.363,0.000
1737556272.086,-103.516,-35.156,-29.297,-1000.000,0.000
1737556272.089,-41.504,-23.438,-22.461,-931.152,0.000
1737556272.093,41.504,-5.859,-9.277,344.238,0.000
1737556272.097,38.574,0.488,-11.719,999.512,0.000
1737556272.101,-9.277,-5.859,-21.973,834.961,0.000
1737556272.105,-65.918,-24.414,-25.879,-536.133,0.000
1737556272.109,-47.852,-30.273,-27.832,-932.617,0.000
1737556272.113,42.969,-7.812,-11.230,621.094,0.000
1737556272.117,24.902,-5.371,-8.789,999.512,0.000
1737556272.121,-24.902,-17.578,-27.832,906.250,0.000
1737556272.125,-30.762,-19.531,-33.203,981.934,0.000
1737556272.129,1.465,-3.906,-23.926,970.703,0.000
1737556272.132,38.086,11.719,-16.602,970.703,0.000
1737556272.136,8.301,-0.488,-23.926,970.703,0.000
1737556272.140,-43.457,-16.113,-31.250,970.703,0.000
1737556272.144,-53.223,-20.508,-30.762,970.703,0.000
1737556272.148,-31.250,-23.438,-21.973,970.703,0.000
1737556272.152,-2.930,-18.066,-10.254,979.980,0.000
1737556272.156,-6.348,-17.090,-11.230,901.855,0.000
1737556272.160,-35.645,-24.902,-23.438,999.512,0.000
1737556272.164,-64.941,-30.762,-26.367,513.672,0.000
1737556272.168,-84.473,-25.879,-17.090,-1000.000,0.000
1737556272.172,-6.348,-5.859,-7.812,-66.406,0.000
1737556272.175,38.086,0.000,-3.418,999.512,0.000
1737556272.179,-21.484,-16.113,-14.648,919.434,0.000
1737556272.183,-49.805,-22.461,-21.973,956.543,0.000
1737556272.187,-38.574,-20.996,-18.555,973.633,0.000
1737556272.191,0.000,-9.277,-4.883,970.703,0.000
1737556272.195,9.766,-6.348,4.883,970.703,0.000
1737556272.199,-29.785,-21.484,-5.371,970.703,0.000
1737556272.203,-47.363,-21.973,-14.648,970.703,0.000
1737556272.207,-39.551,-21.484,-15.625,970.703,0.000
1737556272.210,-7.812,-16.602,-7.812,970.703,0.000
1737556272.214,8.789,-9.766,-1.953,970.703,0.000
1737556272.218,-29.297,-15.137,-9.766,970.703,0.000
1737556272.222,-59.570,-18.066,-21.484,970.703,0.000
1737556272.226,-53.711,-21.973,-24.414,970.703,0.000
1737556272.230,-17.090,-18.066,-12.207,970.703,0.000
1737556272.234,8.789,-4.395,1.465,970.703,0.000
1737556272.238,-11.719,-4.883,-2.930,970.703,0.000
1737556272.242,-33.203,-11.230,-15.137,970.703,0.000
1737556272.246,-34.668,-17.090,-13.184,970.703,0.000
1737556272.250,-15.137,-18.555,-4.395,970.703,0.000
1737556272.253,12.695,-12.695,0.488,970.703,0.000
1737556272.257,-6.348,-16.602,-2.441,970.703,0.000
1737556272.261,-50.781,-24.414,-14.648,970.703,0.000
1737556272.265,-58.105,-30.273,-20.020,970.703,0.000
1737556272.269,-25.879,-23.926,-12.695,970.703,0.000
1737556272.273,-6.348,-11.719,-4.883,970.703,0.000
1737556272.277,-23.438,-15.137,-7.324,970.703,0.000
1737556272.281,-55.176,-24.414,-19.043,970.703,0.000
1737556272.285,-64.941,-20.996,-23.438,970.703,0.000
1737556272.289,-41.992,-15.137,-17.090,970.703,0.000
1737556272.293,-14.648,-14.160,-7.812,970.703,0.000
1737556272.296,-14.160,-10.742,-10.254,970.703,0.000
1737556272.300,-53.711,-19.043,-23.438,970.703,0.000
1737556272.304,-73.242,-27.832,-25.391,970.703,0.000
1737556272.308,-45.898,-21.484,-18.555,970.703,0.000
1737556272.312,-11.719,-13.184,-7.812,970.703,0.000
1737556272.316,-10.254,-12.207,-3.418,970.703,0.000
1737556272.320,-55.176,-20.020,-17.090,970.703,0.000
1737556272.324,-75.684,-27.344,-26.855,970.703,0.000
1737556272.328,-47.363,-23.438,-20.508,970.703,0.000
1737556272.332,-12.207,-16.113,-7.324,970.703,0.000
1737556272.335,-11.719,-19.531,-7.812,970.703,0.000
1737556272.339,-52.246,-29.297,-20.508,970.703,0.000
1737556272.343,-76.172,-34.180,-26.855,970.703,0.000
1737556272.347,-61.035,-24.902,-21.973,970.703,0.000
1737556272.351,-21.484,-10.742,-12.207,970.703,0.000
1737556272.355,-5.859,-6.836,-10.254,970.703,0.000
1737556272.359,-34.180,-9.277,-15.625,970.703,0.000
1737556272.363,-60.547,-23.926,-24.902,970.703,0.000
1737556272.367,-55.664,-30.273,-27.832,970.703,0.000
1737556272.371,-14.648,-16.113,-11.719,970.703,0.000
1737556272.375,-1.953,-3.418,-2.930,970.703,0.000
1737556272.378,-35.645,-5.371,-7.812,970.703,0.000
1737556272.382,-65.918,-22.461,-19.531,970.703,0.000
1737556272.386,-64.453,-25.879,-19.043,970.703,0.000
1737556272.390,-35.645,-17.090,-14.160,970.703,0.000
1737556272.394,-17.578,-10.254,-12.695,970.703,0.000
1737556272.398,-39.551,-11.230,-19.531,970.703,0.000
1737556272.402,-69.336,-21.973,-32.715,970.703,0.000
1737556272.406,-67.383,-22.461,-31.738,970.703,0.000
1737556272.410,-30.762,-11.719,-22.949,970.703,0.000
1737556272.414,-4.395,-0.488,-15.137,970.703,0.000
1737556272.418,-20.508,-10.742,-23.438,970.703,0.000
1737556272.421,-53.711,-25.879,-37.598,970.703,0.000
1737556272.425,-49.316,-18.066,-29.297,970.703,0.000
1737556272.429,-13.672,-12.695,-19.531,970.703,0.000
1737556272.433,11.719,-17.090,-13.672,970.703,0.000
1737556272.437,0.488,-17.578,-14.160,970.703,0.000
1737556272.441,-42.480,-20.996,-20.020,970.703,0.000
1737556272.445,-47.852,-20.508,-20.020,970.703,0.000
1737556272.449,-13.184,-8.789,-11.230,970.703,0.000
1737556272.453,8.301,-3.906,0.000,970.703,0.000
1737556272.457,-8.789,-13.672,0.000,970.703,0.000
1737556272.461,-44.434,-24.902,0.000,970.703,0.000
1737556272.464,-59.082,-26.855,0.000,970.703,0.000
1737556272.468,-32.715,-21.973,0.000,983.398,0.000
1737556272.472,5.371,-6.836,0.000,916.504,0.000
1737556272.476,14.648,2.930,0.000,999.512,0.000
1737556272.480,-29.297,-13.184,0.000,786.133,0.000
1737556272.484,-97.168,-39.062,0.000,-522.949,0.000
1737556272.488,-94.238,-39.551,0.000,-1000.000,0.000
1737556272.492,-20.020,-23.438,0.000,-395.996,0.000
1737556272.496,35.645,-11.719,0.000,987.793,0.000
1737556272.500,0.000,-20.996,3.418,875.000,0.000
1737556272.503,0.000,-39.551,5.371,-480.957,0.000
1737556272.507,0.000,-36.133,-7.324,-1000.000,0.000
1737556272.511,0.000,-17.090,-10.254,-176.758,0.000
1737556272.515,0.000,-9.277,-1.953,999.512,0.000
1737556272.519,0.000,-8.301,4.883,958.008,0.000
1737556272.523,0.000,-15.625,6.348,941.895,0.000
1737556272.527,0.000,-32.715,-9.277,978.027,0.000
1737556272.531,0.000,-23.926,-25.391,970.703,0.000
1737556272.535,0.000,-10.742,-20.020,970.703,0.000
1737556272.539,0.000,-17.090,-4.395,970.703,0.000
1737556272.542,0.000,-25.879,-7.812,970.703,0.000
1737556272.546,-157.227,-25.879,-68.359,970.703,0.000
1737556272.550,-145.020,-29.785,-68.848,974.121,0.000
1737556272.554,-161.621,-40.527,-71.289,904.785,0.000
1737556272.558,-212.402,-40.039,-109.375,999.512,0.000
1737556272.562,-290.527,-62.500,-137.695,287.109,0.000
1737556272.566,-328.613,-73.242,-143.066,-1000.000,0.000
1737556272.570,-275.879,-58.594,-141.113,-906.738,0.000
1737556272.574,-205.078,-50.293,-127.930,382.812,0.000
1737556272.578,-193.359,-44.922,-122.559,999.512,0.000
1737556272.581,-270.508,-60.059,-127.441,386.719,0.000
1737556272.585,-325.684,-73.730,-119.629,-949.707,0.000
1737556272.589,-277.832,-70.801,-112.793,-1000.000,0.000
1737556272.593,-167.480,-44.922,-106.934,219.727,0.000
1737556272.597,-140.625,-29.297,-93.262,999.512,0.000
1737556272.601,-219.238,-43.945,-87.891,83.008,0.000
1737556272.605,-239.746,-42.969,-79.590,-1000.000,0.000
1737556272.609,-189.941,-33.691,-64.453,-977.051,0.000
1737556272.613,-134.766,-16.602,-47.852,-976.562,0.000
1737556272.617,-121.582,-9.277,-46.875,-1000.000,0.000
1737556272.621,-161.621,-29.297,-54.688,-1000.000,0.000
1737556272.624,-168.457,-28.809,-46.875,-1000.000,0.000
1737556272.628,-134.277,-36.133,-42.480,-1000.000,0.000
1737556272.632,-82.031,-37.598,-32.715,-1000.000,0.000
1737556272.636,-61.035,-16.113,-19.531,-1000.000,0.000
1737556272.640,-73.730,-4.395,-14.160,-1000.000,0.000
1737556272.644,-70.312,-14.648,-12.695,-1000.000,0.000
1737556272.648,-46.387,-24.902,-5.859,-1000.000,0.000
1737556272.652,5.859,-4.883,15.137,-1000.000,0.000
1737556272.656,27.832,-3.906,22.461,-1000.000,0.000
1737556272.660,-2.441,-12.695,20.996,-1000.000,0.000
1737556272.664,-16.113,-12.695,17.090,-1000.000,0.000
1737556272.667,10.742,-13.672,17.578,-1000.000,0.000
1737556272.671,69.336,6.348,38.574,-1000.000,0.000
1737556272.675,91.309,16.602,45.898,-1000.000,0.000
1737556272.679,60.547,-0.488,28.320,-1000.000,0.000
1737556272.683,39.551,-15.137,14.648,-927.734,0.000
1737556272.687,41.992,-16.113,17.578,-1000.000,0.000
1737556272.691,99.121,-0.488,36.621,-463.379,0.000
1737556272.695,160.156,6.836,43.945,934.570,0.000
1737556272.699,121.582,-1.465,36.621,998.535,0.000
1737556272.703,69.336,-11.230,27.344,923.828,0.000
1737556272.706,65.430,-13.672,26.855,983.887,0.000
1737556272.710,92.285,-14.160,37.109,970.703,0.000
1737556272.714,111.328,-18.066,49.316,970.703,0.000
1737556272.718,84.961,-20.020,47.363,970.703,0.000
1737556272.722,48.828,-25.879,31.738,970.703,0.000
1737556272.726,46.875,-28.809,27.344,970.703,0.000
1737556272.730,70.312,-22.949,34.668,970.703,0.000
1737556272.734,93.750,-13.672,0.000,970.703,0.000
1737556272.738,72.266,-12.695,0.000,970.703,0.000
1737556272.742,23.438,-21.484,0.000,970.703,0.000
1737556272.746,15.137,-20.996,0.000,970.703,0.000
1737556272.749,46.387,-8.789,0.000,970.703,0.000
1737556272.753,73.730,3.418,0.000,970.703,0.000
1737556272.757,59.570,6.348,0.000,970.703,0.000
1737556272.761,1.465,-15.137,0.000,970.703,0.000
1737556272.765,-20.508,-28.320,0.000,970.703,0.000
1737556272.769,9.766,-15.625,0.000,970.703,0.000
1737556272.773,30.273,-6.836,0.000,970.215,0.000
1737556272.777,15.625,-9.766,0.000,970.703,0.000
1737556272.781,-18.555,-15.137,6.348,970.703,0.000
1737556272.785,-35.645,-14.648,1.953,970.703,0.000
1737556272.789,-11.230,-10.742,7.812,971.680,0.000
1737556272.792,33.203,1.465,13.184,966.797,0.000
1737556272.796,36.621,10.742,13.672,914.551,0.000
1737556272.800,7.324,8.301,0.977,999.512,0.000
1737556272.804,-42.969,-10.742,-15.137,183.594,0.000
1737556272.808,-65.430,-25.879,-16.602,-1000.000,0.000
1737556272.812,16.113,-7.812,-6.836,-229.004,0.000
1737556272.816,75.684,12.695,0.000,999.512,0.000
1737556272.820,31.250,2.441,-10.742,999.512,0.000
1737556272.824,-38.574,-14.648,-19.531,-129.883,0.000
1737556272.828,-55.176,-19.531,-20.508,-1000.000,0.000
1737556272.832,41.016,2.441,-13.672,-152.832,0.000
1737556272.835,103.027,23.926,-3.418,999.512,0.000
1737556272.839,47.363,12.207,-9.766,950.684,0.000
1737556272.843,2.930,-2.930,-20.996,944.336,0.000
1737556272.847,8.789,0.977,-17.090,977.051,0.000
1737556272.851,45.898,7.324,0.488,970.703,0.000
1737556272.855,61.035,4.395,1.953,970.703,0.000
1737556272.859,36.621,-3.418,-9.277,970.703,0.000
1737556272.863,11.230,-8.789,-14.648,970.703,0.000
1737556272.867,11.719,-6.836,-13.184,970.703,0.000
1737556272.870,49.316,4.395,-2.441,970.703,0.000
1737556272.874,72.754,11.230,1.465,970.703,0.000
1737556272.878,50.293,1.465,-6.836,970.703,0.000
1737556272.882,15.625,-12.207,-22.461,970.703,0.000
1737556272.886,10.742,-15.625,-27.344,970.703,0.000
1737556272.890,44.434,-5.859,-13.672,970.703,0.000
1737556272.894,65.430,6.836,0.977,970.703,0.000
1737556272.898,54.688,2.930,-0.977,970.703,0.000
1737556272.902,15.625,-15.625,-24.414,970.703,0.000
1737556272.906,7.812,-18.066,-31.250,970.703,0.000
1737556272.910,45.410,-7.812,-16.113,970.703,0.000
1737556272.913,62.988,-0.488,-3.418,970.703,0.000
1737556272.917,42.480,-6.836,-6.836,970.703,0.000
1737556272.921,0.000,-16.113,-19.531,970.703,0.000
1737556272.925,0.000,-18.066,-19.531,970.703,0.000
1737556272.929,0.000,-9.277,-10.254,970.703,0.000
1737556272.933,0.000,1.465,-2.441,970.703,0.000
1737556272.937,0.000,-4.883,-5.859,970.703,0.000
1737556272.941,0.000,-3.418,-11.719,970.703,0.000
1737556272.945,0.000,-8.789,-19.531,970.215,0.000
1737556272.949,0.000,-20.508,-19.531,970.703,0.000
1737556272.953,0.000,-11.230,-4.883,970.703,0.000
1737556272.956,0.000,-5.859,0.000,970.703,0.000
1737556272.960,0.000,-16.113,-10.254,970.703,0.000
1737556272.964,0.000,-17.578,-16.113,970.703,0.000
1737556272.968,-10.742,-16.113,-16.602,970.703,0.000
1737556272.972,22.949,-7.812,-8.301,970.703,0.000
1737556272.976,28.809,-3.906,-3.418,970.703,0.000
1737556272.980,-11.230,-21.484,-21.484,970.703,0.000
1737556272.984,-41.504,-31.250,-34.668,970.703,0.000
1737556272.988,-19.531,-16.113,-21.484,970.703,0.000
1737556272.992,29.297,0.977,-7.324,970.703,0.000
1737556272.995,46.387,-0.977,-3.418,970.703,0.000
1737556272.999,11.230,-18.066,-12.695,970.703,0.000
1737556273.003,-22.949,-27.832,-25.391,970.703,0.000
1737556273.007,-9.277,-23.438,-24.414,970.703,0.000
1737556273.011,23.926,-16.113,-12.207,970.703,0.000
1737556273.015,48.340,-2.930,-1.953,970.703,0.000
1737556273.019,36.133,4.883,-4.883,970.703,0.000
1737556273.023,-1.953,-5.859,-20.020,970.703,0.000
1737556273.027,-11.719,-15.625,-24.414,970.703,0.000
1737556273.031,23.438,-7.324,-8.301,970.703,0.000
1737556273.035,45.410,3.418,4.883,970.703,0.000
1737556273.038,16.113,-5.371,-7.812,970.703,0.000
1737556273.042,-25.391,-17.090,-20.020,970.703,0.000
1737556273.046,-26.855,-20.996,-16.113,970.703,0.000
1737556273.050,1.465,-15.625,-6.836,970.703,0.000
1737556273.054,21.973,-7.324,0.000,970.703,0.000
1737556273.058,18.555,-15.625,0.977,970.703,0.000
1737556273.062,0.000,-19.043,-11.719,0.000,0.000
1737556273.066,0.000,-22.949,-24.414,0.000,0.000
1737556273.070,0.000,-22.461,-9.766,0.000,0.000
1737556273.074,0.000,-13.672,-14.160,0.000,0.000
1737556273.078,0.000,-18.066,-20.020,0.000,0.000
1737556273.081,0.000,-19.531,-21.484,0.000,0.000
1737556273.085,0.000,-30.273,-41.992,0.000,0.000
1737556273.089,0.000,-43.945,-32.715,0.000,0.000
1737556273.093,0.000,-13.184,-33.691,0.000,0.000
1737556273.097,0.000,-14.160,-68.359,0.000,0.000
1737556273.101,0.000,-41.504,-95.703,0.000,0.000
1737556273.105,0.000,-56.152,-106.445,0.000,0.000
1737556273.109,-275.879,-52.246,-109.375,970.703,0.000
1737556273.113,-235.840,-39.551,-103.027,970.703,0.000
1737556273.117,-228.516,-35.156,-103.516,970.703,0.000
1737556273.121,-243.164,-43.457,-113.281,970.703,0.000
1737556273.124,-231.445,-45.410,-114.746,970.703,0.000
1737556273.128,-207.520,-31.250,-106.445,970.703,0.000
1737556273.132,-179.199,-32.715,-99.121,970.703,0.000
1737556273.136,-146.973,-40.039,-88.379,970.703,0.000
1737556273.140,-173.828,-44.434,-90.332,970.703,0.000
1737556273.144,-193.848,-46.875,-102.051,970.703,0.000
1737556273.148,-151.367,-37.109,-93.750,970.703,0.000
1737556273.152,-107.910,-27.344,-82.031,970.703,0.000
1737556273.156,-89.844,-26.367,-77.148,970.703,0.000
1737556273.160,-89.844,-22.461,-75.684,970.703,0.000
1737556273.164,-104.980,-26.855,-82.520,970.703,0.000
1737556273.167,-102.051,-32.227,-75.684,981.934,0.000
1737556273.171,-52.734,-16.113,-54.199,924.316,0.000
1737556273.175,-25.391,-4.395,-40.039,999.512,0.000
1737556273.179,-39.551,-7.812,-41.016,880.859,0.000
1737556273.183,-91.309,-30.273,-57.617,-476.074,0.000
1737556273.187,-102.051,-46.387,-57.129,-1000.000,0.000
1737556273.191,-37.598,-32.227,-32.715,-936.035,0.000
1737556273.195,13.184,-12.695,-20.508,-1000.000,0.000
1737556273.199,9.766,-1.953,-17.578,-1000.000,0.000
1737556273.203,0.000,-4.883,-18.066,-1000.000,0.000
1737556273.206,0.000,-10.742,-12.207,-1000.000,0.000
1737556273.210,0.000,-5.371,-2.930,-1000.000,0.000
1737556273.214,0.000,14.160,13.672,-1000.000,0.000
1737556273.218,0.000,18.555,24.902,-1000.000,0.000
1737556273.222,0.000,-0.977,17.578,-1000.000,0.000
1737556273.226,0.000,-2.441,16.113,-1000.000,0.000
1737556273.230,0.000,2.441,23.926,-1000.000,0.000
1737556273.234,0.000,1.953,28.809,-1000.000,0.000
1737556273.238,0.000,2.441,30.273,-1000.000,0.000
1737556273.242,0.000,-5.371,19.531,-1000.000,0.000
1737556273.245,0.000,-14.160,10.254,-1000.000,0.000
1737556273.249,69.336,-9.766,18.066,-1000.000,0.000
1737556273.253,110.352,0.977,33.203,-1000.000,0.000
1737556273.257,109.375,4.395,37.109,-1000.000,0.000
1737556273.261,62.500,-7.812,25.879,-1000.000,0.000
1737556273.265,44.922,-19.531,13.672,-1000.000,0.000
1737556273.269,65.430,-14.648,11.719,-1000.000,0.000
1737556273.273,100.098,0.000,20.020,-1000.000,0.000
1737556273.277,98.633,-1.953,20.508,-1000.000,0.000
1737556273.281,47.852,-18.555,4.395,-1000.000,0.000
1737556273.285,18.066,-23.926,-7.324,-1000.000,0.000
1737556273.288,37.109,-15.137,-1.465,-1000.000,0.000
1737556273.292,72.266,-5.371,10.742,-1000.000,0.000
1737556273.296,0.000,-11.230,11.719,-1000.000,0.000
1737556273.300,0.000,-20.020,2.930,-1000.000,0.000
1737556273.304,0.000,-19.043,-6.836,-1000.000,0.000
1737556273.308,0.000,-17.090,-8.789,-1000.000,0.000
1737556273.312,0.000,-9.277,1.953,-1000.000,0.000
1737556273.316,0.000,3.418,8.301,-1000.000,0.000
1737556273.320,0.000,-3.418,2.441,-1000.000,0.000
1737556273.324,0.000,-21.973,-6.348,-1000.000,0.000
1737556273.327,0.000,-20.996,-6.836,-1000.000,0.000
1737556273.331,0.000,-4.883,8.789,-1000.000,0.000
1737556273.335,0.000,0.488,14.160,-1000.000,0.000
1737556273.339,0.000,-4.395,6.348,-1000.000,0.000
1737556273.343,-15.137,-20.508,-4.395,-1000.000,0.000
1737556273.347,-27.344,-32.715,-7.812,-1000.000,0.000
1737556273.351,10.742,-17.578,0.977,-1000.000,0.000
1737556273.355,31.738,-5.371,6.836,-1000.000,0.000
1737556273.359,9.766,-6.836,4.883,-1000.000,0.000
1737556273.363,-27.344,-15.625,-7.324,-1000.000,0.000
1737556273.367,-36.133,-19.531,-13.184,-1000.000,0.000
1737556273.370,-0.488,-12.695,-0.488,-1000.000,0.000
1737556273.374,27.832,-6.836,7.812,-1000.000,0.000
1737556273.378,7.812,-9.766,1.465,-1000.000,0.000
1737556273.382,-29.785,-20.508,-7.812,-1000.000,0.000
1737556273.386,-33.691,-20.508,-17.578,-1000.000,0.000
1737556273.390,0.000,-20.508,-9.766,-1000.000,0.000
1737556273.394,0.000,-22.461,-0.977,-1000.000,0.000
1737556273.398,0.000,-20.020,-1.953,-1000.000,0.000
1737556273.402,0.000,-20.996,-8.789,-1000.000,0.000
1737556273.406,0.000,-25.879,-23.438,-1000.000,0.000
1737556273.410,0.000,-13.184,-20.508,-1000.000,0.000
1737556273.413,0.000,-0.977,-9.277,-1000.000,0.000
1737556273.417,0.000,-10.254,-11.230,-1000.000,0.000
1737556273.421,0.000,-18.066,-25.391,-1000.000,0.000
1737556273.425,0.000,-23.926,-31.250,-1000.000,0.000
1737556273.429,0.000,-20.508,-26.855,-1000.000,0.000
1737556273.433,0.000,-7.812,-13.184,-1000.000,0.000
1737556273.437,3.418,-4.395,-5.859,-1000.000,0.000
1737556273.441,-32.715,-15.625,-18.066,-1000.000,0.000
1737556273.445,-52.734,-14.160,-26.855,-1000.000,0.000
1737556273.449,-28.809,-9.277,-25.879,-1000.000,0.000
1737556273.452,7.324,-8.789,-19.043,-1000.000,0.000
1737556273.456,1.465,-10.742,-17.090,-1000.000,0.000
1737556273.460,-31.250,-20.996,-23.438,-1000.000,0.000
1737556273.464,-56.152,-27.832,-28.809,-1000.000,0.000
1737556273.468,-41.504,-22.949,-26.855,-1000.000,0.000
1737556273.472,10.254,-13.672,-17.578,-1000.000,0.000
1737556273.476,20.508,-12.207,-12.695,-1000.000,0.000
1737556273.480,-20.020,-20.020,-20.508,-1000.000,0.000
1737556273.484,-49.316,-25.391,-35.645,-1000.000,0.000
1737556273.488,-38.574,-30.273,-39.062,-1000.000,0.000
1737556273.492,-8.301,-25.391,-28.809,-1000.000,0.000
1737556273.495,11.230,-8.789,-23.438,-1000.000,0.000
1737556273.499,-12.695,-10.742,-29.785,-1000.000,0.000
1737556273.503,-46.387,-20.020,-36.621,-1000.000,0.000
1737556273.507,-44.434,-16.602,-33.203,-1000.000,0.000
1737556273.511,-18.555,-13.184,-30.762,-1000.000,0.000
1737556273.515,2.930,-9.277,-27.832,-1000.000,0.000
1737556273.519,-20.020,-14.648,-29.785,-1000.000,0.000
1737556273.523,-54.199,-25.391,-45.410,-1000.000,0.000
1737556273.527,-59.082,-26.855,-49.805,-1000.000,0.000
1737556273.531,-31.738,-24.414,-39.062,-1000.000,0.000
1737556273.535,2.930,-12.695,-27.344,-1000.000,0.000
1737556273.538,-11.719,-11.230,-33.691,-1000.000,0.000
1737556273.542,-61.523,-29.297,-47.363,-1000.000,0.000
1737556273.546,-80.566,-35.156,-47.363,-1000.000,0.000
1737556273.550,-44.922,-13.184,-34.180,-1000.000,0.000
1737556273.554,-6.348,3.906,-20.020,-1000.000,0.000
1737556273.558,-13.184,-2.441,-20.508,-1000.000,0.000
1737556273.562,-61.523,-19.531,-28.320,-1000.000,0.000
1737556273.566,-83.496,-32.227,-33.203,-1000.000,0.000
1737556273.570,-46.875,-25.391,-26.855,-1000.000,0.000
1737556273.574,-5.859,-13.184,-12.695,-1000.000,0.000
1737556273.578,-10.254,-7.324,-10.254,-1000.000,0.000
1737556273.581,-51.270,-14.648,-22.461,-1000.000,0.000
1737556273.585,-66.406,-23.438,-32.227,-1000.000,0.000
1737556273.589,-36.621,-18.066,-23.438,-1000.000,0.000
1737556273.593,2.441,-6.348,-14.648,-1000.000,0.000
1737556273.597,4.883,-4.883,-12.207,-1000.000,0.000
1737556273.601,-34.668,-17.090,-26.855,-1000.000,0.000
1737556273.605,-58.105,-29.785,-38.574,-1000.000,0.000
1737556273.609,-54.199,-33.691,-37.109,-1000.000,0.000
1737556273.613,-24.902,-26.367,-27.344,-1000.000,0.000
1737556273.616,-1.953,-13.184,-22.461,-1000.000,0.000
1737556273.620,-35.156,-18.066,-31.738,-1000.000,0.000
1737556273.624,-60.059,-23.438,0.000,-1000.000,0.000
1737556273.628,-50.293,-17.090,0.000,-1000.000,0.000
1737556273.632,-18.555,-17.578,0.000,-1000.000,0.000
1737556273.636,-1.465,-14.648,0.000,-1000.000,0.000
1737556273.640,-33.203,-17.578,0.000,-1000.000,0.000
1737556273.644,-59.082,-21.484,0.000,-1000.000,0.000
1737556273.648,-56.152,-24.902,0.000,-1000.000,0.000
1737556273.652,-15.137,-25.391,0.000,-1000.000,0.000
1737556273.656,10.742,-8.301,0.000,-1000.000,0.000
1737556273.659,-32.227,-13.184,0.000,-1000.000,0.000
1737556273.663,-75.195,-31.250,0.000,-1000.000,0.000
1737556273.667,-59.570,-29.785,0.000,-1000.000,0.000
1737556273.671,0.000,-18.066,-35.645,0.000,0.000
1737556273.675,0.000,-11.719,-38.086,0.000,0.000
1737556273.679,0.000,-15.625,-23.926,0.000,0.000
1737556273.683,0.000,-22.949,-14.648,0.000,0.000
1737556273.687,0.000,-25.391,-26.855,0.000,0.000
1737556273.691,0.000,-6.836,-30.273,0.000,0.000
1737556273.695,0.000,-3.418,-28.809,0.000,0.000
1737556273.698,0.000,-20.508,-21.484,0.000,0.000
1737556273.702,0.000,-28.320,-16.113,0.000,0.000
1737556273.706,0.000,-31.738,-28.320,0.000,0.000
1737556273.710,0.000,-27.832,-42.969,0.000,0.000
1737556273.714,0.000,-12.695,-48.340,0.000,0.000
1737556273.718,-24.902,-12.207,-25.879,-1000.000,0.000
1737556273.722,-13.184,-20.508,-40.039,-1000.000,0.000
1737556273.726,-23.926,-32.227,-45.410,-1000.000,0.000
1737556273.730,-56.641,-28.320,-39.062,-1000.000,0.000
1737556273.734,-69.824,-1.465,-21.484,-1000.000,0.000
1737556273.738,-38.086,0.977,-23.438,-1000.000,0.000
1737556273.741,-13.672,-18.066,-43.945,-1000.000,0.000
1737556273.745,-26.855,-27.832,-55.664,-1000.000,0.000
1737556273.749,-55.664,-26.367,-54.199,-1000.000,0.000
1737556273.753,-64.941,-25.879,-43.457,-1000.000,0.000
1737556273.757,-43.945,-10.742,-57.617,-1000.000,0.000
1737556273.761,-7.812,-25.391,-98.145,-1000.000,0.000
1737556273.765,-251.953,-39.551,-124.023,-1000.000,0.000
1737556273.769,-283.691,-56.152,-130.371,-1000.000,0.000
1737556273.773,-281.250,-58.594,-133.789,-1000.000,0.000
1737556273.777,-257.812,-50.293,-136.230,-1000.000,0.000
1737556273.780,-292.480,-64.941,-135.742,-1000.000,0.000
1737556273.784,-329.590,-69.824,-144.043,-1000.000,0.000
1737556273.788,-306.641,-56.152,-144.043,-1000.000,0.000
1737556273.792,-234.375,-49.316,-133.789,-1000.000,0.000
1737556273.796,-201.660,-63.477,-123.535,-1000.000,0.000
1737556273.800,-239.258,-81.543,-95.703,-1000.000,0.000
1737556273.804,-250.488,-79.102,-96.191,-1000.000,0.000
1737556273.808,-202.637,-36.621,-102.051,-1000.000,0.000
1737556273.812,-126.465,-9.277,-54.688,-1000.000,0.000
1737556273.816,-103.027,-19.043,-42.969,-1000.000,0.000
1737556273.820,-116.699,-44.434,-57.129,-1000.000,0.000
1737556273.823,-131.348,-41.504,-47.363,-1000.000,0.000
1737556273.827,-135.742,-31.738,-33.691,-1000.000,0.000
1737556273.831,-62.500,-19.043,-23.926,-1000.000,0.000
1737556273.835,-7.812,-1.953,-17.578,-1000.000,0.000
1737556273.839,-16.113,-10.742,-13.672,-1000.000,0.000
1737556273.843,-27.344,-11.230,-33.203,-1000.000,0.000
1737556273.847,-32.715,-18.066,-37.109,-1000.000,0.000
1737556273.851,15.137,-22.949,-13.184,-1000.000,0.000
1737556273.855,68.359,5.859,0.977,-1000.000,0.000
1737556273.859,63.965,16.602,0.977,-1000.000,0.000
1737556273.863,27.832,-3.418,-7.812,-1000.000,0.000
1737556273.866,23.926,-7.812,-9.766,-1000.000,0.000
1737556273.870,58.105,3.906,-1.465,-1000.000,0.000
1737556273.874,90.820,3.906,7.324,-1000.000,0.000
1737556273.878,85.449,4.395,8.301,-1000.000,0.000
1737556273.882,45.898,3.906,3.418,-1000.000,0.000
1737556273.886,23.438,-9.277,-1.465,-1000.000,0.000
1737556273.890,48.340,-15.137,-4.395,-1000.000,0.000
1737556273.894,93.750,0.488,8.789,-1000.000,0.000
1737556273.898,90.820,2.441,16.602,-1000.000,0.000
1737556273.902,44.922,-8.301,7.324,-1000.000,0.000
1737556273.906,27.344,-7.812,3.418,-1000.000,0.000
1737556273.909,48.340,-3.906,8.789,-1000.000,0.000
1737556273.913,83.984,4.395,16.113,-1000.000,0.000
1737556273.917,84.961,4.883,12.695,-1000.000,0.000
1737556273.921,47.852,3.906,2.930,-1000.000,0.000
1737556273.925,19.531,-10.742,-6.836,-1000.000,0.000
1737556273.929,25.391,-20.996,-6.836,-1000.000,0.000
1737556273.933,55.664,-11.230,9.277,-1000.000,0.000
1737556273.937,60.059,-12.695,9.766,-1000.000,0.000
1737556273.941,19.043,-22.949,-5.859,-1000.000,0.000
1737556273.945,-8.789,-29.297,-11.230,-1000.000,0.000
1737556273.948,-4.395,-28.320,-17.090,-1000.000,0.000
1737556273.952,25.879,-22.461,-15.137,-1000.000,0.000
1737556273.956,42.969,-20.020,-10.254,-1000.000,0.000
1737556273.960,14.648,-21.484,-13.184,-1000.000,0.000
1737556273.964,-14.648,-31.250,-29.297,-1000.000,0.000
1737556273.968,-10.742,-38.574,-38.086,-1000.000,0.000
1737556273.972,21.973,-23.926,-26.855,-1000.000,0.000
1737556273.976,35.156,-19.043,-13.184,-1000.000,0.000
1737556273.980,8.789,-25.391,-16.113,-1000.000,0.000
1737556273.984,-30.273,-33.203,-31.250,-1000.000,0.000
1737556273.987,-38.086,-41.504,-35.156,-1000.000,0.000
1737556273.991,-3.906,-30.762,-25.391,-1000.000,0.000
1737556273.995,19.531,-17.578,-12.207,-1000.000,0.000
1737556273.999,2.930,-17.578,-10.742,-1000.000,0.000
1737556274.003,-35.645,-29.785,-16.113,-1000.000,0.000
1737556274.007,-40.039,-33.203,-19.043,-1000.000,0.000
1737556274.011,-5.859,-26.367,-16.113,-1000.000,0.000
1737556274.015,12.207,-24.902,-8.789,-1000.000,0.000
1737556274.019,-0.488,-19.531,-7.324,-1000.000,0.000
1737556274.023,-34.668,-25.391,-17.578,-1000.000,0.000
1737556274.027,-51.758,-41.016,-29.297,-1000.000,0.000
1737556274.030,-23.926,-36.133,-24.902,-1000.000,0.000
1737556274.034,20.508,-15.625,-8.789,-1000.000,0.000
1737556274.038,17.090,-13.672,-7.812,-1000.000,0.000
1737556274.042,-32.715,-23.438,-21.973,-1000.000,0.000
1737556274.046,-49.316,-23.926,0.000,-1000.000,0.000
1737556274.050,-20.996,-21.484,0.000,-1000.000,0.000
1737556274.054,12.207,-14.648,0.000,-1000.000,0.000
1737556274.058,11.719,-15.137,0.000,-1000.000,0.000
1737556274.062,-24.414,-23.438,0.000,-1000.000,0.000
1737556274.066,-41.016,-19.043,0.000,-1000.000,0.000
1737556274.070,-20.020,-14.648,0.000,-1000.000,0.000
1737556274.073,16.113,-11.719,0.000,-1000.000,0.000
1737556274.077,30.273,-2.441,0.000,-1000.000,0.000
1737556274.081,0.977,-12.695,0.000,-1000.000,0.000
1737556274.085,-32.715,-23.438,0.000,-997.070,0.000
1737556274.089,-27.832,-21.484,0.000,-933.105,0.000
1737556274.093,-3.906,-7.812,-14.648,-1000.000,0.000
1737556274.097,34.668,7.812,-6.348,-24.902,0.000
1737556274.101,15.137,-0.977,-17.090,500.488,0.000
1737556274.105,-77.148,-27.832,-28.809,-997.070,0.000
1737556274.109,-71.777,-33.691,-29.297,-1000.000,0.000
1737556274.112,-20.020,-16.602,-14.648,-949.219,0.000
1737556274.116,-4.395,-7.812,-5.371,-1000.000,0.000
1737556274.120,-26.855,-13.672,-16.602,-1000.000,0.000
1737556274.124,-61.035,-21.484,-26.855,-1000.000,0.000
1737556274.128,-62.500,-28.809,-28.320,-1000.000,0.000
1737556274.132,-13.672,-16.113,-17.578,-1000.000,0.000
1737556274.136,9.277,-4.395,-5.859,-1000.000,0.000
1737556274.140,-22.949,-18.066,-12.695,-1000.000,0.000
1737556274.144,-51.270,-25.391,-31.250,-1000.000,0.000
1737556274.148,-47.363,-23.926,-34.180,-1000.000,0.000
1737556274.152,-17.090,-15.137,-16.602,-1000.000,0.000
1737556274.155,0.488,-8.789,-8.301,-1000.000,0.000
1737556274.159,-26.367,-9.766,-7.812,-1000.000,0.000
1737556274.163,-61.523,-19.531,-20.996,-1000.000,0.000
1737556274.167,-70.312,-34.180,-30.762,-1000.000,0.000
1737556274.171,-39.062,-30.762,-22.461,-1000.000,0.000
1737556274.175,0.977,-18.555,-18.066,-1000.000,0.000
1737556274.179,-14.648,-20.508,-18.066,-1000.000,0.000
1737556274.183,-56.152,-33.691,-33.203,-1000.000,0.000
1737556274.187,-68.359,-37.109,-35.645,-1000.000,0.000
1737556274.191,-43.457,-29.297,-22.949,-1000.000,0.000
1737556274.195,-12.695,-23.438,-13.672,-1000.000,0.000
1737556274.198,-10.254,-22.949,-11.719,-1000.000,0.000
1737556274.202,-42.969,-35.156,-28.809,-1000.000,0.000
1737556274.206,-63.477,-33.203,-33.691,-1000.000,0.000
1737556274.210,-45.410,-29.785,-26.855,-1000.000,0.000
1737556274.214,-12.695,-29.297,-16.602,-1000.000,0.000
1737556274.218,-4.395,-20.508,-9.277,-1000.000,0.000
1737556274.222,-41.992,-24.414,-24.902,-1000.000,0.000
1737556274.226,-64.453,-31.250,-33.691,-1000.000,0.000
1737556274.230,-43.457,-29.785,-27.344,-1000.000,0.000
1737556274.234,0.000,-12.207,0.000,-1000.000,0.000
1737556274.238,0.000,1.953,0.000,-1000.000,0.000
1737556274.241,0.000,-11.719,0.000,-1000.000,0.000
1737556274.245,0.000,-22.461,0.000,-1000.000,0.000
1737556274.249,0.000,-19.531,0.000,-1000.000,0.000
1737556274.253,0.000,-5.859,0.000,-1000.000,0.000
1737556274.257,0.000,-1.465,0.000,-1000.000,0.000
1737556274.261,0.000,-15.137,0.000,-1000.000,0.000
1737556274.265,0.000,-25.391,0.000,-1000.000,0.000
1737556274.269,0.000,-31.250,0.000,-1000.000,0.000
1737556274.273,0.000,-22.949,0.000,-1000.000,0.000
1737556274.276,0.000,-10.254,0.000,-1000.000,0.000
1737556274.280,-7.324,-8.301,-21.484,-1000.000,0.000
1737556274.284,-45.410,-18.066,-40.527,-1000.000,0.000
1737556274.288,-43.457,-24.414,-42.969,-1000.000,0.000
1737556274.292,-10.254,-20.020,-31.738,-1000.000,0.000
1737556274.296,12.695,-9.766,-18.555,-1000.000,0.000
1737556274.300,-12.207,-10.254,-24.902,-1000.000,0.000
1737556274.304,-45.898,-18.555,-33.691,-1000.000,0.000
1737556274.308,-48.340,-25.879,-34.180,-1000.000,0.000
1737556274.312,-29.785,-35.645,-32.227,-1000.000,0.000
1737556274.316,-13.672,-31.250,-22.949,-1000.000,0.000
1737556274.319,-22.461,-24.414,-24.414,-1000.000,0.000
1737556274.323,-54.688,-30.273,-31.250,-1000.000,0.000
1737556274.327,-66.406,-32.715,-27.344,0.000,0.000
1737556274.331,-41.016,-25.879,-23.438,0.000,0.000
1737556274.335,-14.648,-18.555,-20.996,0.000,0.000
1737556274.339,-20.020,-21.973,-20.996,0.000,0.000
1737556274.343,-49.316,-31.250,-28.320,0.000,0.000
1737556274.347,-55.176,-30.273,-26.855,0.000,0.000
1737556274.351,-32.227,-24.902,-19.531,0.000,0.000
1737556274.355,4.883,-17.578,-8.789,0.000,0.000
1737556274.359,9.766,-13.184,-2.930,0.000,0.000
1737556274.362,-42.969,-23.926,-16.602,0.000,0.000
1737556274.366,-66.406,-35.645,-27.832,0.000,0.000
1737556274.370,-31.738,-25.391,-26.855,0.000,0.000
1737556274.374,6.836,-7.324,-20.996,-1000.000,0.000
1737556274.378,0.000,-9.277,-22.461,-1000.000,0.000
1737556274.382,-53.223,-25.879,-34.668,-1000.000,0.000
1737556274.386,-72.266,-33.691,-42.480,-1000.000,0.000
1737556274.390,-54.199,-27.832,-37.598,-1000.000,0.000
1737556274.394,-9.766,-6.836,-21.973,-1000.000,0.000
1737556274.398,9.277,1.953,-20.996,-1000.000,0.000
1737556274.402,-41.016,-20.508,-40.527,-1000.000,0.000
1737556274.405,-65.918,-29.297,-47.852,-1000.000,0.000
1737556274.409,-44.434,-21.484,-34.668,-1000.000,0.000
1737556274.413,-11.230,-13.672,-21.484,-1000.000,0.000
1737556274.417,0.000,-2.930,-19.043,-1000.000,0.000
1737556274.421,-29.297,-15.625,-29.297,0.000,0.000
1737556274.425,-58.594,-32.715,-34.180,0.000,0.000
1737556274.429,-49.316,-29.297,-30.273,0.000,0.000
1737556274.433,-14.648,-18.066,-22.949,0.000,0.000
1737556274.437,0.977,-9.766,-18.066,0.000,0.000
1737556274.441,-27.832,-8.301,-20.508,0.000,0.000
1737556274.444,-67.383,-28.320,-29.297,0.000,0.000
1737556274.448,-62.012,-41.992,-34.180,0.000,0.000
1737556274.452,-29.785,-30.762,-23.438,0.000,0.000
1737556274.456,19.043,-15.625,-8.301,0.000,0.000
1737556274.460,33.691,-9.277,-13.672,0.000,0.000
1737556274.464,-62.012,-27.832,-26.367,0.000,0.000
1737556274.468,-90.820,-38.086,-27.832,-1000.000,0.000
1737556274.472,-41.992,-29.785,-25.391,-1000.000,0.000
1737556274.476,9.766,-15.137,-19.531,-293.457,0.000
1737556274.480,39.062,-3.906,-16.113,999.512,0.000
1737556274.484,-55.664,-25.391,-26.855,-143.555,0.000
1737556274.487,-105.469,-34.180,-35.156,-1000.000,0.000
1737556274.491,-40.527,-23.926,-27.832,-962.891,0.000
1737556274.495,2.930,-22.461,-16.602,-975.098,0.000
1737556274.499,31.250,-8.789,-12.207,428.223,0.000
1737556274.503,-33.203,-20.020,-28.320,154.785,0.000
1737556274.507,-95.215,-34.180,-41.016,-1000.000,0.000
1737556274.511,-42.480,-21.484,-25.391,-1000.000,0.000
1737556274.515,4.883,-11.230,-11.230,-760.254,0.000
1737556274.519,46.387,0.488,-10.254,811.523,0.000
1737556274.523,-20.996,-10.742,-21.973,249.023,0.000
1737556274.527,-97.168,-31.738,-33.691,-1000.000,0.000
1737556274.530,-51.270,-24.414,-23.926,-1000.000,0.000
1737556274.534,22.949,0.000,-9.277,-460.449,0.000
1737556274.538,74.219,15.625,-11.719,999.512,0.000
1737556274.542,-8.301,-3.418,-26.367,239.746,0.000
1737556274.546,-89.844,-25.879,-37.109,-1000.000,0.000
1737556274.550,-53.223,-23.438,-29.297,-979.492,0.000
1737556274.554,0.000,-11.230,-19.043,-978.027,0.000
1737556274.558,10.742,-3.906,-14.648,-886.719,0.000
1737556274.562,-41.504,-12.207,-20.508,-930.176,0.000
1737556274.566,-70.312,-24.902,-35.645,-1000.000,0.000
1737556274.569,-58.105,-27.344,-38.574,-991.699,0.000
1737556274.573,-18.066,-16.602,-20.996,-1000.000,0.000
1737556274.577,-2.441,-7.812,-8.301,-1000.000,0.000
1737556274.581,-40.527,-8.789,-18.066,-1000.000,0.000
1737556274.585,-71.777,-22.949,-33.203,-1000.000,0.000
1737556274.589,-61.523,-23.926,-32.227,-1000.000,0.000
1737556274.593,-20.508,-11.230,-19.043,-1000.000,0.000
1737556274.597,-2.930,-14.160,-13.672,-1000.000,0.000
1737556274.601,-33.691,-22.461,-19.043,-1000.000,0.000
1737556274.605,-67.871,-30.273,-30.762,-1000.000,0.000
1737556274.609,-64.453,-30.273,-31.738,-1000.000,0.000
1737556274.612,-25.879,-16.113,-14.160,-1000.000,0.000
1737556274.616,1.465,-12.695,-8.301,-1000.000,0.000
1737556274.620,-18.555,-25.879,-19.043,-1000.000,0.000
1737556274.624,-56.152,-31.250,-28.320,-1000.000,0.000
1737556274.628,-63.477,-24.902,-32.227,-1000.000,0.000
1737556274.632,-30.762,-17.578,-28.320,-1000.000,0.000
1737556274.636,1.953,-12.207,-16.113,-1000.000,0.000
1737556274.640,-10.742,-20.508,-24.902,-1000.000,0.000
1737556274.644,-51.758,-33.203,-42.480,-1000.000,0.000
1737556274.648,-63.965,-28.809,-43.457,-1000.000,0.000
1737556274.651,-30.762,-19.043,-30.273,-1000.000,0.000
1737556274.655,0.000,-8.789,-11.719,-1000.000,0.000
1737556274.659,0.000,-11.719,-17.090,-1000.000,0.000
1737556274.663,0.000,-23.438,-28.320,-1000.000,0.000
1737556274.667,0.000,-24.902,-31.250,-983.887,0.000
1737556274.671,0.000,-22.949,-28.320,-977.539,0.000
1737556274.675,0.000,-10.254,-19.043,-1000.000,0.000
1737556274.679,0.000,3.418,-18.555,114.258,0.000
1737556274.683,0.000,-15.137,-25.879,128.906,0.000
1737556274.687,0.000,-35.156,-32.227,-1000.000,0.000
1737556274.691,0.000,-29.297,-26.855,-981.934,0.000
1737556274.694,0.000,-18.066,-10.254,-978.516,0.000
1737556274.698,0.000,-19.043,-9.766,-1000.000,0.000
1737556274.702,-71.777,-24.414,-25.391,-1000.000,0.000
1737556274.706,-91.309,-21.973,-33.203,-1000.000,0.000
1737556274.710,-58.105,-20.020,-28.320,-1000.000,0.000
1737556274.714,-17.090,-12.207,-8.789,-1000.000,0.000
1737556274.718,-12.207,-6.348,6.836,-1000.000,0.000
1737556274.722,-41.992,-10.254,-7.812,-1000.000,0.000
1737556274.726,-91.309,-16.602,-33.691,-1000.000,0.000
1737556274.730,-104.004,-24.414,-39.551,-1000.000,0.000
1737556274.733,-64.453,-18.555,-27.832,-1000.000,0.000
1737556274.737,-50.781,-5.371,-19.043,-1000.000,0.000
1737556274.741,-116.699,-25.391,-37.598,-1000.000,0.000
1737556274.745,-184.570,-50.781,-74.707,-1000.000,0.000
1737556274.749,-217.285,-48.828,-102.051,-1000.000,0.000
1737556274.753,-209.961,-53.711,-114.746,-1000.000,0.000
1737556274.757,-188.965,-42.969,-112.305,-1000.000,0.000
1737556274.761,-238.770,-40.039,-104.980,-1000.000,0.000
1737556274.765,-299.316,-59.082,-148.438,-1000.000,0.000
1737556274.769,-290.527,-62.500,-174.805,-1000.000,0.000
1737556274.773,-218.750,-40.527,-121.094,-1000.000,0.000
1737556274.776,-170.410,-12.207,-108.398,-1000.000,0.000
1737556274.780,-216.309,-51.270,-132.324,-1000.000,0.000
1737556274.784,-222.168,-71.777,-127.930,-1000.000,0.000
1737556274.788,-176.270,-36.621,-130.371,-1000.000,0.000
1737556274.792,-163.086,-24.414,-124.023,-1000.000,0.000
1737556274.796,-133.301,-35.645,-88.867,-1000.000,0.000
1737556274.800,-144.531,-40.527,-81.543,-1000.000,0.000
1737556274.804,-169.434,-12.695,-101.074,-1000.000,0.000
1737556274.808,-153.809,-42.969,-98.145,-1000.000,0.000
1737556274.812,-98.145,-58.105,-50.781,-1000.000,0.000
1737556274.816,-44.922,-31.250,-28.809,-1000.000,0.000
1737556274.819,-18.555,6.836,-35.156,-1000.000,0.000
1737556274.823,-40.039,9.766,-45.898,-1000.000,0.000
1737556274.827,-49.805,-7.812,-45.898,-1000.000,0.000
1737556274.831,-10.254,-16.602,-34.180,-1000.000,0.000
1737556274.835,41.992,-11.230,-17.090,-1000.000,0.000
1737556274.839,50.781,3.418,-9.277,-1000.000,0.000
1737556274.843,10.742,-5.859,-2.930,-1000.000,0.000
1737556274.847,-3.418,-13.184,-3.906,-1000.000,0.000
1737556274.851,36.621,-2.930,0.488,-1000.000,0.000
1737556274.855,82.031,8.301,19.531,-1000.000,0.000
1737556274.859,89.355,8.789,21.973,-1000.000,0.000
