timestamps,TP9,AF7,AF8,TP10,Right AUX
1737550265.232,48.828,0.000,-48.828,547.363,0.000
1737550265.236,-61.035,-10.254,-59.570,-827.637,0.000
1737550265.240,-30.273,-11.719,-56.641,-371.094,0.000
1737550265.244,86.914,0.000,-48.340,999.512,0.000
1737550265.248,81.543,13.184,-36.133,963.379,0.000
1737550265.252,45.410,14.160,-31.250,916.016,0.000
1737550265.255,-44.434,-5.371,-32.227,-247.559,0.000
1737550265.259,-65.430,-12.695,-32.227,-533.203,0.000
1737550265.263,47.852,-2.441,-44.434,870.117,0.000
1737550265.267,57.617,-13.672,-37.598,993.164,0.000
1737550265.271,41.504,-22.461,-18.555,999.512,0.000
1737550265.275,-7.324,-10.742,-23.926,340.820,0.000
1737550265.279,-56.152,-7.324,-22.949,-80.078,0.000
1737550265.283,13.672,-6.836,-16.602,814.453,0.000
1737550265.287,42.969,-10.742,-22.949,999.512,0.000
1737550265.291,9.766,-16.113,-27.344,724.121,0.000
1737550265.295,-70.312,-17.090,-23.438,-446.777,0.000
1737550265.298,-115.234,-22.461,-18.066,-1000.000,0.000
1737550265.302,0.488,-20.508,-14.160,169.922,0.000
1737550265.306,82.520,-19.043,-17.578,999.512,0.000
1737550265.310,9.277,-21.973,-29.785,487.305,0.000
1737550265.314,-94.727,-19.043,-23.926,-771.484,0.000
1737550265.318,-111.816,-20.996,-12.695,-1000.000,0.000
1737550265.322,-1.953,-16.113,-16.602,-46.387,0.000
1737550265.326,104.492,-7.812,-20.996,999.512,0.000
1737550265.330,68.359,-23.438,-17.090,598.633,0.000
1737550265.334,-35.645,-22.949,-10.254,-631.348,0.000
1737550265.338,-82.520,-9.766,-13.184,-1000.000,0.000
1737550265.341,5.371,-17.578,-13.672,-241.211,0.000
1737550265.345,111.816,-12.207,-18.066,999.512,0.000
1737550265.349,98.145,-0.977,-17.090,730.957,0.000
1737550265.353,-2.441,-8.789,-8.301,-479.492,0.000
1737550265.357,-85.938,-10.254,-4.883,-1000.000,0.000
1737550265.361,-18.555,-5.371,-5.371,-329.590,0.000
1737550265.365,91.309,-4.395,-9.766,999.512,0.000
1737550265.369,49.316,-11.719,-12.207,738.770,0.000
1737550265.373,-64.453,-29.297,-12.207,-516.113,0.000
1737550265.377,-111.816,-27.832,-13.672,-1000.000,0.000
1737550265.380,-55.176,-10.742,-11.719,-598.145,0.000
1737550265.384,69.336,-4.395,-12.207,804.199,0.000
1737550265.388,77.148,-9.766,-15.625,810.547,0.000
1737550265.392,-27.832,-16.113,-11.230,-531.250,0.000
1737550265.396,-78.125,-24.902,-10.742,-1000.000,0.000
1737550265.400,-67.383,-29.785,-16.602,-884.766,0.000
1737550265.404,38.086,-18.555,-15.137,326.172,0.000
1737550265.408,104.980,-14.648,-20.508,999.512,0.000
1737550265.412,8.301,-20.508,-23.438,-258.301,0.000
1737550265.416,-62.500,-23.438,-21.484,-1000.000,0.000
1737550265.420,-55.664,-26.367,-18.066,-975.098,0.000
1737550265.423,42.480,-23.926,-8.301,123.535,0.000
1737550265.427,124.023,-11.230,-6.836,999.512,0.000
1737550265.431,26.855,-11.230,-13.672,-42.969,0.000
1737550265.435,-60.059,-13.184,-11.719,-1000.000,0.000
1737550265.439,-47.852,-8.789,-11.719,-887.207,0.000
1737550265.443,49.316,-13.672,-14.160,280.273,0.000
1737550265.447,111.328,-15.137,-5.371,999.512,0.000
1737550265.451,20.996,-13.184,-3.418,168.945,0.000
1737550265.455,-80.078,-18.555,-7.324,-1000.000,0.000
1737550265.459,-90.820,-19.043,-12.695,-1000.000,0.000
1737550265.462,8.301,-15.625,-18.555,116.211,0.000
1737550265.466,86.426,-11.719,-15.137,999.512,0.000
1737550265.470,44.434,-10.254,-9.766,628.906,0.000
1737550265.474,-51.758,-20.996,-14.648,-608.887,0.000
1737550265.478,-99.121,-34.180,-22.949,-1000.000,0.000
1737550265.482,-2.930,-23.438,-24.414,15.137,0.000
1737550265.486,90.820,-9.766,-17.090,999.512,0.000
1737550265.490,60.547,-11.719,-13.184,664.551,0.000
1737550265.494,-53.223,-15.137,-16.113,-554.688,0.000
1737550265.498,-129.395,-20.508,-20.508,-1000.000,0.000
1737550265.502,-27.832,-24.902,-20.996,-158.691,0.000
1737550265.505,96.680,-14.648,-24.414,999.512,0.000
1737550265.509,62.988,-16.113,-25.391,718.750,0.000
1737550265.513,-43.457,-19.531,-17.578,-478.516,0.000
1737550265.517,-101.562,-13.184,-15.137,-1000.000,0.000
1737550265.521,-13.672,-12.695,-24.414,-154.297,0.000
1737550265.525,91.797,-10.254,-25.879,999.512,0.000
1737550265.529,75.195,-14.648,-20.020,936.035,0.000
1737550265.533,-30.273,-20.020,-16.113,-104.492,0.000
1737550265.537,-121.094,-19.043,-16.113,-1000.000,0.000
1737550265.541,-62.988,-19.043,-15.137,-506.348,0.000
1737550265.545,51.270,-19.531,-11.719,882.812,0.000
1737550265.548,41.016,-18.066,-21.484,894.531,0.000
1737550265.552,-54.199,-19.531,-29.297,-338.379,0.000
1737550265.556,-109.375,-22.461,-24.414,-1000.000,0.000
1737550265.560,-76.660,-23.438,-17.578,-755.859,0.000
1737550265.564,18.066,-17.090,-11.230,557.617,0.000
1737550265.568,40.527,-16.602,-10.254,985.352,0.000
1737550265.572,-65.430,-35.645,-20.020,-264.160,0.000
1737550265.576,-131.836,-46.387,-26.367,-1000.000,0.000
1737550265.580,-93.750,-33.203,-24.902,-720.703,0.000
1737550265.584,7.812,-21.973,-21.973,557.129,0.000
1737550265.587,54.688,-14.160,-13.672,999.512,0.000
1737550265.591,-33.203,-19.531,-8.301,-47.363,0.000
1737550265.595,-122.559,-29.297,-13.672,-1000.000,0.000
1737550265.599,-117.676,-30.273,-4.883,-857.422,0.000
1737550265.603,-0.977,-25.391,4.395,345.215,0.000
1737550265.607,72.266,-20.996,-7.812,999.512,0.000
1737550265.611,-22.461,-24.902,-20.996,163.574,0.000
1737550265.615,-122.070,-26.855,-25.879,-1000.000,0.000
1737550265.619,-108.887,-25.391,-29.297,-924.805,0.000
1737550265.623,15.137,-22.461,-22.461,285.645,0.000
1737550265.627,89.355,-18.066,-13.184,999.512,0.000
1737550265.630,37.598,-19.043,-12.695,727.051,0.000
1737550265.634,-79.590,-27.344,-20.996,-442.383,0.000
1737550265.638,-153.809,-36.621,-28.320,-1000.000,0.000
1737550265.642,-21.484,-24.414,-24.902,98.633,0.000
1737550265.646,72.754,-17.090,-24.414,999.512,0.000
1737550265.650,-0.977,-29.297,-29.785,377.930,0.000
1737550265.654,-88.867,-33.691,-37.598,-874.512,0.000
1737550265.658,-125.000,-34.180,-29.297,-1000.000,0.000
1737550265.662,-27.832,-24.414,-10.254,-86.426,0.000
1737550265.666,85.449,-7.812,-9.277,999.512,0.000
1737550265.670,69.336,-6.348,-23.438,920.898,0.000
1737550265.673,0.000,-16.602,-23.926,-24.414,0.000
1737550265.677,-84.961,-23.438,-14.648,-1000.000,0.000
1737550265.681,-12.207,-22.461,-15.137,-144.043,0.000
1737550265.685,81.055,-26.855,-8.789,999.512,0.000
1737550265.689,57.617,-28.320,0.000,999.023,0.000
1737550265.693,-1.953,-24.414,-7.812,318.848,0.000
1737550265.697,-104.004,-18.066,-12.695,-920.898,0.000
1737550265.701,-38.086,-10.254,-8.301,-46.875,0.000
1737550265.705,57.129,-11.230,-26.855,999.512,0.000
1737550265.709,25.879,-18.555,-25.391,961.426,0.000
1737550265.713,0.488,-26.855,0.488,769.043,0.000
1737550265.716,-99.121,-24.902,0.977,-564.453,0.000
1737550265.720,-92.773,-22.949,-14.648,-351.562,0.000
1737550265.724,30.762,-19.531,-15.137,988.281,0.000
1737550265.728,45.898,-17.578,-4.395,999.512,0.000
1737550265.732,-0.977,-27.832,-7.812,423.828,0.000
1737550265.736,-120.605,-34.180,-24.902,-960.449,0.000
1737550265.740,-73.242,-20.020,-20.996,-348.633,0.000
1737550265.744,70.801,-1.953,-11.719,978.027,0.000
1737550265.748,73.242,-3.418,-18.066,999.512,0.000
1737550265.752,14.160,-19.531,-25.879,622.070,0.000
1737550265.755,-82.031,-17.578,-25.879,-684.570,0.000
1737550265.759,-91.797,-11.230,-20.020,-782.715,0.000
1737550265.763,10.742,-10.742,-19.531,576.660,0.000
1737550265.767,37.109,-11.230,-22.949,999.512,0.000
1737550265.771,-32.715,-28.809,-32.715,549.805,0.000
1737550265.775,-147.949,-43.457,-44.434,-808.105,0.000
1737550265.779,-167.969,-35.645,-43.945,-611.328,0.000
1737550265.783,-69.336,-12.695,-33.691,786.621,0.000
1737550265.787,-49.805,0.000,-33.691,999.512,0.000
1737550265.791,-88.379,-13.184,-37.598,709.961,0.000
1737550265.795,-179.199,-28.320,-30.273,-501.953,0.000
1737550265.798,-212.891,-23.926,-35.645,-965.332,0.000
1737550265.802,-78.613,-11.230,-34.668,375.977,0.000
1737550265.806,-3.418,-5.859,-28.809,999.512,0.000
1737550265.810,-30.273,-13.184,-22.949,967.773,0.000
1737550265.814,-81.055,-21.973,-17.090,415.039,0.000
1737550265.818,-142.090,-17.090,-25.391,-133.789,0.000
1737550265.822,-72.754,-14.648,-26.367,676.270,0.000
1737550265.826,0.000,-18.066,-25.879,999.512,0.000
1737550265.830,-2.441,-17.090,-26.855,994.141,0.000
1737550265.834,-39.551,-21.484,-22.461,649.414,0.000
1737550265.837,-81.055,-23.926,-20.996,356.934,0.000
1737550265.841,-44.434,-18.555,-20.020,897.461,0.000
1737550265.845,-20.020,-12.207,-20.020,999.512,0.000
1737550265.849,-28.809,-18.066,-21.484,945.801,0.000
1737550265.853,-25.391,-29.785,-24.414,975.586,0.000
1737550265.857,-47.852,-23.926,-18.555,970.703,0.000
1737550265.861,-41.992,-13.184,-10.742,970.703,0.000
1737550265.865,-6.348,-12.695,-8.789,970.703,0.000
1737550265.869,-2.441,-22.949,-16.602,970.703,0.000
1737550265.873,-19.043,-29.785,-30.273,970.703,0.000
1737550265.877,-63.477,-23.438,-30.273,970.703,0.000
1737550265.880,-74.219,-18.066,-15.137,970.703,0.000
1737550265.884,-29.785,-19.531,-3.418,970.703,0.000
1737550265.888,1.953,-20.020,0.488,970.703,0.000
1737550265.892,6.836,-23.438,0.977,970.703,0.000
1737550265.896,-22.949,-33.203,-4.395,970.703,0.000
1737550265.900,-39.551,-35.645,-9.766,970.703,0.000
1737550265.904,-16.113,-25.391,-8.301,969.727,0.000
1737550265.908,10.742,-12.695,-4.883,969.238,0.000
1737550265.912,23.438,-11.230,-15.137,979.004,0.000
1737550265.916,-19.531,-14.648,-28.320,916.016,0.000
1737550265.920,-47.852,-16.113,-20.508,923.340,0.000
1737550265.923,-9.766,-17.090,-12.695,980.469,0.000
1737550265.927,18.066,-10.254,-10.742,967.773,0.000
1737550265.931,13.184,-3.906,-12.207,970.703,0.000
1737550265.935,-8.301,-10.742,-18.555,970.703,0.000
1737550265.939,-30.762,-29.297,-23.438,970.703,0.000
1737550265.943,-16.113,-26.367,-18.555,970.703,0.000
1737550265.947,13.184,-8.301,-21.484,970.703,0.000
1737550265.951,23.438,-6.348,-23.438,970.703,0.000
1737550265.955,5.371,-14.648,-14.648,970.703,0.000
1737550265.959,-33.691,-17.578,-16.602,970.703,0.000
1737550265.962,-27.832,-21.973,-19.043,970.703,0.000
1737550265.966,9.277,-24.414,-20.020,970.215,0.000
1737550265.970,24.902,-11.230,-20.508,971.191,0.000
1737550265.974,6.836,-8.301,-27.832,968.262,0.000
1737550265.978,-16.602,-16.602,-35.156,969.727,0.000
1737550265.982,-5.371,-21.484,-26.367,958.008,0.000
1737550265.986,11.230,-29.785,-15.625,935.547,0.000
1737550265.990,8.301,-30.762,-19.531,999.512,0.000
1737550265.994,-69.336,-23.438,-28.320,47.852,0.000
1737550265.998,-132.812,-28.809,-24.902,-902.344,0.000
1737550266.002,-8.789,-15.137,-19.043,289.551,0.000
1737550266.005,77.148,-1.953,-22.461,999.512,0.000
1737550266.009,49.316,-8.301,-23.926,768.066,0.000
1737550266.013,-32.227,-15.137,-18.066,-340.332,0.000
1737550266.017,-102.539,-18.555,-17.578,-1000.000,0.000
1737550266.021,-14.648,-11.230,-14.160,-238.281,0.000
1737550266.025,106.934,-3.418,-12.695,999.512,0.000
1737550266.029,51.270,-13.672,-19.531,542.969,0.000
1737550266.033,-50.781,-23.438,-29.785,-753.906,0.000
1737550266.037,-79.102,-15.625,-31.738,-1000.000,0.000
1737550266.041,-37.598,-9.277,-12.695,-659.180,0.000
1737550266.045,69.336,-16.602,-6.836,819.336,0.000
1737550266.048,37.109,-28.809,-13.672,409.668,0.000
1737550266.052,-73.730,-28.809,-21.484,-1000.000,0.000
1737550266.056,-93.262,-18.555,-22.461,-985.840,0.000
1737550266.060,-80.566,-15.625,-15.137,-1000.000,0.000
1737550266.064,7.812,-20.508,-16.602,-138.672,0.000
1737550266.068,20.508,-18.066,-20.996,-47.852,0.000
1737550266.072,-52.734,-13.184,-27.344,-1000.000,0.000
1737550266.076,-48.340,-9.277,-25.879,-982.910,0.000
1737550266.080,-62.012,-15.137,-16.602,-1000.000,0.000
1737550266.084,-35.645,-21.484,-10.742,-773.926,0.000
1737550266.087,2.441,-21.973,-18.555,-688.477,0.000
1737550266.091,-6.348,-25.879,-32.715,-1000.000,0.000
1737550266.095,-22.461,-23.438,-30.273,-992.676,0.000
1737550266.099,-52.734,-11.230,-18.555,-1000.000,0.000
1737550266.103,-19.531,-14.648,-7.812,-895.996,0.000
1737550266.107,8.789,-28.809,-11.230,-851.562,0.000
1737550266.111,-2.441,-18.066,-19.043,-1000.000,0.000
1737550266.115,-9.277,-11.719,-26.855,-992.676,0.000
1737550266.119,-46.387,-19.043,-27.344,-1000.000,0.000
1737550266.123,-40.039,-22.949,-16.602,-914.551,0.000
1737550266.127,-2.441,-21.973,-15.137,-865.234,0.000
1737550266.130,-0.488,-20.508,-21.973,-1000.000,0.000
1737550266.134,-17.090,-19.043,-20.996,-966.309,0.000
1737550266.138,-43.945,-28.320,-19.043,-1000.000,0.000
1737550266.142,-20.508,-34.668,-23.926,-771.484,0.000
1737550266.146,27.832,-23.438,-33.203,-301.270,0.000
1737550266.150,-14.160,-20.508,-34.668,-850.098,0.000
1737550266.154,-50.781,-20.508,-27.832,-1000.000,0.000
1737550266.158,-60.547,-17.578,-20.996,-966.797,0.000
1737550266.162,-62.012,-19.531,-16.113,-1000.000,0.000
1737550266.166,-37.109,-26.855,-17.578,-1000.000,0.000
1737550266.170,-26.367,-28.320,-27.344,-1000.000,0.000
1737550266.173,-15.137,-19.531,-32.227,-1000.000,0.000
1737550266.177,-29.297,-21.973,-25.879,-1000.000,0.000
1737550266.181,-29.785,-17.578,-28.809,-1000.000,0.000
1737550266.185,-9.766,-9.277,-27.832,-1000.000,0.000
1737550266.189,-13.184,-12.207,-21.484,-1000.000,0.000
1737550266.193,-17.090,-14.648,-28.809,-1000.000,0.000
1737550266.197,-44.922,-10.742,-37.598,-1000.000,0.000
1737550266.201,-53.711,-7.812,-33.203,-1000.000,0.000
1737550266.205,-33.203,-9.766,-31.738,-1000.000,0.000
1737550266.209,-19.531,-11.719,-30.762,-1000.000,0.000
1737550266.212,-25.391,-17.090,-26.367,-1000.000,0.000
1737550266.216,-47.363,-22.461,-23.926,-1000.000,0.000
1737550266.220,-66.895,-20.996,-33.203,-1000.000,0.000
1737550266.224,-49.316,-21.484,-35.645,-1000.000,0.000
1737550266.228,-15.137,-22.461,-26.367,-1000.000,0.000
1737550266.232,-13.184,-22.461,-23.926,-1000.000,0.000
1737550266.236,-45.410,-13.184,-21.484,-1000.000,0.000
1737550266.240,-65.918,-12.695,-14.648,-1000.000,0.000
1737550266.244,-40.039,-18.066,-24.902,-1000.000,0.000
1737550266.248,-13.184,-11.230,-36.621,-1000.000,0.000
1737550266.252,-9.766,-11.719,-24.902,-1000.000,0.000
1737550266.255,-24.902,-14.648,-9.277,-958.008,0.000
1737550266.259,-59.082,-19.043,-9.766,-1000.000,0.000
1737550266.263,0.000,-20.020,-18.066,-548.340,0.000
1737550266.267,45.410,-20.020,-22.461,-196.777,0.000
1737550266.271,-21.484,-29.785,-31.250,-983.887,0.000
1737550266.275,-51.758,-29.785,-31.738,-974.609,0.000
1737550266.279,-86.914,-23.926,-17.090,-1000.000,0.000
1737550266.283,-30.273,-22.461,-10.742,-502.930,0.000
1737550266.287,51.758,-28.809,-12.207,342.285,0.000
1737550266.291,-23.438,-32.227,-20.508,-669.434,0.000
1737550266.294,-66.406,-23.926,-30.762,-1000.000,0.000
1737550266.298,-72.754,-23.926,-24.414,-1000.000,0.000
1737550266.302,-7.812,-21.973,-16.602,-375.977,0.000
1737550266.306,112.793,-6.836,-21.484,999.512,0.000
1737550266.310,33.691,-17.578,-25.879,-72.754,0.000
1737550266.314,-53.711,-24.902,-23.926,-1000.000,0.000
1737550266.318,-62.500,-10.254,-22.461,-1000.000,0.000
1737550266.322,-16.113,-11.719,-18.555,-357.422,0.000
1737550266.326,97.168,-14.648,-14.160,999.512,0.000
1737550266.330,41.504,-20.508,-20.996,254.883,0.000
1737550266.334,-47.852,-19.531,-27.344,-990.723,0.000
1737550266.337,-71.289,-21.484,-22.949,-1000.000,0.000
1737550266.341,-30.762,-18.555,-24.902,-342.773,0.000
1737550266.345,75.684,-9.766,-20.996,999.512,0.000
1737550266.349,25.391,-13.672,-11.230,510.254,0.000
1737550266.353,-88.379,-14.160,-11.719,-788.574,0.000
1737550266.357,-125.000,-18.555,-15.625,-1000.000,0.000
1737550266.361,-66.895,-20.996,-16.113,-401.855,0.000
1737550266.365,42.480,-19.531,-16.602,999.512,0.000
1737550266.369,20.020,-25.391,-19.531,649.902,0.000
1737550266.373,-85.449,-22.949,-27.832,-662.598,0.000
1737550266.377,-125.977,-17.090,-23.438,-1000.000,0.000
1737550266.380,-63.965,-19.043,-15.625,-338.379,0.000
1737550266.384,41.504,-17.578,-16.602,985.352,0.000
1737550266.388,20.508,-23.438,-21.484,850.098,0.000
1737550266.392,-90.820,-34.668,-26.855,-343.750,0.000
1737550266.396,-145.996,-35.645,-23.438,-1000.000,0.000
1737550266.400,-76.172,-25.391,-14.160,-495.605,0.000
1737550266.404,26.855,-12.695,-10.254,809.570,0.000
1737550266.408,45.898,-12.207,-14.648,999.512,0.000
1737550266.412,-32.227,-13.672,-23.438,-15.625,0.000
1737550266.416,-122.559,-14.160,-30.762,-1000.000,0.000
1737550266.419,-79.590,-14.160,-26.855,-595.215,0.000
1737550266.423,34.668,-10.742,-15.625,747.559,0.000
1737550266.427,52.734,-10.742,-17.090,999.512,0.000
1737550266.431,-46.875,-21.973,-20.996,-82.031,0.000
1737550266.435,-113.281,-31.250,-16.113,-1000.000,0.000
1737550266.439,-102.051,-23.926,-23.926,-760.254,0.000
1737550266.443,6.348,-14.648,-24.902,504.883,0.000
1737550266.447,70.312,-19.531,-15.137,999.512,0.000
1737550266.451,20.508,-18.066,-20.996,676.270,0.000
1737550266.455,-48.340,-15.625,-30.762,-287.109,0.000
1737550266.459,-93.750,-21.484,-18.555,-525.391,0.000
1737550266.462,-17.090,-18.066,-11.230,621.582,0.000
1737550266.466,36.621,-12.695,-6.836,999.512,0.000
1737550266.470,22.461,-7.324,-3.418,951.172,0.000
1737550266.474,-47.363,-11.719,-9.766,55.176,0.000
1737550266.478,-142.090,-19.531,-19.531,-1000.000,0.000
1737550266.482,-43.945,-22.461,-17.578,93.750,0.000
1737550266.486,54.688,-28.320,-11.719,999.512,0.000
1737550266.490,35.156,-31.738,-17.090,937.988,0.000
1737550266.494,-40.527,-22.461,-27.832,19.043,0.000
1737550266.498,-133.789,-21.484,-27.344,-1000.000,0.000
1737550266.502,-45.410,-20.020,-22.949,-90.820,0.000
1737550266.505,49.805,-15.625,-35.645,999.512,0.000
1737550266.509,25.391,-24.414,-31.250,888.184,0.000
1737550266.513,-57.129,-37.109,-16.113,-197.266,0.000
1737550266.517,-133.301,-31.738,-17.578,-1000.000,0.000
1737550266.521,-28.320,-19.043,-16.113,-65.430,0.000
1737550266.525,68.359,-17.578,-11.719,999.512,0.000
1737550266.529,45.410,-15.625,-14.648,998.047,0.000
1737550266.533,-32.715,-24.902,-17.090,154.785,0.000
1737550266.537,-131.348,-33.203,-18.066,-1000.000,0.000
1737550266.541,-75.195,-30.762,-20.020,-184.082,0.000
1737550266.545,27.344,-29.297,-23.926,999.512,0.000
1737550266.548,33.203,-36.621,-34.668,994.141,0.000
1737550266.552,-16.113,-41.992,-36.133,493.164,0.000
1737550266.556,-121.094,-34.180,-35.156,-839.355,0.000
1737550266.560,-93.262,-21.973,-32.715,-327.637,0.000
1737550266.564,19.043,-17.090,-18.555,982.910,0.000
1737550266.568,33.203,-17.090,-15.137,999.512,0.000
1737550266.572,-17.578,-23.438,-25.879,561.035,0.000
1737550266.576,-134.766,-30.273,-28.320,-832.520,0.000
1737550266.580,-127.441,-26.367,-21.484,-593.262,0.000
1737550266.584,2.930,-15.625,-16.602,809.082,0.000
1737550266.587,33.203,-13.184,-14.648,999.512,0.000
1737550266.591,-9.766,-21.973,-14.648,605.469,0.000
1737550266.595,-104.004,-26.367,-21.484,-643.066,0.000
1737550266.599,-130.859,-20.996,-27.344,-937.012,0.000
1737550266.603,-6.836,-9.277,-23.926,390.137,0.000
1737550266.607,43.945,-2.930,-20.020,999.512,0.000
1737550266.611,-6.836,-6.348,-13.672,774.902,0.000
1737550266.615,-99.121,-18.066,-17.578,-356.445,0.000
1737550266.619,-163.086,-25.879,-37.109,-1000.000,0.000
1737550266.623,-41.992,-24.414,-24.902,208.984,0.000
1737550266.626,47.852,-17.578,-13.184,999.512,0.000
1737550266.630,11.230,-7.324,-15.137,777.344,0.000
1737550266.634,-85.449,-15.137,-10.254,-374.023,0.000
1737550266.638,-153.809,-20.996,-23.438,-1000.000,0.000
1737550266.642,-46.387,-14.160,-30.273,85.449,0.000
1737550266.646,39.551,-14.648,-19.531,999.512,0.000
1737550266.650,10.742,-19.043,-7.324,782.227,0.000
1737550266.654,-81.543,-25.391,-5.371,-378.418,0.000
1737550266.658,-144.531,-26.367,-13.672,-1000.000,0.000
1737550266.662,-35.645,-18.555,-16.113,110.840,0.000
1737550266.666,38.086,-15.137,-6.348,999.512,0.000
1737550266.669,27.344,-11.230,-7.324,946.289,0.000
1737550266.673,-30.762,-17.578,-25.391,119.141,0.000
1737550266.677,-150.391,-33.203,-25.879,-1000.000,0.000
1737550266.681,-78.125,-23.926,-4.883,-192.871,0.000
1737550266.685,43.945,-7.812,-8.301,999.512,0.000
1737550266.689,36.621,-9.277,-24.414,956.055,0.000
1737550266.693,-40.039,-13.672,-25.879,-30.273,0.000
1737550266.697,-147.461,-24.414,-16.602,-1000.000,0.000
1737550266.701,-80.566,-20.508,-10.742,-244.629,0.000
1737550266.705,42.480,-8.301,-11.719,999.512,0.000
1737550266.709,36.621,-16.602,-20.020,999.512,0.000
1737550266.712,-28.809,-14.160,-26.855,174.316,0.000
1737550266.716,-128.418,-12.207,-25.879,-1000.000,0.000
1737550266.720,-66.895,-18.555,-16.113,-290.039,0.000
1737550266.724,53.711,-12.695,-10.254,987.305,0.000
1737550266.728,51.758,-3.418,-14.648,999.512,0.000
1737550266.732,24.414,-3.418,-10.254,681.641,0.000
1737550266.736,-86.426,-13.184,-2.441,-677.246,0.000
1737550266.740,-91.797,-14.160,-5.371,-606.445,0.000
1737550266.744,38.086,-7.324,-14.648,824.219,0.000
1737550266.748,62.988,2.930,-25.879,999.512,0.000
1737550266.752,36.621,4.883,-27.344,799.805,0.000
1737550266.755,-68.848,-5.371,-19.043,-365.723,0.000
1737550266.759,-128.906,-18.066,-10.254,-881.836,0.000
1737550266.763,-11.230,-13.672,-8.789,451.660,0.000
1737550266.767,51.758,-6.348,-16.113,999.512,0.000
1737550266.771,6.836,-8.789,-12.207,564.941,0.000
1737550266.775,-85.938,-12.695,-6.348,-722.168,0.000
1737550266.779,-115.234,-18.555,-9.766,-914.062,0.000
1737550266.783,-22.949,-23.926,-10.742,406.250,0.000
1737550266.787,39.551,-11.719,-13.184,999.512,0.000
1737550266.791,8.301,0.000,-22.461,706.543,0.000
1737550266.794,-99.609,-7.812,-31.250,-493.652,0.000
1737550266.798,-147.949,-2.930,-40.527,-1000.000,0.000
1737550266.802,-38.574,2.930,-43.945,144.531,0.000
1737550266.806,44.922,1.953,-37.598,999.512,0.000
1737550266.810,7.324,1.953,-32.227,569.336,0.000
1737550266.814,-84.473,-9.277,-38.086,-671.875,0.000
1737550266.818,-129.883,-15.137,-50.781,-1000.000,0.000
1737550266.822,-26.367,-8.301,-51.270,-43.457,0.000
1737550266.826,72.754,-6.836,-43.945,999.512,0.000
1737550266.830,23.926,-20.508,-37.109,565.430,0.000
1737550266.834,-78.613,-15.137,-31.250,-694.336,0.000
1737550266.837,-125.488,-4.883,-34.668,-1000.000,0.000
1737550266.841,-50.293,-10.742,-46.387,-146.484,0.000
1737550266.845,50.293,-9.766,-47.852,999.512,0.000
1737550266.849,37.598,-14.160,-33.203,853.516,0.000
1737550266.853,-57.617,-32.715,-23.438,-281.738,0.000
1737550266.857,-136.230,-32.715,-32.715,-1000.000,0.000
1737550266.861,-67.383,-19.531,-40.527,-369.629,0.000
1737550266.865,60.059,-11.719,-42.480,992.676,0.000
1737550266.869,48.828,-11.230,-39.062,834.473,0.000
1737550266.873,-53.711,-17.090,-28.809,-364.258,0.000
1737550266.877,-122.070,-31.250,-28.320,-1000.000,0.000
1737550266.880,-78.613,-34.180,-41.504,-524.902,0.000
1737550266.884,29.785,-16.602,-33.691,795.898,0.000
1737550266.888,42.480,-11.719,-20.996,999.512,0.000
1737550266.892,-47.363,-15.625,-22.461,-125.000,0.000
1737550266.896,-128.906,-27.832,-20.996,-1000.000,0.000
1737550266.900,-99.609,-29.297,-27.344,-729.980,0.000
1737550266.904,27.344,-6.348,-32.227,614.746,0.000
1737550266.908,63.477,-8.301,-23.438,982.422,0.000
1737550266.912,-28.809,-18.555,-17.090,-254.883,0.000
1737550266.916,-99.609,-18.066,-17.578,-1000.000,0.000
1737550266.919,-76.172,-17.578,-18.066,-776.367,0.000
1737550266.923,29.297,-20.020,-21.973,449.707,0.000
1737550266.927,74.219,-17.090,-20.020,999.512,0.000
1737550266.931,-17.090,-16.113,-20.508,119.141,0.000
1737550266.935,-108.398,-15.137,-16.113,-1000.000,0.000
1737550266.939,-80.078,-4.395,-13.184,-776.855,0.000
1737550266.943,22.949,-3.906,-18.555,476.562,0.000
1737550266.947,66.406,-12.207,-27.832,999.512,0.000
1737550266.951,10.254,-26.367,-27.832,379.883,0.000
1737550266.955,-89.844,-28.320,-18.066,-928.711,0.000
1737550266.959,-104.980,-20.996,-17.578,-906.250,0.000
1737550266.962,13.672,-16.602,-20.020,356.934,0.000
1737550266.966,78.125,-22.461,-21.484,999.512,0.000
1737550266.970,12.207,-24.414,-20.508,481.934,0.000
1737550266.974,-74.707,-15.625,-17.090,-771.973,0.000
1737550266.978,-110.840,-11.719,-22.949,-1000.000,0.000
1737550266.982,-27.344,-8.789,-26.855,8.789,0.000
1737550266.986,74.219,0.488,-27.344,999.512,0.000
1737550266.990,-0.977,-10.254,-38.086,263.184,0.000
1737550266.994,-111.328,-30.762,-34.180,-953.613,0.000
1737550266.998,-119.141,-26.855,-16.602,-1000.000,0.000
1737550267.001,-59.082,-10.254,-6.836,-479.004,0.000
1737550267.005,48.340,-8.301,-9.277,998.047,0.000
1737550267.009,0.000,-19.043,-15.137,168.457,0.000
1737550267.013,-95.215,-18.555,-10.742,-1000.000,0.000
1737550267.017,-102.539,-17.578,-15.137,-1000.000,0.000
1737550267.021,-71.777,-15.137,-14.648,-744.629,0.000
1737550267.025,55.664,-7.812,-7.812,726.562,0.000
1737550267.029,25.879,-13.184,-20.020,285.156,0.000
1737550267.033,-78.125,-18.555,-18.555,-1000.000,0.000
1737550267.037,-88.867,-17.578,-16.602,-981.934,0.000
1737550267.041,-84.473,-20.508,-16.113,-1000.000,0.000
1737550267.044,20.508,-10.742,-21.484,63.965,0.000
1737550267.048,21.973,-20.020,-40.527,41.992,0.000
1737550267.052,-56.152,-34.668,-28.320,-1000.000,0.000
1737550267.056,-61.523,-19.043,-5.859,-969.727,0.000
1737550267.060,-80.078,-5.859,-14.160,-1000.000,0.000
1737550267.064,-15.625,-6.348,-25.391,-425.781,0.000
1737550267.068,10.254,-16.113,-21.484,-320.312,0.000
1737550267.072,-41.016,-29.297,-22.949,-1000.000,0.000
1737550267.076,-58.594,-22.461,-26.855,-972.168,0.000
1737550267.080,-72.266,-13.672,-27.344,-1000.000,0.000
1737550267.083,2.930,-13.672,-34.668,-453.613,0.000
1737550267.087,23.438,-24.414,-36.133,-329.102,0.000
1737550267.091,-24.414,-29.785,-26.367,-1000.000,0.000
1737550267.095,-37.109,-26.367,-14.648,-946.777,0.000
1737550267.099,-75.195,-17.578,-5.859,-1000.000,0.000
1737550267.103,-12.695,-14.160,-7.324,-481.934,0.000
1737550267.107,63.477,-14.648,-8.789,206.543,0.000
1737550267.111,-0.488,-10.254,-13.672,-769.531,0.000
1737550267.115,-49.805,-17.578,-21.484,-1000.000,0.000
1737550267.119,-73.730,-27.832,-18.066,-1000.000,0.000
1737550267.123,-42.480,-28.320,-26.367,-647.461,0.000
1737550267.126,54.199,-20.996,-29.785,452.148,0.000
1737550267.130,5.371,-15.137,-19.043,-298.340,0.000
1737550267.134,-80.078,-19.043,-18.066,-1000.000,0.000
1737550267.138,-93.262,-28.320,-18.066,-1000.000,0.000
1737550267.142,-31.250,-26.855,-18.066,-466.309,0.000
1737550267.146,61.035,-20.020,-14.648,999.512,0.000
1737550267.150,-17.090,-22.949,-11.719,107.910,0.000
1737550267.154,-118.652,-25.879,-11.719,-1000.000,0.000
1737550267.158,-127.930,-26.367,-13.184,-1000.000,0.000
1737550267.162,-81.543,-21.484,-13.184,-658.691,0.000
1737550267.166,41.016,-17.578,-7.812,825.684,0.000
1737550267.169,10.254,-17.090,-13.672,223.633,0.000
1737550267.173,-96.680,-22.461,-21.973,-1000.000,0.000
1737550267.177,-108.887,-25.391,-19.531,-1000.000,0.000
1737550267.181,-82.031,-23.438,-20.508,-828.613,0.000
1737550267.185,34.180,-17.090,-20.996,558.105,0.000
1737550267.189,49.316,-7.324,-12.695,545.898,0.000
1737550267.193,-62.500,-18.066,-5.859,-870.117,0.000
1737550267.197,-101.074,-33.691,-9.766,-1000.000,0.000
1737550267.201,-67.383,-17.090,-18.555,-821.777,0.000
1737550267.205,42.480,-0.977,-19.043,524.414,0.000
1737550267.209,56.152,-9.277,-16.602,668.945,0.000
1737550267.212,-59.570,-21.484,-19.531,-732.910,0.000
1737550267.216,-103.516,-20.996,-19.043,-1000.000,0.000
1737550267.220,-68.359,-14.160,-23.438,-704.102,0.000
1737550267.224,37.598,-10.254,-28.320,645.508,0.000
1737550267.228,52.246,-23.438,-12.207,848.633,0.000
1737550267.232,-55.176,-33.203,-7.324,-479.980,0.000
1737550267.236,-110.352,-31.738,-20.996,-1000.000,0.000
1737550267.240,-99.609,-27.344,-20.508,-783.203,0.000
1737550267.244,-17.578,-14.160,-5.859,466.797,0.000
1737550267.248,41.504,-7.812,-5.371,999.512,0.000
1737550267.252,-61.035,-20.020,-17.578,-128.906,0.000
1737550267.255,-147.949,-28.809,-22.949,-1000.000,0.000
1737550267.259,-127.930,-21.973,-17.578,-907.715,0.000
1737550267.263,-31.250,-14.160,-13.184,200.195,0.000
1737550267.267,53.711,-5.371,-18.555,999.512,0.000
1737550267.271,-0.977,-7.324,-17.090,372.070,0.000
1737550267.275,-124.023,-24.414,-19.531,-907.227,0.000
1737550267.279,-148.926,-30.762,-36.133,-1000.000,0.000
1737550267.283,-35.645,-26.367,-40.039,82.520,0.000
1737550267.287,61.523,-17.090,-24.902,999.512,0.000
1737550267.291,-1.465,-7.812,-8.789,363.770,0.000
1737550267.294,-112.793,-12.695,-10.742,-897.949,0.000
1737550267.298,-137.695,-15.625,-19.043,-1000.000,0.000
1737550267.302,-29.297,-9.766,-17.578,-67.383,0.000
1737550267.306,64.941,-17.578,-18.066,999.512,0.000
1737550267.310,-14.160,-23.926,-22.949,350.098,0.000
1737550267.314,-110.352,-17.090,-28.809,-895.020,0.000
1737550267.318,-138.672,-19.531,-43.457,-1000.000,0.000
1737550267.322,-64.941,-27.344,-45.410,-212.402,0.000
1737550267.326,40.039,-25.879,-25.391,999.512,0.000
1737550267.330,1.465,-23.926,-12.695,533.691,0.000
1737550267.334,-93.750,-28.320,-11.719,-740.234,0.000
1737550267.337,-143.066,-21.973,-12.207,-1000.000,0.000
1737550267.341,-68.848,-18.066,-14.160,-222.656,0.000
1737550267.345,44.434,-21.484,-15.625,999.512,0.000
1737550267.349,33.691,-20.996,-20.996,840.820,0.000
1737550267.353,-60.547,-20.508,-31.250,-277.344,0.000
1737550267.357,-150.391,-25.391,-28.809,-1000.000,0.000
1737550267.361,-77.148,-19.043,-21.973,-309.570,0.000
1737550267.365,39.551,-9.277,-13.184,999.512,0.000
1737550267.369,29.785,-14.648,-4.395,890.137,0.000
1737550267.373,-53.223,-16.113,-3.418,-221.680,0.000
1737550267.376,-124.023,-22.949,-7.812,-1000.000,0.000
1737550267.380,-59.082,-14.160,-10.742,-278.320,0.000
1737550267.384,33.203,-5.371,-10.742,965.820,0.000
1737550267.388,37.109,-3.906,-8.301,999.512,0.000
1737550267.392,-24.902,-10.742,-7.812,187.500,0.000
1737550267.396,-132.324,-25.391,-18.066,-1000.000,0.000
1737550267.400,-101.074,-25.391,-24.414,-594.238,0.000
1737550267.404,14.648,-9.277,-28.809,736.328,0.000
1737550267.408,42.969,5.859,-27.832,999.512,0.000
1737550267.412,-11.719,3.906,-14.160,465.332,0.000
1737550267.416,-124.512,-8.301,-14.160,-853.516,0.000
1737550267.419,-130.859,-18.555,-15.625,-841.797,0.000
1737550267.423,-4.395,-16.602,-15.625,480.469,0.000
1737550267.427,63.477,-10.742,-18.555,999.512,0.000
1737550267.431,-4.395,-16.602,-17.090,351.074,0.000
1737550267.435,-115.723,-24.902,-15.137,-906.250,0.000
1737550267.439,-125.977,-27.344,-23.926,-987.305,0.000
1737550267.443,-2.930,-18.555,-19.043,204.102,0.000
1737550267.447,72.266,-16.602,-14.160,999.512,0.000
1737550267.451,6.348,-17.578,-19.531,448.730,0.000
1737550267.455,-91.309,-16.602,-18.066,-854.004,0.000
1737550267.458,-110.840,-12.695,-10.254,-962.891,0.000
1737550267.462,-1.953,-3.906,-7.324,288.086,0.000
1737550267.466,64.453,-3.906,-8.789,999.512,0.000
1737550267.470,19.043,-11.719,-4.883,733.398,0.000
1737550267.474,-70.312,-15.625,-2.930,-397.461,0.000
1737550267.478,-129.395,-19.043,-14.160,-1000.000,0.000
1737550267.482,-21.484,-21.484,-20.996,28.320,0.000
1737550267.486,64.941,-15.625,-7.324,999.512,0.000
1737550267.490,20.996,-19.043,-8.301,883.301,0.000
1737550267.494,-50.293,-22.949,-5.371,-90.332,0.000
1737550267.498,-139.648,-18.555,-3.906,-1000.000,0.000
1737550267.501,-62.500,-5.371,-10.742,-107.910,0.000
1737550267.505,48.828,5.859,-11.230,999.512,0.000
1737550267.509,13.184,-2.441,-16.602,832.520,0.000
1737550267.513,-82.520,-16.602,-22.949,-276.855,0.000
1737550267.517,-151.855,-17.578,-23.438,-1000.000,0.000
1737550267.521,-65.918,-14.160,-19.043,-202.148,0.000
1737550267.525,37.598,-11.230,-12.207,999.512,0.000
1737550267.529,41.016,-12.695,-1.465,991.211,0.000
1737550267.533,-34.180,-12.207,-9.766,137.207,0.000
1737550267.537,-140.137,-8.301,-27.344,-1000.000,0.000
1737550267.541,-85.449,-8.301,-32.227,-437.988,0.000
1737550267.544,9.277,-17.090,-28.809,886.230,0.000
1737550267.548,17.578,-9.277,-7.812,999.512,0.000
1737550267.552,-36.621,-6.348,1.465,418.457,0.000
1737550267.556,-167.969,-16.113,-5.859,-952.637,0.000
1737550267.560,-163.574,-16.602,-16.602,-534.668,0.000
1737550267.564,-28.809,-13.184,-14.160,847.168,0.000
1737550267.568,-6.348,-18.066,-6.348,999.512,0.000
1737550267.572,-57.129,-29.785,-13.184,605.957,0.000
1737550267.576,-144.531,-33.203,-14.648,-645.020,0.000
1737550267.580,-170.898,-31.738,-16.113,-892.090,0.000
1737550267.583,-44.922,-25.391,-19.531,418.945,0.000
1737550267.587,32.227,-13.672,-25.879,999.512,0.000
1737550267.591,-27.832,-11.719,-27.832,435.059,0.000
1737550267.595,-121.582,-16.113,-13.184,-843.262,0.000
1737550267.599,-132.812,-22.949,-4.395,-953.125,0.000
1737550267.603,-23.926,-35.645,-12.695,283.691,0.000
1737550267.607,56.641,-32.227,-19.043,999.512,0.000
1737550267.611,1.465,-24.414,-18.555,448.730,0.000
1737550267.615,-108.398,-29.297,-15.625,-800.293,0.000
1737550267.619,-140.137,-26.855,-16.602,-1000.000,0.000
1737550267.623,-29.785,-12.207,-20.508,94.727,0.000
1737550267.626,52.734,-10.254,-26.367,999.512,0.000
1737550267.630,16.602,-15.137,-26.855,734.375,0.000
1737550267.634,-67.871,-12.695,-21.973,-391.602,0.000
1737550267.638,-134.766,-19.043,-33.691,-1000.000,0.000
1737550267.642,-42.480,-20.020,-31.738,-2.441,0.000
1737550267.646,56.152,-12.207,-18.066,999.512,0.000
1737550267.650,20.996,-29.785,-19.043,793.945,0.000
1737550267.654,-79.590,-33.691,-15.625,-309.570,0.000
1737550267.658,-156.738,-14.160,-15.137,-1000.000,0.000
1737550267.662,-78.613,-8.301,-16.602,-247.070,0.000
1737550267.665,37.109,-8.301,-16.602,999.512,0.000
1737550267.669,18.555,-10.254,-18.066,803.223,0.000
1737550267.673,-72.754,-20.020,-22.949,-345.703,0.000
1737550267.677,-130.371,-27.344,-28.809,-1000.000,0.000
1737550267.681,-39.062,-18.555,-20.508,-178.711,0.000
1737550267.685,48.828,-8.301,-13.184,986.328,0.000
1737550267.689,34.180,-5.859,-12.207,999.512,0.000
1737550267.693,-26.855,-16.602,-20.996,331.543,0.000
1737550267.697,-139.160,-29.297,-31.738,-1000.000,0.000
1737550267.701,-84.961,-27.832,-18.555,-330.078,0.000
1737550267.705,40.527,-12.695,-4.395,982.422,0.000
1737550267.708,42.969,-5.371,-14.648,999.512,0.000
1737550267.712,0.977,-11.719,-20.996,604.492,0.000
1737550267.716,-103.027,-24.414,-16.113,-783.691,0.000
1737550267.720,-102.051,-26.855,-14.648,-520.020,0.000
1737550267.724,20.020,-17.578,-25.879,894.043,0.000
1737550267.728,44.922,-14.160,-25.879,999.512,0.000
1737550267.732,17.578,-13.184,-15.625,778.320,0.000
1737550267.736,-88.867,-13.672,-14.160,-493.652,0.000
1737550267.740,-115.723,-18.555,-16.113,-614.746,0.000
1737550267.744,6.836,-20.020,-15.625,792.480,0.000
1737550267.748,35.156,-20.020,-17.090,999.512,0.000
1737550267.751,-2.930,-17.090,-23.926,574.707,0.000
1737550267.755,-104.492,-25.391,-18.066,-710.938,0.000
1737550267.759,-122.559,-39.551,-11.230,-771.484,0.000
1737550267.763,19.043,-17.578,-29.297,595.703,0.000
1737550267.767,67.871,-1.465,-31.738,999.512,0.000
1737550267.771,11.719,-7.324,-23.438,559.570,0.000
1737550267.775,-96.191,-19.043,-23.926,-664.062,0.000
1737550267.779,-153.809,-23.926,-16.113,-1000.000,0.000
1737550267.783,-51.758,-12.695,-4.883,168.457,0.000
1737550267.787,28.320,-6.836,-9.766,999.512,0.000
1737550267.790,6.836,-13.672,-21.973,668.457,0.000
1737550267.794,-82.031,-31.738,-22.461,-509.277,0.000
1737550267.798,-143.555,-40.039,-25.391,-1000.000,0.000
1737550267.802,-39.551,-24.902,-24.414,-50.293,0.000
1737550267.806,54.199,-19.043,-14.648,999.512,0.000
1737550267.810,-6.348,-18.066,-18.066,548.340,0.000
1737550267.814,-97.656,-12.695,-19.043,-706.543,0.000
1737550267.818,-117.188,-20.020,-18.066,-1000.000,0.000
1737550267.822,-26.367,-28.320,-32.715,-126.465,0.000
1737550267.826,60.059,-22.461,-34.668,999.512,0.000
1737550267.830,32.227,-6.836,-28.320,839.355,0.000
1737550267.833,-48.340,-11.719,-29.785,-251.953,0.000
1737550267.837,-114.258,-31.250,-18.066,-1000.000,0.000
1737550267.841,-38.574,-34.180,-14.648,-286.133,0.000
1737550267.845,75.684,-21.973,-20.996,999.512,0.000
1737550267.849,51.270,-9.766,-26.855,809.082,0.000
1737550267.853,-51.270,-10.742,-27.832,-366.699,0.000
1737550267.857,-127.441,-22.461,-23.438,-1000.000,0.000
1737550267.861,-46.387,-20.020,-22.461,-250.488,0.000
1737550267.865,69.336,-9.766,-21.973,966.309,0.000
1737550267.869,62.988,-6.836,-31.250,999.512,0.000
1737550267.873,-3.906,-8.789,-41.016,231.445,0.000
1737550267.876,-117.188,-25.391,-28.809,-1000.000,0.000
1737550267.880,-90.820,-27.832,-13.184,-475.586,0.000
1737550267.884,22.461,-20.996,-7.812,895.996,0.000
1737550267.888,28.320,-20.020,0.977,999.512,0.000
1737550267.892,-60.059,-27.832,-4.883,-11.719,0.000
1737550267.896,-144.531,-34.668,-12.207,-1000.000,0.000
1737550267.900,-109.375,-24.414,-4.883,-730.469,0.000
1737550267.904,19.043,-11.719,-5.859,576.172,0.000
1737550267.908,62.012,-13.672,-6.836,999.512,0.000
1737550267.912,-51.758,-21.973,-6.348,-92.773,0.000
1737550267.915,-136.230,-20.508,-7.812,-1000.000,0.000
1737550267.919,-114.746,-22.949,-4.883,-910.645,0.000
1737550267.923,-3.906,-18.555,-0.977,289.551,0.000
1737550267.927,74.707,-18.066,2.441,999.512,0.000
1737550267.931,-9.277,-26.367,-12.207,-85.938,0.000
1737550267.935,-116.211,-28.809,-33.691,-1000.000,0.000
1737550267.939,-124.023,-25.391,-22.461,-1000.000,0.000
1737550267.943,-20.020,-19.531,-3.906,-9.277,0.000
1737550267.947,61.035,-25.879,-2.441,999.512,0.000
1737550267.951,-24.414,-33.691,-17.090,136.719,0.000
1737550267.955,-129.395,-26.855,-31.250,-1000.000,0.000
1737550267.958,-137.207,-25.391,-27.344,-1000.000,0.000
1737550267.962,-40.527,-24.902,-14.648,-47.852,0.000
1737550267.966,49.805,-20.020,-3.418,999.512,0.000
1737550267.970,-5.859,-17.090,-0.488,401.855,0.000
1737550267.974,-102.051,-19.043,-8.301,-820.312,0.000
1737550267.978,-141.113,-28.320,-16.113,-1000.000,0.000
1737550267.982,-49.805,-33.203,-19.531,-213.379,0.000
1737550267.986,52.246,-23.926,-12.695,999.512,0.000
1737550267.990,-22.949,-21.973,-8.301,481.445,0.000
1737550267.994,-118.652,-23.926,-18.555,-777.344,0.000
1737550267.998,-151.855,-34.180,-21.973,-1000.000,0.000
1737550268.001,-87.402,-35.645,-22.949,-404.785,0.000
1737550268.005,41.992,-16.113,-31.738,999.512,0.000
1737550268.009,11.230,-8.789,-22.949,536.621,0.000
1737550268.013,-83.496,-14.648,-13.672,-784.668,0.000
1737550268.017,-110.352,-11.230,-11.719,-1000.000,0.000
1737550268.021,-64.941,-23.438,-13.672,-391.113,0.000
1737550268.025,31.738,-31.250,-18.555,962.402,0.000
1737550268.029,26.367,-10.742,-10.742,813.965,0.000
1737550268.033,-64.453,-9.766,-13.184,-403.809,0.000
1737550268.037,-132.324,-16.113,-21.973,-1000.000,0.000
1737550268.040,-85.449,-16.602,-20.020,-562.012,0.000
1737550268.044,49.316,-12.695,-11.230,821.289,0.000
1737550268.048,62.500,2.930,-5.859,880.859,0.000
1737550268.052,-51.270,-1.465,-10.254,-405.273,0.000
1737550268.056,-120.605,-18.066,-7.812,-1000.000,0.000
1737550268.060,-104.980,-6.836,-2.441,-927.246,0.000
1737550268.064,4.883,7.324,-12.207,346.191,0.000
1737550268.068,28.320,-6.348,-33.203,763.184,0.000
1737550268.072,-88.867,-14.648,-36.621,-653.809,0.000
1737550268.076,-110.840,-13.184,-18.555,-1000.000,0.000
1737550268.080,-91.797,-26.855,-12.207,-1000.000,0.000
1737550268.083,-15.137,-15.625,-18.555,112.793,0.000
1737550268.087,45.898,-4.883,-20.996,944.824,0.000
1737550268.091,-43.945,-23.438,-20.020,-376.465,0.000
1737550268.095,-118.652,-33.203,-20.508,-1000.000,0.000
1737550268.099,-110.840,-21.973,-18.066,-988.770,0.000
1737550268.103,-5.859,-11.719,-21.484,105.469,0.000
1737550268.107,53.223,-8.301,-24.414,999.512,0.000
1737550268.111,-67.383,-11.230,-24.902,-142.578,0.000
1737550268.115,-146.973,-22.949,-25.391,-1000.000,0.000
1737550268.119,-147.461,-40.527,-32.227,-1000.000,0.000
1737550268.122,-44.922,-28.320,-40.527,-224.121,0.000
1737550268.126,53.711,-8.301,-24.414,999.512,0.000
1737550268.130,-39.551,-15.625,-20.020,136.230,0.000
1737550268.134,-140.137,-25.879,-26.855,-1000.000,0.000
1737550268.138,-150.391,-27.344,-23.438,-1000.000,0.000
1737550268.142,-70.312,-30.762,-25.879,-167.480,0.000
1737550268.146,26.367,-33.203,-26.855,999.512,0.000
1737550268.150,-5.859,-25.391,-30.273,680.176,0.000
1737550268.154,-95.703,-12.207,-29.785,-514.648,0.000
1737550268.158,-142.090,-15.625,-30.273,-1000.000,0.000
1737550268.162,-55.176,-22.461,-27.832,-136.719,0.000
1737550268.165,43.945,-11.230,-31.250,999.512,0.000
1737550268.169,14.160,-11.230,-29.297,749.512,0.000
1737550268.173,-85.938,-18.066,-18.555,-425.293,0.000
1737550268.177,-147.461,-18.555,-29.297,-1000.000,0.000
1737550268.181,-50.293,-9.766,-42.969,-75.684,0.000
1737550268.185,64.941,-20.996,-32.715,999.512,0.000
1737550268.189,62.500,-31.738,-4.883,954.590,0.000
1737550268.193,-42.480,-10.254,-12.695,-43.457,0.000
1737550268.197,-131.348,1.465,-28.320,-1000.000,0.000
1737550268.201,-66.406,-16.602,-25.879,-619.141,0.000
1737550268.204,52.246,-20.020,-26.367,759.277,0.000
1737550268.208,55.176,5.859,-27.344,935.059,0.000
1737550268.212,-47.852,-0.977,-21.973,-269.043,0.000
1737550268.216,-129.883,-27.832,-26.367,-1000.000,0.000
1737550268.220,-36.133,-19.531,-19.043,-180.176,0.000
1737550268.224,76.172,-11.230,-15.625,999.512,0.000
1737550268.228,73.242,-7.812,-16.113,941.895,0.000
1737550268.232,81.055,-5.371,-5.859,989.746,0.000
1737550268.236,13.184,-20.508,-5.371,669.922,0.000
1737550268.240,-34.180,-20.508,-10.742,627.930,0.000
1737550268.244,21.973,-13.672,-20.020,999.512,0.000
1737550268.247,63.965,-14.648,-15.625,966.797,0.000
1737550268.251,40.039,-17.578,-0.977,963.867,0.000
1737550268.255,-19.531,-29.297,-8.301,972.168,0.000
1737550268.259,-32.227,-32.715,-14.160,970.703,0.000
1737550268.263,-4.395,-20.508,-16.113,971.191,0.000
1737550268.267,4.883,-23.438,-26.855,963.379,0.000
1737550268.271,-6.348,-27.344,-11.230,992.188,0.000
1737550268.275,-21.973,-14.160,-1.953,881.348,0.000
1737550268.279,-34.668,-10.742,-16.113,846.680,0.000
1737550268.283,-32.227,-23.926,-18.555,960.938,0.000
1737550268.287,-29.785,-37.109,-18.555,960.938,0.000
1737550268.290,-9.766,-26.367,-19.043,931.152,0.000
1737550268.294,-63.965,-10.254,-13.672,-93.750,0.000
1737550268.298,-99.121,-3.418,-16.113,-724.121,0.000
1737550268.302,7.812,-7.812,-16.602,542.480,0.000
1737550268.306,50.293,-12.207,-25.391,999.512,0.000
1737550268.310,30.273,-16.113,-38.086,971.680,0.000
1737550268.314,-16.602,-21.973,-22.949,685.059,0.000
1737550268.318,-79.590,-18.066,-14.648,356.445,0.000
1737550268.322,-20.020,-18.066,-14.648,869.629,0.000
1737550268.326,26.855,-9.277,-10.254,999.512,0.000
1737550268.330,25.391,-5.371,-12.207,944.824,0.000
1737550268.333,-9.766,-22.461,-14.648,975.586,0.000
1737550268.337,-54.199,-28.809,-12.207,970.703,0.000
1737550268.341,-41.992,-18.555,-7.812,970.703,0.000
1737550268.345,-1.465,-13.184,-7.812,968.262,0.000
1737550268.349,31.250,-14.648,-22.461,969.238,0.000
1737550268.353,-0.488,-20.996,-31.738,985.840,0.000
1737550268.357,-66.406,-27.832,-31.250,848.145,0.000
1737550268.361,-63.477,-27.344,-36.133,870.605,0.000
1737550268.365,-14.160,-19.531,-22.949,992.188,0.000
1737550268.369,1.953,-13.672,-10.254,964.355,0.000
1737550268.372,-2.441,-20.996,-14.648,970.703,0.000
1737550268.376,-37.109,-27.832,-19.531,970.703,0.000
1737550268.380,-61.523,-26.855,-24.902,970.703,0.000
1737550268.384,-32.227,-35.156,-20.020,970.703,0.000
1737550268.388,2.930,-31.738,-14.648,970.703,0.000
1737550268.392,13.672,-8.789,-20.508,970.703,0.000
1737550268.396,-23.438,-12.207,-16.113,970.703,0.000
1737550268.400,-59.570,-24.414,-15.137,970.703,0.000
1737550268.404,-29.785,-7.812,-8.789,970.703,0.000
1737550268.408,13.184,-0.977,-3.418,970.703,0.000
1737550268.412,14.160,-9.277,-8.301,970.703,0.000
1737550268.415,-8.301,-9.277,-6.836,970.703,0.000
1737550268.419,-22.949,-15.137,-11.230,970.703,0.000
1737550268.423,-19.531,-20.020,-10.254,970.703,0.000
1737550268.427,-0.488,-15.137,-12.695,970.703,0.000
1737550268.431,8.301,-20.996,-21.973,970.703,0.000
1737550268.435,-17.578,-24.902,-22.949,970.703,0.000
1737550268.439,-40.039,-21.973,-14.648,970.703,0.000
1737550268.443,-28.809,-27.832,-18.066,970.703,0.000
1737550268.447,-6.836,-25.879,-30.762,970.703,0.000
1737550268.451,4.395,-19.531,-9.277,970.703,0.000
1737550268.454,-20.996,-17.090,-3.418,970.703,0.000
1737550268.458,-40.527,-15.625,-12.695,970.703,0.000
1737550268.462,-20.020,-15.137,-4.883,970.703,0.000
1737550268.466,-5.859,-20.508,-17.578,970.703,0.000
1737550268.470,-11.230,-18.066,-14.648,970.703,0.000
1737550268.474,-25.391,-19.531,-2.930,970.703,0.000
1737550268.478,-36.133,-34.180,-26.367,970.703,0.000
1737550268.482,-56.641,-43.945,-36.621,970.703,0.000
1737550268.486,-39.062,-22.949,-19.043,970.215,0.000
1737550268.490,-10.742,-3.906,-12.207,970.703,0.000
1737550268.494,-22.949,-18.555,-14.648,970.703,0.000
1737550268.497,-43.945,-21.484,-3.906,973.633,0.000
1737550268.501,-52.246,-25.391,-4.395,952.148,0.000
1737550268.505,-36.133,-19.043,-15.137,954.590,0.000
1737550268.509,-37.598,-7.812,-20.020,955.566,0.000
1737550268.513,-109.375,-15.625,-27.832,-13.672,0.000
1737550268.517,-180.176,-16.113,-31.738,-1000.000,0.000
1737550268.521,-94.727,-18.555,-35.645,-317.383,0.000
1737550268.525,24.414,-29.785,-27.344,999.512,0.000
1737550268.529,13.184,-29.297,-15.137,716.309,0.000
1737550268.533,-73.242,-35.645,-24.414,-517.090,0.000
1737550268.537,-131.348,-40.527,-28.320,-1000.000,0.000
1737550268.540,-105.957,-34.180,-15.137,-758.301,0.000
1737550268.544,15.137,-21.973,-7.812,567.871,0.000
1737550268.548,69.824,-5.371,-9.766,858.887,0.000
1737550268.552,-38.574,-15.625,-19.531,-460.449,0.000
1737550268.556,-115.723,-21.973,-27.832,-1000.000,0.000
1737550268.560,-93.262,-21.973,-28.809,-905.273,0.000
1737550268.564,18.555,-34.668,-25.391,242.676,0.000
1737550268.568,61.523,-19.531,-15.625,999.512,0.000
1737550268.572,-50.293,-8.789,-12.695,-13.184,0.000
1737550268.576,-137.207,-26.367,-21.973,-1000.000,0.000
1737550268.579,-115.723,-20.020,-20.020,-767.578,0.000
1737550268.583,-3.906,-9.766,-18.066,490.723,0.000
1737550268.587,57.617,-1.465,-17.090,999.512,0.000
1737550268.591,-21.484,-2.930,-21.484,4.883,0.000
1737550268.595,-105.957,-25.391,-27.344,-1000.000,0.000
1737550268.599,-113.770,-37.598,-30.762,-1000.000,0.000
1737550268.603,-18.066,-28.809,-28.320,49.316,0.000
1737550268.607,65.430,-16.602,-21.973,999.512,0.000
1737550268.611,-17.578,-15.137,-26.855,-20.508,0.000
1737550268.615,-106.934,-19.043,-33.203,-1000.000,0.000
1737550268.619,-129.395,-19.531,-25.391,-1000.000,0.000
1737550268.622,-26.855,-17.578,-10.254,-93.750,0.000
1737550268.626,76.172,-27.832,-12.207,999.512,0.000
1737550268.630,-16.113,-32.715,-25.391,29.297,0.000
1737550268.634,-109.375,-28.809,-22.949,-1000.000,0.000
1737550268.638,-94.727,-26.367,-38.086,-1000.000,0.000
1737550268.642,-36.621,-30.762,-51.270,-492.676,0.000
1737550268.646,43.945,-21.973,-24.414,955.566,0.000
1737550268.650,8.789,-18.066,-10.254,139.648,0.000
1737550268.654,-59.082,-23.926,-33.203,-1000.000,0.000
1737550268.658,-59.082,-41.016,-37.109,-1000.000,0.000
1737550268.662,-56.152,-41.992,-8.301,-601.074,0.000
1737550268.665,54.688,-9.277,-13.672,860.840,0.000
1737550268.669,62.988,-8.301,-32.227,587.891,0.000
1737550268.673,-75.195,-32.227,-20.020,-769.043,0.000
1737550268.677,-118.652,-25.391,-39.551,-1000.000,0.000
1737550268.681,-86.914,-8.301,-46.387,-623.535,0.000
1737550268.685,19.043,-5.371,-31.738,779.785,0.000
1737550268.689,22.949,-8.301,-9.766,695.312,0.000
1737550268.693,-70.312,-26.855,8.789,-660.645,0.000
1737550268.697,-110.352,-32.715,-4.395,-1000.000,0.000
1737550268.701,-83.496,-24.902,-12.695,-624.023,0.000
1737550268.704,34.668,-23.438,-15.137,728.027,0.000
1737550268.708,60.547,-8.301,-22.461,885.742,0.000
1737550268.712,-42.969,-0.977,-26.367,-384.766,0.000
1737550268.716,-94.238,-20.996,-17.578,-1000.000,0.000
1737550268.720,-55.664,-26.855,-10.742,-803.711,0.000
1737550268.724,33.691,-9.766,-15.137,526.367,0.000
1737550268.728,43.945,-8.301,-12.207,798.340,0.000
1737550268.732,-49.805,-12.695,-9.766,-595.215,0.000
1737550268.736,-81.543,-3.418,-16.113,-1000.000,0.000
1737550268.740,-82.520,-5.859,-14.160,-1000.000,0.000
1737550268.744,1.953,-20.996,-7.812,77.637,0.000
1737550268.747,59.570,-30.273,-34.180,860.352,0.000
1737550268.751,-59.082,-24.902,-36.133,-518.555,0.000
1737550268.755,-121.582,0.977,-10.254,-1000.000,0.000
1737550268.759,-99.609,-5.371,-4.883,-1000.000,0.000
1737550268.763,-2.441,-13.184,-10.742,-55.176,0.000
1737550268.767,92.285,8.789,-23.926,999.512,0.000
1737550268.771,-1.953,-8.789,-17.578,-41.504,0.000
1737550268.775,-96.191,-35.645,-22.949,-1000.000,0.000
1737550268.779,-128.906,-27.344,-47.852,-1000.000,0.000
1737550268.783,-70.801,-12.207,-29.785,-353.516,0.000
1737550268.786,32.715,-1.953,-0.977,996.582,0.000
1737550268.790,-52.734,-31.250,1.953,-62.988,0.000
1737550268.794,-127.930,-43.457,-11.230,-1000.000,0.000
1737550268.798,-120.605,-15.137,-23.438,-1000.000,0.000
1737550268.802,-68.359,-5.859,-20.020,-544.922,0.000
1737550268.806,44.922,3.906,-14.160,847.168,0.000
1737550268.810,-18.066,1.953,-10.254,-2.930,0.000
1737550268.814,-111.328,-10.742,-14.648,-1000.000,0.000
1737550268.818,-119.141,-26.855,-33.203,-1000.000,0.000
1737550268.822,-90.820,-27.344,-32.715,-670.898,0.000
1737550268.826,16.113,-11.719,-14.648,817.383,0.000
1737550268.829,-15.625,-18.555,-19.043,369.141,0.000
1737550268.833,-127.930,-28.320,-24.902,-985.352,0.000
1737550268.837,-144.043,-23.438,-18.555,-1000.000,0.000
1737550268.841,-99.121,-19.531,-29.785,-688.477,0.000
1737550268.845,20.996,-14.648,-28.809,744.141,0.000
1737550268.849,24.414,-14.648,-12.695,532.227,0.000
1737550268.853,-97.656,-37.109,-23.438,-841.797,0.000
1737550268.857,-137.695,-23.438,-28.320,-1000.000,0.000
1737550268.861,-92.285,0.000,-20.020,-579.102,0.000
1737550268.865,17.090,-9.766,-21.484,823.730,0.000
1737550268.869,23.926,-13.672,-25.391,747.070,0.000
1737550268.872,-74.219,-20.996,-10.254,-590.332,0.000
1737550268.876,-139.648,-27.344,-3.418,-1000.000,0.000
1737550268.880,-119.629,-15.137,-20.020,-759.766,0.000
1737550268.884,2.441,-4.395,-29.785,567.383,0.000
1737550268.888,42.969,0.000,-23.926,859.375,0.000
1737550268.892,-67.383,-19.043,-10.742,-463.379,0.000
1737550268.896,-139.160,-25.879,-10.254,-1000.000,0.000
1737550268.900,-111.328,-24.414,-27.832,-808.594,0.000
1737550268.904,0.977,-21.484,-24.902,437.012,0.000
1737550268.908,54.688,-20.508,-14.160,999.512,0.000
1737550268.911,-48.340,-20.508,-19.043,-239.258,0.000
1737550268.915,-137.695,-9.277,-19.531,-1000.000,0.000
1737550268.919,-123.535,-11.719,-23.438,-1000.000,0.000
1737550268.923,-2.441,-28.320,-23.438,61.035,0.000
1737550268.927,49.316,-27.344,-10.254,999.512,0.000
1737550268.931,-84.473,-12.207,-5.371,-266.602,0.000
1737550268.935,-147.949,-6.348,-24.414,-1000.000,0.000
1737550268.939,-139.160,-16.602,-30.273,-1000.000,0.000
1737550268.943,-55.664,-36.133,-24.414,-353.516,0.000
1737550268.947,68.848,-19.531,-15.137,943.848,0.000
1737550268.951,-15.625,-19.531,-1.465,-139.648,0.000
1737550268.954,-122.070,-41.016,-19.043,-1000.000,0.000
1737550268.958,-137.207,-24.902,-41.992,-1000.000,0.000
1737550268.962,-60.547,-11.230,-23.438,-404.785,0.000
1737550268.966,64.941,-5.371,-14.648,999.512,0.000
1737550268.970,-2.441,-11.230,-20.996,207.031,0.000
1737550268.974,-102.051,-21.973,-24.414,-1000.000,0.000
1737550268.978,-132.812,-21.973,-13.672,-1000.000,0.000
1737550268.982,-49.805,-15.625,-2.930,-242.676,0.000
1737550268.986,60.059,-5.371,-11.719,999.512,0.000
1737550268.990,-9.766,-5.859,-20.996,485.840,0.000
1737550268.994,-69.336,-12.695,-29.785,-832.031,0.000
1737550268.997,-94.238,-26.855,-28.809,-1000.000,0.000
1737550269.001,-28.320,-12.207,-12.695,106.934,0.000
1737550269.005,65.430,-14.648,-12.695,999.512,0.000
1737550269.009,28.320,-29.785,-15.625,942.383,0.000
1737550269.013,5.859,-18.555,-9.766,942.383,0.000
1737550269.017,-2.441,-20.508,-11.230,858.887,0.000
1737550269.021,-12.695,-27.832,-20.508,933.594,0.000
1737550269.025,27.344,-15.137,-26.855,985.352,0.000
1737550269.029,54.688,-7.812,-9.766,963.379,0.000
1737550269.033,5.371,-14.160,-5.371,972.168,0.000
1737550269.036,-61.523,-14.648,-22.949,970.703,0.000
1737550269.040,-21.484,-8.789,-27.832,970.703,0.000
1737550269.044,13.184,-9.766,-25.879,970.703,0.000
1737550269.048,0.000,-15.137,-11.719,970.703,0.000
1737550269.052,8.789,-29.785,-7.812,970.703,0.000
1737550269.056,6.836,-25.391,-33.691,970.703,0.000
1737550269.060,-0.977,-25.391,-31.738,970.703,0.000
1737550269.064,27.832,-35.156,-7.812,970.703,0.000
1737550269.068,85.449,-4.883,-0.977,970.703,0.000
1737550269.072,96.191,-15.137,0.000,970.703,0.000
1737550269.076,70.801,-32.227,-14.648,970.703,0.000
1737550269.079,87.891,-5.371,-14.648,970.703,0.000
1737550269.083,177.734,0.488,-6.836,970.703,0.000
1737550269.087,250.488,-1.953,-11.230,970.703,0.000
1737550269.091,246.094,-4.395,-12.207,970.703,0.000
1737550269.095,237.793,-24.414,-8.301,970.703,0.000
1737550269.099,223.633,-21.484,-17.090,970.703,0.000
1737550269.103,206.055,-17.578,-12.695,970.215,0.000
1737550269.107,199.707,-10.742,-1.953,970.703,0.000
1737550269.111,177.246,1.465,-15.137,970.703,0.000
1737550269.115,93.262,-5.371,-31.738,970.703,0.000
1737550269.118,18.555,-6.836,-43.945,970.703,0.000
1737550269.122,22.949,-11.230,-33.691,970.703,0.000
1737550269.126,35.156,-25.391,-4.883,970.703,0.000
1737550269.130,47.363,-31.250,1.953,970.703,0.000
1737550269.134,9.766,-31.250,0.000,970.703,0.000
1737550269.138,-40.527,-10.742,-9.277,970.703,0.000
1737550269.142,-51.270,3.418,-23.926,970.703,0.000
1737550269.146,-28.320,-1.465,-28.320,970.703,0.000
1737550269.150,-12.695,1.465,-42.969,970.703,0.000
1737550269.154,-17.578,18.066,-38.086,970.703,0.000
1737550269.158,-41.504,-36.621,-6.836,970.215,0.000
1737550269.161,-61.035,-111.816,2.930,971.680,0.000
1737550269.165,-42.969,-20.508,-12.207,963.867,0.000
1737550269.169,-28.809,51.270,-28.809,973.145,0.000
1737550269.173,-23.926,27.344,-33.203,982.422,0.000
1737550269.177,-41.016,4.883,-20.508,722.656,0.000
1737550269.181,-9.766,-11.719,-7.812,769.043,0.000
1737550269.185,39.551,-14.160,-19.043,981.934,0.000
1737550269.189,31.250,-9.766,-4.395,988.281,0.000
1737550269.193,-66.406,-9.766,-1.953,8.789,0.000
1737550269.197,-172.852,-24.902,-17.578,-1000.000,0.000
1737550269.201,-142.578,-47.363,-21.484,-924.316,0.000
1737550269.204,0.000,-29.297,-24.902,464.844,0.000
1737550269.208,6.836,-6.836,-13.672,548.828,0.000
1737550269.212,-115.723,-26.855,-8.301,-927.734,0.000
1737550269.216,-133.789,-34.668,-17.578,-1000.000,0.000
1737550269.220,-120.605,-28.320,-12.207,-1000.000,0.000
1737550269.224,-30.273,-20.020,-13.184,-428.711,0.000
1737550269.228,8.789,-37.109,-14.648,-268.066,0.000
1737550269.232,-35.645,-34.180,-32.227,-1000.000,0.000
1737550269.236,-74.219,8.301,-52.734,-1000.000,0.000
1737550269.240,-103.027,14.648,-21.484,-993.164,0.000
1737550269.243,-67.383,-4.395,-23.438,-930.664,0.000
1737550269.247,-48.828,-21.484,-36.133,-930.664,0.000
1737550269.251,-61.035,-25.391,-19.043,-1000.000,0.000
1737550269.255,-84.473,-31.250,-25.391,-997.070,0.000
1737550269.259,-118.652,-28.320,-19.531,-1000.000,0.000
1737550269.263,-107.422,-28.320,-15.137,-1000.000,0.000
1737550269.267,-87.891,-28.320,-23.438,-1000.000,0.000
1737550269.271,-66.895,-15.137,-22.949,-1000.000,0.000
1737550269.275,-80.566,-16.602,-38.086,-1000.000,0.000
1737550269.279,-96.191,-37.109,-48.828,-1000.000,0.000
1737550269.283,-77.637,-50.293,-53.711,-1000.000,0.000
1737550269.286,-85.938,-32.227,-39.062,-1000.000,0.000
1737550269.290,-96.191,-15.137,-16.113,-1000.000,0.000
1737550269.294,-97.656,-10.254,-16.602,-1000.000,0.000
1737550269.298,-108.887,-9.766,-7.812,-1000.000,0.000
1737550269.302,-102.539,-22.949,-17.578,-1000.000,0.000
1737550269.306,-55.176,-24.902,-19.531,-1000.000,0.000
1737550269.310,-25.879,-18.555,-35.156,-1000.000,0.000
1737550269.314,-42.969,-28.320,-48.340,-1000.000,0.000
1737550269.318,-76.172,-22.949,-31.250,-1000.000,0.000
1737550269.322,-82.031,-17.090,-16.602,-1000.000,0.000
1737550269.325,-58.594,-27.344,-8.789,-1000.000,0.000
1737550269.329,-17.578,-20.996,-22.461,-1000.000,0.000
1737550269.333,-30.273,-13.184,-38.574,-1000.000,0.000
1737550269.337,-76.172,-18.555,-29.297,-1000.000,0.000
1737550269.341,-63.965,-14.160,-12.695,-1000.000,0.000
1737550269.345,-14.160,-23.438,-10.254,-1000.000,0.000
1737550269.349,19.043,-23.926,-18.555,-1000.000,0.000
1737550269.353,16.113,-10.742,-18.555,-1000.000,0.000
1737550269.357,-28.809,-19.531,-23.438,-1000.000,0.000
1737550269.361,-55.664,-29.297,-18.555,-1000.000,0.000
1737550269.365,-23.926,-20.996,-2.441,-1000.000,0.000
1737550269.368,-24.414,-33.203,-24.902,-1000.000,0.000
1737550269.372,-35.156,-37.109,-58.105,-1000.000,0.000
1737550269.376,-37.109,-10.742,-49.805,-1000.000,0.000
1737550269.380,-28.320,-7.324,-26.367,-1000.000,0.000
1737550269.384,-8.789,-22.949,-18.555,-1000.000,0.000
1737550269.388,20.508,-24.902,-16.602,-1000.000,0.000
1737550269.392,-0.488,-51.270,-2.930,-1000.000,0.000
1737550269.396,-29.297,-38.574,-45.898,-1000.000,0.000
1737550269.400,-0.488,-12.207,-71.777,-1000.000,0.000
1737550269.404,31.738,-37.598,-25.391,-1000.000,0.000
1737550269.408,36.621,-32.227,-12.207,-1000.000,0.000
1737550269.411,19.531,-23.438,-13.672,-1000.000,0.000
1737550269.415,-0.977,-11.230,-13.672,-999.512,0.000
1737550269.419,-2.930,-3.906,-36.621,-1000.000,0.000
1737550269.423,28.809,-10.742,-30.762,-986.328,0.000
1737550269.427,53.223,-6.348,-8.789,-984.375,0.000
1737550269.431,36.621,-16.602,-23.438,-1000.000,0.000
1737550269.435,-4.395,-30.762,-34.180,-940.918,0.000
1737550269.439,-25.391,-33.691,-15.625,-1000.000,0.000
1737550269.443,49.316,-30.273,-23.438,-516.602,0.000
1737550269.447,152.344,-12.207,-20.508,708.008,0.000
1737550269.451,60.547,-16.602,-5.859,-217.285,0.000
1737550269.454,-32.227,-13.672,-13.672,-1000.000,0.000
1737550269.458,-12.695,-11.719,-23.438,-1000.000,0.000
1737550269.462,11.719,-20.508,-25.879,-835.938,0.000
1737550269.466,21.484,-21.973,-16.602,-648.926,0.000
1737550269.470,-7.812,-22.461,-3.906,-976.562,0.000
1737550269.474,-23.438,-21.973,-8.789,-1000.000,0.000
1737550269.478,-42.969,-34.180,-26.367,-983.887,0.000
1737550269.482,-43.945,-28.809,-45.410,-1000.000,0.000
1737550269.486,-18.555,-13.672,-37.598,-1000.000,0.000
1737550269.490,-0.977,-15.625,-8.789,-1000.000,0.000
1737550269.493,-17.090,-23.438,0.488,-1000.000,0.000
1737550269.497,-53.223,-28.320,-14.648,-1000.000,0.000
1737550269.501,-33.691,-26.367,-16.113,-1000.000,0.000
1737550269.505,0.488,-26.855,-27.832,-1000.000,0.000
1737550269.509,-10.742,-20.020,-50.781,-1000.000,0.000
1737550269.513,-30.762,3.906,-21.973,-1000.000,0.000
1737550269.517,-66.406,3.906,-9.277,-1000.000,0.000
1737550269.521,-89.355,-24.414,-22.949,-1000.000,0.000
1737550269.525,-73.730,-36.621,-8.789,-1000.000,0.000
1737550269.529,-52.246,-31.250,-11.719,-1000.000,0.000
1737550269.533,-56.152,-26.367,-22.949,-1000.000,0.000
1737550269.536,-100.098,-28.320,-18.066,-1000.000,0.000
1737550269.540,-123.535,-17.578,-29.785,-1000.000,0.000
1737550269.544,-82.520,3.418,-28.809,-1000.000,0.000
1737550269.548,-59.082,-10.742,-20.508,-1000.000,0.000
1737550269.552,-59.570,-24.902,-20.996,-1000.000,0.000
1737550269.556,-75.195,-4.395,-33.691,-1000.000,0.000
1737550269.560,-106.934,-4.883,-44.434,-1000.000,0.000
1737550269.564,-90.820,-8.789,-15.137,-1000.000,0.000
1737550269.568,-38.086,-22.461,3.906,-1000.000,0.000
1737550269.572,-45.898,-41.504,-1.465,-1000.000,0.000
1737550269.575,-117.188,-35.645,-19.043,-1000.000,0.000
1737550269.579,-122.559,-18.555,-26.855,-1000.000,0.000
1737550269.583,-83.496,-9.277,-26.855,-1000.000,0.000
1737550269.587,-74.219,-1.953,-43.457,-1000.000,0.000
1737550269.591,-73.242,3.906,-54.688,-1000.000,0.000
1737550269.595,-102.051,-8.789,-62.988,-1000.000,0.000
1737550269.599,-152.832,-39.551,-77.148,-1000.000,0.000
1737550269.603,-147.949,-20.020,-84.473,-1000.000,0.000
1737550269.607,-105.469,20.996,-57.617,-1000.000,0.000
1737550269.611,-91.797,16.113,-35.156,-1000.000,0.000
1737550269.615,-92.773,6.836,-36.133,-1000.000,0.000
1737550269.618,-101.074,-4.395,-48.340,-1000.000,0.000
1737550269.622,-90.820,-9.766,-74.707,-1000.000,0.000
1737550269.626,-60.059,-4.395,-60.547,-1000.000,0.000
1737550269.630,-38.574,-14.160,-26.855,-1000.000,0.000
1737550269.634,-45.898,-10.742,-28.809,-958.008,0.000
1737550269.638,-80.566,8.789,-56.641,-1000.000,0.000
1737550269.642,-63.965,3.418,-57.617,-839.844,0.000
1737550269.646,51.758,-19.043,-25.391,579.590,0.000
1737550269.650,35.156,-10.742,-8.789,445.312,0.000
1737550269.654,-91.309,-7.324,-14.648,-917.969,0.000
1737550269.658,-133.301,-19.043,-20.508,-1000.000,0.000
1737550269.661,-85.938,-9.277,-18.555,-415.527,0.000
1737550269.665,12.695,-14.648,-22.461,986.816,0.000
1737550269.669,0.000,-29.297,-24.414,669.922,0.000
1737550269.673,-110.840,-22.461,-30.762,-615.723,0.000
1737550269.677,-178.223,-3.906,-28.320,-1000.000,0.000
1737550269.681,-86.426,-7.324,-8.789,-327.637,0.000
1737550269.685,42.480,-13.672,-26.855,968.262,0.000
1737550269.689,33.691,-19.531,-47.363,921.387,0.000
1737550269.693,-44.434,-24.902,-15.137,-176.758,0.000
1737550269.697,-110.352,-34.180,4.395,-1000.000,0.000
1737550269.700,-31.738,-11.230,-5.859,-211.426,0.000
1737550269.704,74.219,8.301,-5.371,999.512,0.000
1737550269.708,53.223,-4.883,-19.043,959.961,0.000
1737550269.712,21.973,-16.113,-40.039,899.902,0.000
1737550269.716,-59.570,-18.066,-23.438,-351.562,0.000
1737550269.720,-80.078,-24.414,-29.297,-432.129,0.000
1737550269.724,24.902,-21.973,-46.387,966.309,0.000
1737550269.728,37.598,-12.695,-21.484,955.078,0.000
1737550269.732,50.781,-7.324,0.000,999.512,0.000
1737550269.736,-26.367,-6.836,-5.371,218.750,0.000
1737550269.740,-117.676,-17.090,-8.301,-424.316,0.000
1737550269.743,13.184,-17.090,-22.949,736.816,0.000
1737550269.747,65.430,-19.531,-29.785,999.512,0.000
1737550269.751,24.414,-22.461,-6.348,986.328,0.000
1737550269.755,-38.086,-31.738,-1.465,730.469,0.000
1737550269.759,-83.008,-44.922,-17.578,502.441,0.000
1737550269.763,28.809,-26.367,-20.996,960.449,0.000
1737550269.767,83.496,-19.043,-6.348,961.426,0.000
1737550269.771,60.059,-26.855,-3.906,999.512,0.000
1737550269.775,26.367,-7.812,-13.184,694.336,0.000
1737550269.779,-8.789,-8.301,-16.602,385.254,0.000
1737550269.783,52.734,-12.207,-16.602,918.457,0.000
1737550269.786,83.496,-13.184,-13.672,964.844,0.000
1737550269.790,91.309,-29.785,-7.812,999.512,0.000
1737550269.794,41.016,-53.223,-7.324,509.277,0.000
1737550269.798,-5.371,-33.691,-13.672,0.977,0.000
1737550269.802,94.238,-4.395,-11.719,823.730,0.000
1737550269.806,131.348,-27.832,-7.812,999.512,0.000
1737550269.810,81.055,-23.926,-24.902,964.844,0.000
1737550269.814,20.996,-18.066,-35.156,892.578,0.000
1737550269.818,-9.766,-28.320,-12.695,611.328,0.000
1737550269.822,64.453,-7.324,5.371,870.117,0.000
1737550269.825,97.656,-9.766,-16.113,966.309,0.000
1737550269.829,73.730,-28.320,-35.645,999.512,0.000
1737550269.833,14.648,-23.926,-15.625,672.363,0.000
1737550269.837,-115.234,-27.344,-8.789,-729.004,0.000
1737550269.841,-24.902,-28.320,-14.648,-194.336,0.000
1737550269.845,140.625,-9.277,-15.625,999.512,0.000
1737550269.849,157.227,-8.301,-20.508,999.512,0.000
1737550269.853,105.469,-17.578,-18.066,565.430,0.000
1737550269.857,-51.270,-24.902,-22.461,-873.535,0.000
1737550269.861,5.371,-26.367,-44.434,-355.469,0.000
1737550269.865,155.273,-26.367,-47.363,999.512,0.000
1737550269.868,139.648,-33.203,-23.438,957.031,0.000
1737550269.872,92.773,-19.531,-14.648,974.609,0.000
1737550269.876,18.066,-3.418,-20.508,121.582,0.000
1737550269.880,42.969,-16.602,-22.461,98.633,0.000
1737550269.884,135.254,-20.996,-14.648,999.512,0.000
1737550269.888,119.141,-13.672,-13.184,937.988,0.000
1737550269.892,108.398,-7.324,-10.254,999.512,0.000
1737550269.896,33.691,-20.020,-16.113,174.316,0.000
1737550269.900,-19.043,-49.316,-30.762,-321.777,0.000
1737550269.904,83.496,-31.250,-35.645,742.188,0.000
1737550269.907,141.602,-16.113,-37.109,999.512,0.000
1737550269.911,89.355,-16.113,-12.695,623.047,0.000
1737550269.915,-15.137,-5.859,-8.301,-607.422,0.000
1737550269.919,-29.785,-8.789,-30.273,-921.387,0.000
1737550269.923,87.402,-12.207,-23.438,424.316,0.000
1737550269.927,130.859,-17.578,-16.602,999.512,0.000
1737550269.931,31.250,-23.926,-24.902,-83.496,0.000
1737550269.935,-20.020,-35.156,-12.695,-1000.000,0.000
1737550269.939,-13.184,-41.016,-8.301,-1000.000,0.000
1737550269.943,74.707,-13.672,-27.832,-200.195,0.000
1737550269.947,174.805,1.953,-24.902,979.492,0.000
1737550269.950,69.824,2.930,-15.137,-257.324,0.000
1737550269.954,-17.090,-1.465,-19.531,-1000.000,0.000
1737550269.958,-20.020,-19.531,-19.531,-1000.000,0.000
1737550269.962,34.180,-29.297,-16.113,-833.984,0.000
1737550269.966,119.629,-16.113,-23.438,-396.484,0.000
1737550269.970,85.938,-9.277,-27.344,-807.129,0.000
1737550269.974,15.625,-18.555,-29.297,-1000.000,0.000
1737550269.978,10.742,-30.273,-25.391,-985.352,0.000
1737550269.982,34.180,-27.344,-24.902,-975.586,0.000
1737550269.986,49.805,0.977,-25.391,-896.484,0.000
1737550269.990,61.523,0.000,-18.066,-986.328,0.000
1737550269.993,55.176,-9.766,-19.043,-1000.000,0.000
1737550269.997,11.230,-13.672,-17.090,-995.117,0.000
1737550270.001,30.762,-23.438,-16.602,-1000.000,0.000
1737550270.005,68.848,-21.973,-29.297,-991.211,0.000
1737550270.009,25.391,-19.531,-20.020,-999.512,0.000
1737550270.013,8.301,-15.625,-4.395,-998.047,0.000
1737550270.017,-18.066,-17.090,-24.902,-1000.000,0.000
1737550270.021,-11.230,-35.645,-27.832,-1000.000,0.000
1737550270.025,50.781,-28.809,-19.531,-915.039,0.000
1737550270.029,86.914,-0.488,-34.180,-953.613,0.000
1737550270.032,61.035,-1.465,-40.039,-1000.000,0.000
1737550270.036,-2.441,-12.207,-31.250,-970.215,0.000
1737550270.040,-25.879,-16.113,-26.855,-1000.000,0.000
1737550270.044,52.246,-2.930,-28.320,-518.066,0.000
1737550270.048,108.398,-0.488,-36.621,-387.695,0.000
1737550270.052,46.875,-13.184,-37.598,-1000.000,0.000
1737550270.056,-10.254,-9.766,-25.391,-972.656,0.000
1737550270.060,-45.410,-10.742,-20.508,-1000.000,0.000
1737550270.064,20.508,-16.602,-13.672,-600.098,0.000
1737550270.068,68.359,-19.531,-12.207,-376.465,0.000
1737550270.072,15.625,-20.996,-20.020,-1000.000,0.000
1737550270.075,1.465,-28.320,-24.414,-967.773,0.000
1737550270.079,-32.715,-18.066,-24.414,-1000.000,0.000
1737550270.083,40.039,0.000,-14.160,-92.285,0.000
1737550270.087,115.234,-3.906,-13.672,999.512,0.000
1737550270.091,-7.812,-23.926,-25.391,-266.602,0.000
1737550270.095,-69.336,-27.344,-19.043,-1000.000,0.000
1737550270.099,-74.707,-16.113,-23.926,-1000.000,0.000
1737550270.103,21.973,-8.789,-29.785,-232.910,0.000
1737550270.107,153.809,-12.695,-2.930,999.512,0.000
1737550270.111,42.480,-30.273,6.836,141.602,0.000
1737550270.115,-76.172,-32.715,-13.672,-1000.000,0.000
1737550270.118,-60.547,-10.254,-16.113,-1000.000,0.000
1737550270.122,6.348,0.000,-9.277,-393.066,0.000
1737550270.126,98.145,-11.230,-13.672,999.512,0.000
1737550270.130,45.410,-24.414,-13.672,125.000,0.000
1737550270.134,-62.988,-14.160,-21.973,-1000.000,0.000
1737550270.138,-107.422,-4.395,-30.762,-1000.000,0.000
1737550270.142,-25.879,-9.277,-20.020,-509.277,0.000
1737550270.146,116.699,-11.230,-9.277,981.934,0.000
1737550270.150,49.805,-21.484,-11.230,207.520,0.000
1737550270.154,-59.570,-35.156,-18.066,-1000.000,0.000
1737550270.157,-96.191,-41.504,-20.508,-1000.000,0.000
1737550270.161,-48.828,-29.297,-16.113,-701.172,0.000
1737550270.165,126.465,-13.184,-23.926,761.719,0.000
1737550270.169,118.652,-25.879,-35.645,486.816,0.000
1737550270.173,-10.742,-25.879,-22.949,-913.086,0.000
1737550270.177,-31.738,-15.625,-12.695,-1000.000,0.000
1737550270.181,-2.930,-22.461,-8.789,-776.367,0.000
1737550270.185,102.051,-30.273,2.930,571.777,0.000
1737550270.189,139.160,-13.184,1.465,769.531,0.000
1737550270.193,31.250,-8.789,0.488,-624.023,0.000
1737550270.197,-43.945,-22.949,-6.836,-1000.000,0.000
1737550270.200,-2.930,-10.254,-10.742,-920.898,0.000
1737550270.204,95.703,-14.648,-12.207,326.172,0.000
1737550270.208,133.789,-7.812,-21.484,782.227,0.000
1737550270.212,74.707,-5.859,-19.531,-593.262,0.000
1737550270.216,-8.301,-18.066,-19.531,-1000.000,0.000
1737550270.220,-23.438,-13.184,-31.738,-809.570,0.000
1737550270.224,105.469,-5.371,-30.762,453.125,0.000
1737550270.228,199.707,0.488,-21.484,993.652,0.000
1737550270.232,108.887,-10.254,-27.832,-303.711,0.000
1737550270.236,21.973,-28.809,-23.438,-1000.000,0.000
1737550270.239,4.395,-24.414,-10.254,-1000.000,0.000
1737550270.243,106.934,-16.602,-12.207,-0.977,0.000
1737550270.247,179.199,-14.160,-16.113,999.512,0.000
1737550270.251,37.109,-9.277,-17.090,-165.039,0.000
1737550270.255,-50.781,-22.461,-9.766,-1000.000,0.000
1737550270.259,-47.363,-33.691,-14.648,-1000.000,0.000
1737550270.263,44.922,-19.531,-19.043,-228.516,0.000
1737550270.267,172.363,-3.418,-10.254,999.512,0.000
1737550270.271,98.633,-8.301,-19.043,33.203,0.000
1737550270.275,-13.184,-28.809,-18.555,-1000.000,0.000
1737550270.279,-2.441,-30.762,-17.578,-1000.000,0.000
1737550270.282,66.895,-17.578,-17.578,-675.293,0.000
1737550270.286,134.277,-22.461,-5.371,-329.102,0.000
1737550270.290,120.117,-31.738,-1.465,-920.410,0.000
1737550270.294,73.730,-35.645,-8.789,-1000.000,0.000
1737550270.298,46.875,-25.879,-23.926,-971.680,0.000
1737550270.302,69.824,-9.766,-23.438,-1000.000,0.000
1737550270.306,112.305,-16.113,-17.090,-1000.000,0.000
1737550270.310,143.066,-25.879,-28.809,-1000.000,0.000
1737550270.314,115.723,-17.090,-32.715,-1000.000,0.000
1737550270.318,54.688,-28.320,-7.324,-1000.000,0.000
1737550270.322,63.965,-41.992,6.836,-1000.000,0.000
1737550270.325,109.375,-21.484,-9.766,-1000.000,0.000
1737550270.329,125.488,-9.277,-29.785,-1000.000,0.000
1737550270.333,109.375,-19.531,-24.414,-1000.000,0.000
1737550270.337,91.309,-18.555,-3.906,-1000.000,0.000
1737550270.341,90.820,-18.555,-6.836,-1000.000,0.000
1737550270.345,122.070,-31.250,-15.137,-1000.000,0.000
1737550270.349,155.762,-34.180,-16.602,-1000.000,0.000
1737550270.353,146.973,-34.668,-22.461,-993.164,0.000
1737550270.357,105.469,-23.926,-11.719,-986.328,0.000
1737550270.361,92.285,-13.672,-8.301,-1000.000,0.000
1737550270.364,171.387,-9.766,-15.137,-482.422,0.000
1737550270.368,210.449,-15.137,-10.742,-446.289,0.000
1737550270.372,152.344,-21.973,-6.836,-1000.000,0.000
1737550270.376,121.094,-23.438,-15.625,-975.586,0.000
1737550270.380,100.586,-20.996,-19.531,-1000.000,0.000
1737550270.384,145.996,-7.324,-9.277,-718.262,0.000
1737550270.388,187.012,-4.883,-12.207,-622.070,0.000
1737550270.392,160.645,-14.648,-30.273,-1000.000,0.000
1737550270.396,132.324,-21.484,-28.809,-971.191,0.000
1737550270.400,87.891,-22.949,-18.066,-1000.000,0.000
1737550270.404,138.184,-22.461,-19.043,-718.750,0.000
1737550270.407,209.961,-11.719,-4.395,-271.484,0.000
1737550270.411,190.918,-4.395,-1.465,-808.105,0.000
1737550270.415,140.625,-14.160,-9.277,-999.023,0.000
1737550270.419,83.984,-24.414,-10.742,-1000.000,0.000
1737550270.423,176.270,-26.855,-18.066,-203.125,0.000
1737550270.427,281.738,-22.949,-13.184,999.512,0.000
1737550270.431,181.152,-26.367,-17.090,135.254,0.000
1737550270.435,72.754,-28.809,-36.621,-1000.000,0.000
1737550270.439,71.777,-28.320,-23.438,-960.449,0.000
1737550270.443,201.660,-26.367,6.348,241.211,0.000
1737550270.447,291.016,-18.555,3.418,999.512,0.000
1737550270.450,282.715,-16.602,-0.488,952.637,0.000
1737550270.454,229.980,-12.207,-5.371,900.879,0.000
1737550270.458,131.836,0.000,-17.578,645.020,0.000
1737550270.462,173.340,-8.301,-13.184,869.629,0.000
1737550270.466,242.676,-23.438,-9.277,963.379,0.000
1737550270.470,249.512,-18.066,-23.926,999.512,0.000
1737550270.474,200.195,-9.766,-40.039,742.676,0.000
1737550270.478,64.941,-15.137,-18.555,-676.270,0.000
1737550270.482,122.559,-28.809,8.301,-194.824,0.000
1737550270.486,257.324,-51.758,5.371,999.512,0.000
1737550270.489,240.234,-24.902,-4.883,999.512,0.000
1737550270.493,182.617,6.836,-4.883,660.156,0.000
1737550270.497,49.805,-12.207,-13.184,-790.039,0.000
1737550270.501,120.605,-20.020,-16.113,-315.430,0.000
1737550270.505,264.648,-14.648,-1.953,999.512,0.000
1737550270.509,248.535,-18.066,-9.277,999.512,0.000
1737550270.513,213.379,-19.043,-20.996,742.188,0.000
1737550270.517,79.102,-27.344,-20.996,-658.691,0.000
1737550270.521,91.797,-32.227,-17.578,-566.895,0.000
1737550270.525,265.625,-19.043,-5.371,871.582,0.000
1737550270.529,295.898,-20.508,-1.465,999.512,0.000
1737550270.532,251.465,-23.438,-8.789,810.059,0.000
1737550270.536,117.188,-16.113,-20.020,-510.254,0.000
1737550270.540,111.816,-17.090,-14.648,-634.277,0.000
1737550270.544,270.996,-18.066,-1.465,819.824,0.000
1737550270.548,297.363,-31.738,-1.465,999.512,0.000
1737550270.552,270.508,-22.461,-16.602,939.941,0.000
1737550270.556,142.090,-14.160,-30.273,-232.910,0.000
1737550270.560,70.312,-21.484,-26.855,-876.465,0.000
1737550270.564,222.656,-17.578,-24.414,562.988,0.000
1737550270.568,296.875,-27.344,-16.113,999.512,0.000
1737550270.571,260.742,-24.414,2.930,999.512,0.000
1737550270.575,150.879,-17.578,3.418,225.098,0.000
1737550270.579,46.875,-23.438,-9.277,-963.867,0.000
1737550270.583,176.758,-12.695,-9.766,161.621,0.000
1737550270.587,307.617,-6.348,-8.301,999.512,0.000
1737550270.591,262.207,-17.090,-22.949,741.699,0.000
1737550270.595,137.695,-28.809,-27.832,-356.934,0.000
1737550270.599,77.637,-35.156,-18.555,-1000.000,0.000
1737550270.603,202.637,-29.785,-22.461,-102.539,0.000
1737550270.607,325.684,-17.578,-29.785,999.512,0.000
1737550270.611,282.227,-18.555,-21.973,581.055,0.000
1737550270.614,162.109,-22.949,-13.672,-639.160,0.000
1737550270.618,101.074,-23.926,-20.020,-1000.000,0.000
1737550270.622,203.125,-20.996,-22.461,-188.965,0.000
1737550270.626,312.012,-20.020,-12.207,999.512,0.000
1737550270.630,260.742,-10.254,-5.859,522.461,0.000
1737550270.634,154.785,-0.488,-1.953,-686.035,0.000
1737550270.638,115.723,-20.020,-14.648,-1000.000,0.000
1737550270.642,196.289,-39.062,-21.973,-468.750,0.000
1737550270.646,320.312,-20.508,-2.441,987.793,0.000
1737550270.650,269.043,0.000,3.906,507.812,0.000
1737550270.654,125.000,-11.719,-9.277,-859.863,0.000
1737550270.657,68.848,-24.902,-16.602,-1000.000,0.000
1737550270.661,92.773,-18.066,-20.508,-899.414,0.000
1737550270.665,235.840,-4.395,-22.949,421.387,0.000
1737550270.669,249.023,-15.137,-19.043,573.730,0.000
1737550270.673,110.352,-29.785,-18.066,-858.887,0.000
1737550270.677,68.848,-22.461,-35.645,-1000.000,0.000
1737550270.681,87.402,-20.508,-44.434,-937.988,0.000
1737550270.685,219.238,-27.344,-20.020,272.461,0.000
1737550270.689,272.461,-16.113,4.883,846.191,0.000
1737550270.693,137.207,0.977,1.465,-540.527,0.000
1737550270.697,52.734,-6.348,-13.672,-1000.000,0.000
1737550270.700,65.430,-15.625,-22.949,-1000.000,0.000
1737550270.704,181.152,-17.090,-23.438,-110.840,0.000
1737550270.708,250.488,-8.789,-23.926,601.562,0.000
1737550270.712,155.273,-5.859,-29.297,-641.113,0.000
1737550270.716,102.051,-2.930,-22.949,-1000.000,0.000
1737550270.720,104.980,-27.344,-28.809,-1000.000,0.000
1737550270.724,206.543,-34.668,-26.855,-74.707,0.000
1737550270.728,296.387,0.000,-19.531,999.512,0.000
1737550270.732,185.547,-1.465,-13.184,-117.188,0.000
1737550270.736,74.219,-6.836,-4.883,-1000.000,0.000
1737550270.739,79.102,-12.695,-7.812,-1000.000,0.000
1737550270.743,194.336,-25.879,-21.973,-83.984,0.000
1737550270.747,302.734,-25.879,-29.297,999.512,0.000
1737550270.751,236.328,-23.438,-19.043,279.297,0.000
1737550270.755,123.047,-35.645,-12.695,-934.570,0.000
1737550270.759,110.352,-38.574,-13.672,-1000.000,0.000
1737550270.763,236.328,-22.461,-31.738,-48.828,0.000
1737550270.767,333.496,-39.551,-28.320,999.512,0.000
1737550270.771,301.270,-48.340,0.488,793.457,0.000
1737550270.775,187.988,-24.902,1.953,-375.977,0.000
1737550270.779,119.141,-14.160,-17.578,-1000.000,0.000
1737550270.782,261.719,0.000,-26.367,130.371,0.000
1737550270.786,354.492,-0.977,-27.344,999.512,0.000
1737550270.790,325.684,-10.254,-19.043,893.555,0.000
1737550270.794,220.703,-20.020,-17.578,-122.070,0.000
1737550270.798,125.977,-29.785,-9.766,-1000.000,0.000
1737550270.802,239.746,-20.508,-14.160,-145.996,0.000
1737550270.806,368.652,-8.301,-38.086,999.512,0.000
1737550270.810,355.957,-17.578,-27.344,884.277,0.000
1737550270.814,239.746,-43.945,4.395,-173.828,0.000
1737550270.818,135.742,-33.691,4.395,-1000.000,0.000
1737550270.821,219.238,-4.395,-2.930,-462.891,0.000
1737550270.825,357.422,-1.465,-4.395,892.578,0.000
1737550270.829,354.492,-0.488,-8.789,937.988,0.000
1737550270.833,232.910,-7.812,-23.438,-249.023,0.000
1737550270.837,137.207,-16.602,-28.809,-1000.000,0.000
1737550270.841,170.898,-18.066,-16.602,-922.363,0.000
1737550270.845,309.082,-10.742,-23.438,378.906,0.000
1737550270.849,335.938,-16.113,-22.949,709.961,0.000
1737550270.853,188.965,-27.832,-0.488,-741.699,0.000
1737550270.857,114.258,-18.555,0.977,-1000.000,0.000
1737550270.861,136.719,-10.254,-4.883,-994.141,0.000
1737550270.864,203.613,-9.766,-4.395,-745.117,0.000
1737550270.868,230.469,-20.508,-10.254,-697.754,0.000
1737550270.872,196.289,-38.086,-20.020,-1000.000,0.000
1737550270.876,152.832,-28.809,-28.320,-961.426,0.000
1737550270.880,142.578,-11.230,-28.320,-1000.000,0.000
1737550270.884,206.543,-18.066,-35.645,-589.844,0.000
1737550270.888,279.785,-22.949,-29.785,140.137,0.000
1737550270.892,253.418,-15.137,-9.277,-511.719,0.000
1737550270.896,177.246,-16.602,-8.301,-1000.000,0.000
1737550270.900,155.273,-25.879,-15.625,-1000.000,0.000
1737550270.904,267.578,-26.855,-19.043,-139.160,0.000
1737550270.907,381.836,-13.184,-24.902,999.512,0.000
1737550270.911,300.293,-14.648,-20.996,328.613,0.000
1737550270.915,182.129,-29.785,-6.836,-894.531,0.000
1737550270.919,152.344,-44.922,-16.113,-1000.000,0.000
1737550270.923,270.508,-25.391,-19.043,-117.188,0.000
1737550270.927,375.000,-1.465,-12.695,999.512,0.000
1737550270.931,310.059,-20.996,-22.949,508.789,0.000
1737550270.935,184.082,-35.645,-29.297,-725.586,0.000
1737550270.939,120.605,-39.062,-25.391,-1000.000,0.000
1737550270.943,225.098,-23.438,-7.812,-163.574,0.000
1737550270.946,325.684,-4.883,-4.883,999.512,0.000
1737550270.950,276.367,-3.418,-8.301,739.746,0.000
1737550270.954,156.738,-2.441,-13.672,-411.621,0.000
1737550270.958,74.219,-10.742,-25.879,-1000.000,0.000
1737550270.962,172.852,-19.531,-29.297,-209.961,0.000
1737550270.966,286.133,-11.230,-32.715,980.469,0.000
1737550270.970,269.043,-17.578,-27.832,999.512,0.000
1737550270.974,184.570,-40.527,-15.137,191.406,0.000
1737550270.978,76.660,-21.973,-16.113,-1000.000,0.000
1737550270.982,176.270,-0.488,-19.531,-319.336,0.000
1737550270.986,343.262,-7.812,-11.719,999.512,0.000
1737550270.989,346.191,-4.883,-16.602,961.914,0.000
1737550270.993,311.523,-3.906,-23.438,967.285,0.000
1737550270.997,207.520,-16.113,-30.762,27.832,0.000
1737550271.001,220.215,-20.508,-28.320,48.828,0.000
1737550271.005,340.332,-12.695,-1.953,999.512,0.000
1737550271.009,354.004,-9.277,0.000,953.613,0.000
1737550271.013,334.961,-16.602,-11.230,985.352,0.000
1737550271.017,243.164,-15.137,-13.672,759.277,0.000
1737550271.021,220.215,-22.461,-12.695,730.957,0.000
1737550271.025,291.504,-37.109,-14.160,985.840,0.000
1737550271.029,312.500,-15.137,-11.230,924.805,0.000
1737550271.032,312.988,-2.441,-18.066,999.512,0.000
1737550271.036,187.012,-18.066,-42.969,-54.688,0.000
1737550271.040,124.512,-21.484,-41.016,-760.254,0.000
1737550271.044,290.527,-27.344,-39.551,668.945,0.000
1737550271.048,344.238,-25.391,-29.297,999.512,0.000
1737550271.052,328.613,-8.301,-13.184,999.512,0.000
1737550271.056,205.078,-20.020,-20.020,94.238,0.000
1737550271.060,104.492,-43.945,-26.367,-1000.000,0.000
1737550271.064,257.324,-21.973,-30.762,256.348,0.000
1737550271.068,354.004,-5.859,-19.531,999.512,0.000
1737550271.071,309.082,-10.742,-25.391,967.285,0.000
1737550271.075,185.059,-11.719,-31.738,-105.957,0.000
1737550271.079,125.977,-19.043,-29.297,-967.773,0.000
1737550271.083,282.715,-11.230,-24.414,410.156,0.000
1737550271.087,338.379,-3.906,-29.785,999.512,0.000
1737550271.091,287.109,-13.672,-29.297,999.512,0.000
1737550271.095,212.402,-30.762,-6.348,573.730,0.000
1737550271.099,91.309,-32.715,3.906,-728.027,0.000
1737550271.103,189.941,-18.066,1.953,107.422,0.000
1737550271.107,308.594,-4.395,-19.531,999.512,0.000
1737550271.111,286.621,-0.488,-28.809,969.238,0.000
1737550271.114,223.633,-15.137,-8.301,814.453,0.000
1737550271.118,76.660,-30.762,-3.418,-470.703,0.000
1737550271.122,136.719,-27.832,-17.090,-55.664,0.000
1737550271.126,270.996,-28.320,-22.461,999.512,0.000
1737550271.130,261.230,-23.926,-17.090,977.051,0.000
1737550271.134,214.844,-17.578,-19.531,816.406,0.000
1737550271.138,69.336,-20.508,-24.902,-573.242,0.000
1737550271.142,111.816,-36.133,-23.438,-302.734,0.000
1737550271.146,246.582,-37.109,-22.461,999.512,0.000
1737550271.150,217.773,-21.973,-19.531,978.516,0.000
1737550271.153,116.699,-23.438,-20.508,-13.672,0.000
1737550271.157,14.648,-22.461,-26.855,-1000.000,0.000
1737550271.161,91.309,-27.344,-23.926,-465.332,0.000
1737550271.165,209.961,-31.250,-21.973,871.582,0.000
1737550271.169,204.102,-27.344,-32.227,999.512,0.000
1737550271.173,112.305,-21.973,-28.320,-37.109,0.000
1737550271.177,16.113,-20.020,-18.066,-1000.000,0.000
1737550271.181,57.617,-28.809,-18.555,-668.457,0.000
1737550271.185,190.918,-20.996,-19.043,608.887,0.000
1737550271.189,222.656,-8.789,-19.043,999.512,0.000
1737550271.193,117.188,-21.973,-22.949,275.391,0.000
1737550271.196,-10.254,-39.062,-23.438,-1000.000,0.000
1737550271.200,15.137,-39.062,-29.297,-822.266,0.000
1737550271.204,157.715,-22.461,-31.250,463.379,0.000
1737550271.208,214.355,-17.090,-29.297,999.512,0.000
1737550271.212,141.113,-23.438,-23.438,466.309,0.000
1737550271.216,10.742,-25.879,-20.020,-816.895,0.000
1737550271.220,-1.953,-27.832,-25.391,-939.941,0.000
1737550271.224,141.113,-21.973,-17.090,323.242,0.000
1737550271.228,215.820,-34.180,-15.137,999.512,0.000
1737550271.232,151.367,-27.832,-22.949,542.969,0.000
1737550271.236,34.180,-24.902,-19.043,-697.266,0.000
1737550271.239,5.859,-48.340,-26.367,-1000.000,0.000
1737550271.243,134.766,-41.504,-28.809,93.262,0.000
1737550271.247,212.891,-19.531,-14.648,999.512,0.000
1737550271.251,173.340,-4.883,-16.602,916.504,0.000
1737550271.255,63.477,-6.836,-19.531,-127.441,0.000
1737550271.259,-28.320,-19.043,-13.672,-1000.000,0.000
1737550271.263,96.680,-14.648,-20.020,-77.637,0.000
1737550271.267,212.891,-15.625,-23.438,999.512,0.000
1737550271.271,163.574,-24.414,-12.207,765.137,0.000
1737550271.275,44.922,-18.066,-9.766,-367.676,0.000
1737550271.279,-28.320,-27.344,-14.160,-1000.000,0.000
1737550271.282,94.238,-20.508,-14.160,-97.656,0.000
1737550271.286,206.543,-12.207,-16.602,999.512,0.000
1737550271.290,187.988,-5.859,-20.508,999.512,0.000
1737550271.294,90.820,-4.395,-19.043,243.652,0.000
1737550271.298,-39.551,-15.137,-18.555,-1000.000,0.000
1737550271.302,71.777,-13.184,-33.203,-208.496,0.000
1737550271.306,203.125,-18.555,-27.832,999.512,0.000
1737550271.310,197.266,-34.180,-5.859,999.512,0.000
1737550271.314,121.582,-27.344,-13.184,248.535,0.000
1737550271.318,-15.625,-24.902,-26.855,-1000.000,0.000
1737550271.321,58.105,-16.113,-9.277,-387.207,0.000
1737550271.325,199.707,-0.488,8.301,927.734,0.000
1737550271.329,186.523,-4.883,-8.789,999.512,0.000
1737550271.333,106.445,-16.602,-22.461,396.484,0.000
1737550271.337,-7.812,-25.879,-28.320,-1000.000,0.000
1737550271.341,41.992,-27.832,-29.297,-507.812,0.000
1737550271.345,195.801,-18.066,-18.555,875.977,0.000
1737550271.349,226.562,-15.137,-16.602,999.512,0.000
1737550271.353,194.336,-22.461,-19.043,815.918,0.000
1737550271.357,81.543,-21.484,-14.648,-492.188,0.000
1737550271.361,87.891,-24.414,-21.484,-701.172,0.000
1737550271.364,244.629,-23.926,-22.461,741.211,0.000
1737550271.368,294.434,-11.230,-26.367,999.512,0.000
1737550271.372,278.320,-9.766,-21.973,877.930,0.000
1737550271.376,150.391,-28.320,-16.113,-303.711,0.000
1737550271.380,102.539,-32.715,-20.508,-967.285,0.000
1737550271.384,266.602,-34.180,-28.320,391.113,0.000
1737550271.388,328.125,-27.832,-41.016,999.512,0.000
1737550271.392,284.668,-13.184,-27.832,825.195,0.000
1737550271.396,178.711,-13.184,-11.230,-287.109,0.000
1737550271.400,112.793,-22.949,-13.672,-1000.000,0.000
1737550271.403,251.465,-17.090,-19.043,61.523,0.000
1737550271.407,349.609,-5.371,-12.207,999.512,0.000
1737550271.411,309.082,-9.766,-19.043,753.906,0.000
1737550271.415,192.383,-20.020,-27.832,-388.672,0.000
1737550271.419,108.887,-22.461,-18.555,-1000.000,0.000
1737550271.423,231.934,-10.742,-23.438,-123.047,0.000
1737550271.427,355.957,-5.859,-25.879,999.512,0.000
1737550271.431,281.738,-13.184,-16.602,532.227,0.000
1737550271.435,140.137,-18.555,-23.438,-701.660,0.000
1737550271.439,84.961,-15.625,-24.902,-1000.000,0.000
1737550271.443,187.988,-5.371,-30.273,-389.648,0.000
1737550271.446,323.242,-11.230,-39.062,999.512,0.000
1737550271.450,262.207,-19.531,-31.738,385.742,0.000
1737550271.454,141.113,-17.578,-17.578,-907.715,0.000
1737550271.458,93.750,-21.973,-20.508,-1000.000,0.000
1737550271.462,136.719,-25.879,-25.391,-582.031,0.000
1737550271.466,273.438,-15.625,-22.949,791.016,0.000
1737550271.470,286.621,-21.484,-31.738,805.664,0.000
1737550271.474,187.012,-38.574,-43.457,-445.312,0.000
1737550271.478,94.727,-45.410,-45.410,-1000.000,0.000
1737550271.482,142.578,-32.715,-19.531,-403.320,0.000
1737550271.486,249.023,-10.742,-9.766,880.859,0.000
1737550271.489,243.164,-9.277,-14.160,999.512,0.000
1737550271.493,145.508,-17.578,-19.043,67.383,0.000
1737550271.497,22.949,-20.508,-33.691,-1000.000,0.000
1737550271.501,83.984,-15.137,-31.250,-583.496,0.000
1737550271.505,218.262,-12.207,-15.137,727.539,0.000
1737550271.509,228.027,-17.090,-5.859,999.512,0.000
1737550271.513,162.598,-26.855,-12.207,275.879,0.000
1737550271.517,37.598,-25.391,-21.973,-1000.000,0.000
1737550271.521,38.086,-23.438,-21.484,-633.789,0.000
1737550271.525,178.223,-31.250,-18.555,736.816,0.000
1737550271.528,203.125,-12.207,-31.250,999.512,0.000
1737550271.532,158.203,9.766,-27.344,921.875,0.000
1737550271.536,11.719,-3.418,-28.320,-287.598,0.000
1737550271.540,-30.762,-8.789,-29.785,-825.195,0.000
1737550271.544,165.527,2.930,-22.461,594.727,0.000
1737550271.548,204.102,-26.855,-45.410,999.512,0.000
1737550271.552,129.883,-45.410,-61.035,722.168,0.000
1737550271.556,19.531,-18.555,-52.734,-485.352,0.000
1737550271.560,-21.973,-3.418,-44.434,-1000.000,0.000
1737550271.564,132.324,-14.648,-20.996,259.277,0.000
1737550271.568,204.102,-16.602,-15.137,999.512,0.000
1737550271.571,153.809,-2.930,-35.156,624.023,0.000
1737550271.575,51.270,0.488,-25.879,-603.516,0.000
1737550271.579,3.906,-20.996,-11.230,-1000.000,0.000
1737550271.583,160.645,-19.043,-10.742,28.320,0.000
1737550271.587,298.340,-4.883,-15.137,999.512,0.000
1737550271.591,202.637,-17.090,-21.484,460.938,0.000
1737550271.595,53.223,-26.367,-27.344,-756.348,0.000
1737550271.599,27.344,-29.785,-38.574,-1000.000,0.000
1737550271.603,167.480,-30.762,-41.992,-190.918,0.000
1737550271.607,286.133,-25.879,-19.531,999.512,0.000
1737550271.610,230.469,-15.625,3.906,708.008,0.000
1737550271.614,151.367,-29.297,-12.207,-476.074,0.000
1737550271.618,98.633,-36.621,-36.621,-1000.000,0.000
1737550271.622,205.566,-14.160,-28.320,-189.941,0.000
1737550271.626,330.078,0.488,-8.789,999.512,0.000
1737550271.630,327.637,-12.207,-8.789,923.340,0.000
1737550271.634,237.305,-25.391,-23.926,-97.168,0.000
1737550271.638,145.020,-15.137,-40.527,-1000.000,0.000
1737550271.642,276.367,-20.996,-35.645,-154.297,0.000
1737550271.646,402.344,-25.391,-27.344,999.512,0.000
1737550271.650,405.762,-11.719,-23.926,999.512,0.000
1737550271.653,303.223,-6.836,-18.066,186.523,0.000
1737550271.657,158.203,-12.695,-1.953,-1000.000,0.000
1737550271.661,274.902,-38.086,-7.812,-225.098,0.000
1737550271.665,431.641,-15.625,-37.109,999.512,0.000
1737550271.669,405.762,6.836,-37.598,951.172,0.000
1737550271.673,385.742,0.000,-28.320,941.895,0.000
1737550271.677,351.562,-16.602,-32.227,978.027,0.000
1737550271.681,323.730,-23.926,-28.320,970.703,0.000
1737550271.685,361.816,-32.227,-40.527,970.703,0.000
1737550271.689,375.000,-22.949,-44.434,970.703,0.000
1737550271.693,336.914,8.789,-11.230,970.703,0.000
1737550271.696,291.992,6.836,-17.578,970.703,0.000
1737550271.700,284.668,3.418,-29.297,970.703,0.000
1737550271.704,318.359,-11.230,1.953,971.680,0.000
1737550271.708,339.355,-26.367,3.418,961.914,0.000
1737550271.712,296.875,-19.043,-8.789,994.141,0.000
1737550271.716,209.473,-14.648,-25.391,883.301,0.000
1737550271.720,174.316,-20.508,-43.457,833.984,0.000
1737550271.724,236.328,-23.438,-25.879,939.453,0.000
1737550271.728,269.043,-16.113,-20.996,999.512,0.000
1737550271.732,245.605,-10.254,-27.832,751.953,0.000
1737550271.735,132.324,-7.324,-18.555,-437.012,0.000
1737550271.739,84.473,-8.789,-2.930,-1000.000,0.000
1737550271.743,218.750,-8.301,-1.953,0.488,0.000
1737550271.747,299.805,-3.418,-10.742,999.512,0.000
1737550271.751,233.398,-10.254,-8.789,431.152,0.000
1737550271.755,154.785,-15.137,-8.789,-776.855,0.000
1737550271.759,137.207,-19.531,-18.066,-1000.000,0.000
1737550271.763,230.957,-28.320,-22.949,-354.980,0.000
1737550271.767,353.027,-25.391,-26.855,999.512,0.000
1737550271.771,281.250,-15.625,-28.809,66.895,0.000
1737550271.775,145.508,-19.043,-41.504,-1000.000,0.000
1737550271.778,131.836,-34.668,-42.969,-1000.000,0.000
1737550271.782,214.844,-25.879,-25.391,-673.340,0.000
1737550271.786,330.078,-7.324,-17.090,777.344,0.000
1737550271.790,292.969,-2.441,-17.090,439.941,0.000
1737550271.794,152.832,-11.719,-20.508,-927.734,0.000
1737550271.798,104.980,-22.461,-24.902,-1000.000,0.000
1737550271.802,153.809,-21.973,-27.832,-782.715,0.000
1737550271.806,294.434,-26.855,-23.926,569.336,0.000
1737550271.810,312.988,-23.926,-32.227,631.348,0.000
1737550271.814,170.410,-2.930,-25.391,-742.676,0.000
1737550271.818,94.238,-6.348,-10.742,-1000.000,0.000
1737550271.821,151.855,-23.438,-18.066,-711.914,0.000
1737550271.825,266.113,-12.207,-26.855,619.141,0.000
1737550271.829,269.531,-10.254,-39.062,890.137,0.000
1737550271.833,157.227,-21.484,-41.016,-402.832,0.000
1737550271.837,82.031,-12.695,-12.695,-1000.000,0.000
1737550271.841,121.582,-4.883,-3.418,-841.797,0.000
1737550271.845,242.676,-22.949,-24.902,459.961,0.000
1737550271.849,272.461,-36.133,-13.672,824.707,0.000
1737550271.853,152.832,-34.668,11.719,-534.668,0.000
1737550271.857,83.496,-66.406,-13.672,-1000.000,0.000
1737550271.860,123.047,-58.594,-44.434,-951.660,0.000
1737550271.864,246.582,3.418,-31.250,224.121,0.000
1737550271.868,291.016,19.531,-11.719,976.562,0.000
1737550271.872,181.152,-1.465,-15.625,-327.148,0.000
1737550271.876,113.281,-25.879,-37.109,-1000.000,0.000
1737550271.880,103.027,-36.621,-39.551,-1000.000,0.000
1737550271.884,208.496,-29.785,-17.578,-115.234,0.000
1737550271.888,320.312,-21.484,-7.812,999.512,0.000
1737550271.892,209.961,-15.137,-12.695,-222.656,0.000
1737550271.896,102.051,-25.391,-14.648,-1000.000,0.000
1737550271.900,84.473,-25.879,-17.578,-1000.000,0.000
1737550271.903,166.992,-22.461,-16.113,-518.555,0.000
1737550271.907,314.453,-12.207,-10.254,823.730,0.000
1737550271.911,240.723,-7.324,-15.137,11.719,0.000
1737550271.915,119.629,-26.855,-24.414,-1000.000,0.000
1737550271.919,114.258,-30.273,-23.438,-1000.000,0.000
1737550271.923,191.895,-18.555,-14.648,-500.488,0.000
1737550271.927,329.590,-16.602,-14.160,908.203,0.000
1737550271.931,256.348,-32.715,-22.949,77.148,0.000
1737550271.935,122.559,-32.227,-21.484,-1000.000,0.000
1737550271.939,119.141,-20.996,-23.926,-1000.000,0.000
1737550271.943,216.797,-4.883,-26.855,-406.738,0.000
1737550271.946,331.543,0.488,-27.344,999.512,0.000
1737550271.950,278.809,-11.719,-34.668,523.438,0.000
1737550271.954,159.180,-13.184,-35.156,-782.227,0.000
1737550271.958,111.328,-17.578,-19.043,-1000.000,0.000
1737550271.962,208.496,-27.344,-11.719,-305.664,0.000
1737550271.966,314.941,-20.020,-14.160,999.512,0.000
1737550271.970,247.559,-25.879,-17.090,541.016,0.000
1737550271.974,132.812,-37.598,-29.297,-747.070,0.000
1737550271.978,91.797,-33.203,-29.785,-1000.000,0.000
1737550271.982,152.344,-23.926,-9.766,-518.555,0.000
1737550271.985,290.527,-23.438,-4.883,854.980,0.000
1737550271.989,285.156,-24.902,-15.625,790.527,0.000
1737550271.993,139.160,-21.973,-16.113,-464.355,0.000
1737550271.997,80.078,-23.438,-24.414,-1000.000,0.000
1737550272.001,148.438,-12.695,-30.273,-708.984,0.000
1737550272.005,260.742,-2.930,-27.832,690.430,0.000
1737550272.009,250.488,-8.789,-23.438,743.652,0.000
1737550272.013,163.086,-20.508,-29.297,-627.441,0.000
1737550272.017,117.188,-25.391,-33.203,-1000.000,0.000
1737550272.021,140.625,-29.785,-17.090,-849.121,0.000
1737550272.025,270.508,-54.688,-28.809,355.469,0.000
1737550272.028,300.293,-26.855,-41.992,999.512,0.000
1737550272.032,173.828,14.160,-19.043,-113.770,0.000
1737550272.036,101.074,10.742,-3.418,-1000.000,0.000
1737550272.040,120.117,-6.348,-9.766,-1000.000,0.000
1737550272.044,207.031,-20.508,-18.066,68.359,0.000
1737550272.048,277.344,-12.207,-11.719,999.512,0.000
1737550272.052,180.664,-2.930,-12.207,156.738,0.000
1737550272.056,53.223,-22.949,-21.973,-1000.000,0.000
1737550272.060,65.430,-39.062,-20.508,-951.172,0.000
1737550272.064,195.801,-37.598,-20.996,207.031,0.000
1737550272.067,260.742,-31.250,-38.086,999.512,0.000
1737550272.071,201.660,-21.484,-32.715,623.047,0.000
1737550272.075,67.871,-25.391,-9.277,-612.793,0.000
1737550272.079,33.691,-18.066,-19.043,-1000.000,0.000
1737550272.083,191.406,-6.836,-21.484,-3.906,0.000
1737550272.087,275.879,-5.859,-29.785,999.512,0.000
1737550272.091,228.516,-10.742,-32.715,603.516,0.000
1737550272.095,121.094,-9.277,-19.043,-598.145,0.000
1737550272.099,47.363,-19.043,-16.113,-1000.000,0.000
1737550272.103,161.621,-34.180,-14.648,-81.543,0.000
1737550272.107,244.629,-19.043,-22.949,999.512,0.000
1737550272.110,190.918,-12.207,-22.461,725.098,0.000
1737550272.114,100.586,-15.625,-7.324,-401.855,0.000
1737550272.118,15.625,-31.738,-15.137,-1000.000,0.000
1737550272.122,140.137,-29.785,-29.297,-187.012,0.000
1737550272.126,268.555,1.953,-26.855,999.512,0.000
1737550272.130,217.285,0.000,-21.973,985.840,0.000
1737550272.134,99.121,-17.578,-17.578,16.602,0.000
1737550272.138,-22.949,-24.902,-14.160,-1000.000,0.000
1737550272.142,92.773,-11.230,-20.508,-205.078,0.000
1737550272.146,235.352,-2.441,-28.320,999.512,0.000
1737550272.150,235.840,-18.066,-22.461,999.512,0.000
1737550272.153,128.906,-23.438,-27.344,120.605,0.000
1737550272.157,-14.160,-27.832,-35.645,-1000.000,0.000
1737550272.161,71.289,-37.598,-42.480,-376.465,0.000
1737550272.165,199.219,-32.227,-50.781,921.387,0.000
1737550272.169,198.242,-17.578,-27.832,999.512,0.000
1737550272.173,125.000,-20.508,-1.953,313.477,0.000
1737550272.177,15.137,-17.578,-6.348,-1000.000,0.000
1737550272.181,52.246,-9.277,-20.996,-590.820,0.000
1737550272.185,173.340,-3.418,-22.949,765.625,0.000
1737550272.189,217.285,-9.766,-35.156,999.512,0.000
1737550272.193,159.180,-28.809,-47.363,678.223,0.000
1737550272.196,-8.301,-31.250,-28.320,-726.562,0.000
1737550272.200,5.859,-18.555,-13.672,-647.461,0.000
1737550272.204,149.902,-6.836,-13.672,792.969,0.000
1737550272.208,156.738,-16.113,-14.648,999.512,0.000
1737550272.212,117.676,-22.461,-25.391,748.047,0.000
1737550272.216,-6.348,-20.508,-41.016,-515.137,0.000
1737550272.220,-32.715,-26.367,-37.598,-786.621,0.000
1737550272.224,131.348,-30.762,-26.367,638.672,0.000
1737550272.228,193.359,-24.902,-19.531,999.512,0.000
1737550272.232,179.199,-8.789,-14.648,945.801,0.000
1737550272.235,52.734,-20.508,-16.602,-118.652,0.000
1737550272.239,-32.227,-49.805,-28.320,-1000.000,0.000
1737550272.243,159.180,-36.621,-41.992,286.621,0.000
1737550272.247,234.375,-9.277,-34.180,999.512,0.000
1737550272.251,152.344,-12.695,-20.508,882.324,0.000
1737550272.255,46.387,-23.438,-36.621,-194.336,0.000
1737550272.259,-30.273,-34.180,-42.969,-1000.000,0.000
1737550272.263,66.895,-23.926,-12.207,97.656,0.000
1737550272.267,143.066,-14.648,-6.348,999.512,0.000
1737550272.271,133.301,-19.531,-16.602,791.504,0.000
1737550272.275,45.410,-25.391,-11.719,-290.527,0.000
1737550272.278,-50.781,-39.551,-11.719,-1000.000,0.000
1737550272.282,79.102,-17.578,-19.043,-173.340,0.000
1737550272.286,205.566,7.812,-25.391,999.512,0.000
1737550272.290,132.324,5.371,-24.414,519.043,0.000
1737550272.294,12.695,-12.207,-23.438,-725.586,0.000
1737550272.298,-52.734,-30.762,-21.973,-1000.000,0.000
1737550272.302,19.531,-20.020,-13.184,-429.199,0.000
1737550272.306,145.020,-4.395,-9.277,999.512,0.000
1737550272.310,107.910,-21.484,-12.207,567.383,0.000
1737550272.314,-17.578,-33.203,-11.230,-754.395,0.000
1737550272.317,-56.152,-28.809,-13.672,-1000.000,0.000
1737550272.321,18.066,-29.785,-28.320,-711.914,0.000
1737550272.325,134.766,-4.395,-36.133,681.152,0.000
1737550272.329,116.211,-5.859,-34.180,678.223,0.000
1737550272.333,-10.742,-23.438,-25.879,-713.867,0.000
1737550272.337,-71.777,-9.766,-4.883,-1000.000,0.000
1737550272.341,-33.203,-4.395,-1.465,-830.566,0.000
1737550272.345,104.004,-1.465,-16.113,502.930,0.000
1737550272.349,135.254,-9.277,-33.203,740.723,0.000
1737550272.353,5.859,-47.363,-32.227,-693.359,0.000
1737550272.357,-68.359,-40.527,-23.926,-1000.000,0.000
1737550272.360,-64.453,-12.207,-23.926,-1000.000,0.000
1737550272.364,36.133,-15.625,-19.043,45.410,0.000
1737550272.368,103.027,-17.090,-18.066,938.477,0.000
1737550272.372,-11.230,-19.531,-26.367,-363.770,0.000
1737550272.376,-108.887,-14.648,-23.438,-1000.000,0.000
1737550272.380,-94.727,-8.789,-8.301,-1000.000,0.000
1737550272.384,0.000,-33.203,-19.043,22.949,0.000
1737550272.388,65.430,-31.738,-29.785,999.512,0.000
1737550272.392,-13.672,-25.391,-19.043,-227.051,0.000
1737550272.396,-102.539,-39.551,-18.555,-1000.000,0.000
1737550272.399,-120.117,-18.066,-19.043,-1000.000,0.000
1737550272.403,-2.930,-8.789,-16.113,-5.859,0.000
1737550272.407,93.750,-23.438,-13.672,999.512,0.000
1737550272.411,-11.230,-21.973,-27.344,123.047,0.000
1737550272.415,-114.746,-14.160,-32.715,-979.980,0.000
1737550272.419,-118.164,-10.254,-20.508,-1000.000,0.000
1737550272.423,-3.418,-13.184,-19.531,-246.094,0.000
1737550272.427,112.793,-20.996,-25.391,999.512,0.000
1737550272.431,13.184,-17.090,-33.691,-81.055,0.000
1737550272.435,-87.402,-10.254,-25.879,-1000.000,0.000
1737550272.439,-95.215,-24.414,-15.625,-1000.000,0.000
1737550272.442,-38.574,-28.809,-24.414,-667.969,0.000
1737550272.446,80.566,-14.160,-27.344,705.566,0.000
1737550272.450,26.367,-13.672,-21.484,110.352,0.000
1737550272.454,-90.332,-19.043,-22.461,-1000.000,0.000
1737550272.458,-100.586,-21.973,-28.809,-1000.000,0.000
1737550272.462,-42.969,-27.832,-30.273,-784.180,0.000
1737550272.466,62.012,-28.320,-25.391,363.281,0.000
1737550272.470,29.297,-15.625,-32.715,-25.391,0.000
1737550272.474,-68.848,-12.695,-37.109,-1000.000,0.000
1737550272.478,-87.402,-27.832,-25.879,-992.188,0.000
1737550272.482,-59.570,-41.016,-18.555,-972.656,0.000
1737550272.485,25.391,-30.273,-23.926,-67.383,0.000
1737550272.489,41.016,-12.695,-22.461,-170.410,0.000
1737550272.493,-25.391,-20.020,-13.672,-1000.000,0.000
1737550272.497,-68.848,-31.250,-21.484,-978.516,0.000
1737550272.501,-64.453,-26.855,-22.949,-1000.000,0.000
1737550272.505,39.551,-6.348,-17.578,-38.086,0.000
1737550272.509,59.082,-2.441,-20.020,77.637,0.000
1737550272.513,-35.156,-9.766,-16.602,-1000.000,0.000
1737550272.517,-68.359,-7.812,-13.672,-996.582,0.000
1737550272.521,-52.734,-7.812,-20.508,-1000.000,0.000
1737550272.525,30.762,-10.254,-21.484,-88.867,0.000
1737550272.528,49.805,-16.602,-15.137,175.781,0.000
1737550272.532,-58.594,-29.785,-16.113,-949.707,0.000
1737550272.536,-128.906,-23.438,-20.996,-1000.000,0.000
1737550272.540,-121.582,-8.789,-18.555,-1000.000,0.000
1737550272.544,-43.457,-6.348,-10.742,-653.809,0.000
1737550272.548,-28.809,-9.277,-12.207,-464.355,0.000
1737550272.552,-112.305,-15.625,-18.066,-1000.000,0.000
1737550272.556,-160.645,-16.602,-21.973,-958.496,0.000
1737550272.560,-175.293,0.488,-33.203,-1000.000,0.000
1737550272.564,-121.094,-3.418,-34.668,-423.340,0.000
1737550272.567,-54.688,-20.508,-53.223,509.766,0.000
1737550272.571,-158.203,-22.461,-69.336,-525.879,0.000
1737550272.575,-267.578,-13.184,-42.480,-1000.000,0.000
1737550272.579,-210.938,-0.977,-41.504,-949.219,0.000
1737550272.583,-319.824,-12.207,-44.434,-1000.000,0.000
1737550272.587,-512.695,-36.621,-37.109,-1000.000,0.000
1737550272.591,-374.023,-40.039,-33.203,-1000.000,0.000
1737550272.595,-277.832,-24.902,-21.973,-1000.000,0.000
1737550272.599,-286.621,-26.855,-18.066,-1000.000,0.000
1737550272.603,-218.262,-29.785,-30.762,-1000.000,0.000
1737550272.607,-142.090,-28.809,-50.781,-1000.000,0.000
1737550272.610,-91.309,-40.039,-39.551,-1000.000,0.000
1737550272.614,-98.633,-41.992,-29.785,-996.094,0.000
1737550272.618,-121.094,-40.527,-29.785,-1000.000,0.000
1737550272.622,-68.359,-55.176,-27.344,-994.629,0.000
1737550272.626,-41.016,-50.781,-27.832,-908.203,0.000
1737550272.630,-24.414,-27.832,-18.555,-969.238,0.000
1737550272.634,-16.602,-26.855,-17.578,-947.754,0.000
1737550272.638,-62.500,-43.457,-18.555,-1000.000,0.000
1737550272.642,-6.836,-48.340,-14.648,-382.324,0.000
1737550272.646,124.512,-24.902,-20.020,963.867,0.000
1737550272.649,117.188,-16.602,-11.719,935.547,0.000
1737550272.653,-14.160,-24.414,-6.836,-149.902,0.000
1737550272.657,-131.836,-26.855,-11.230,-1000.000,0.000
1737550272.661,-62.988,-22.461,-10.742,-349.121,0.000
1737550272.665,77.637,-23.438,-18.555,948.730,0.000
1737550272.669,85.938,-29.297,-26.367,992.188,0.000
1737550272.673,-7.324,-22.949,-20.020,10.742,0.000
1737550272.677,-123.535,-30.273,-9.766,-1000.000,0.000
1737550272.681,-57.617,-33.691,-8.789,-416.504,0.000
1737550272.685,85.938,-16.602,-16.602,887.207,0.000
1737550272.689,77.637,-10.742,-17.090,999.512,0.000
1737550272.692,9.277,-21.484,-12.207,637.207,0.000
1737550272.696,-89.844,-31.250,-16.602,-737.305,0.000
1737550272.700,-66.895,-27.344,-15.625,-563.477,0.000
1737550272.704,91.797,-5.859,-9.277,904.785,0.000
1737550272.708,83.008,2.930,-20.020,964.355,0.000
1737550272.712,42.480,-8.789,-26.855,999.512,0.000
1737550272.716,-27.832,-12.207,-20.508,432.617,0.000
1737550272.720,-78.125,-1.465,-22.461,122.070,0.000
1737550272.724,-0.488,4.883,-22.461,981.934,0.000
1737550272.728,-2.930,-1.953,-24.414,942.383,0.000
1737550272.732,-37.109,-5.371,-24.902,999.512,0.000
1737550272.735,-156.250,-9.277,-19.531,497.559,0.000
1737550272.739,-230.957,-11.719,-21.973,-318.359,0.000
1737550272.743,-130.859,-8.789,-24.902,623.535,0.000
1737550272.747,-94.727,-3.418,-35.156,999.512,0.000
1737550272.751,-81.543,-2.441,-31.738,999.512,0.000
1737550272.755,-147.949,-23.438,-12.695,274.414,0.000
1737550272.759,-256.348,-28.809,-38.086,-1000.000,0.000
1737550272.763,-149.902,-9.277,-59.082,-196.777,0.000
1737550272.767,-29.297,-6.348,-29.785,999.512,0.000
1737550272.771,-90.332,11.230,-12.207,459.473,0.000
1737550272.774,-193.359,20.996,-21.484,-802.734,0.000
1737550272.778,-210.449,9.277,-19.043,-1000.000,0.000
1737550272.782,-83.984,7.812,-8.301,-53.711,0.000
1737550272.786,34.180,11.230,-6.836,999.512,0.000
1737550272.790,11.230,-7.324,-17.578,940.430,0.000
1737550272.794,-86.914,-25.879,-29.297,-79.102,0.000
1737550272.798,-140.625,-10.254,-21.973,-1000.000,0.000
1737550272.802,-13.672,0.977,-13.672,-93.262,0.000
1737550272.806,77.637,-8.301,-17.578,999.512,0.000
1737550272.810,72.754,-25.879,-22.949,950.195,0.000
1737550272.814,0.000,-36.133,-23.438,0.977,0.000
1737550272.817,-89.844,-50.293,-14.648,-1000.000,0.000
1737550272.821,9.766,-42.969,-11.230,-328.125,0.000
1737550272.825,134.277,-16.602,-13.672,949.707,0.000
1737550272.829,153.320,-14.160,-13.184,999.512,0.000
1737550272.833,77.637,-26.855,-7.812,220.215,0.000
1737550272.837,-49.805,-33.691,-17.090,-1000.000,0.000
1737550272.841,21.973,-27.344,-25.879,-510.254,0.000
1737550272.845,181.152,-21.484,-10.254,841.797,0.000
1737550272.849,185.547,-19.531,-7.812,999.512,0.000
1737550272.853,124.023,-23.438,-7.324,780.762,0.000
1737550272.857,4.883,-28.320,-6.836,-568.359,0.000
1737550272.860,20.508,-31.738,-20.508,-658.691,0.000
1737550272.864,183.594,-27.344,-18.066,779.785,0.000
1737550272.868,188.965,-19.043,-8.789,999.512,0.000
1737550272.872,102.051,-21.973,-7.324,751.953,0.000
1737550272.876,-24.902,-33.203,-14.648,-542.480,0.000
1737550272.880,-23.926,-36.621,-22.461,-848.145,0.000
1737550272.884,128.418,-22.461,-17.090,605.957,0.000
1737550272.888,160.645,-18.555,-17.090,989.258,0.000
1737550272.892,125.000,-23.438,-14.648,999.512,0.000
1737550272.896,31.738,-22.949,-5.859,239.746,0.000
1737550272.899,-54.199,-27.832,-5.859,-883.301,0.000
1737550272.903,102.539,-28.809,-0.977,404.785,0.000
1737550272.907,185.059,-21.484,0.488,999.512,0.000
1737550272.911,140.137,-14.160,-11.230,999.512,0.000
1737550272.915,74.707,-11.230,-16.602,506.836,0.000
1737550272.919,-19.043,-20.508,-13.672,-707.520,0.000
1737550272.923,100.586,-19.043,-11.230,212.891,0.000
1737550272.927,170.410,-11.230,-4.883,999.512,0.000
1737550272.931,114.746,-13.184,-4.883,999.512,0.000
1737550272.935,24.902,-9.277,-4.395,138.672,0.000
1737550272.939,-85.938,-11.719,-0.977,-1000.000,0.000
1737550272.942,56.152,-11.719,-11.719,110.352,0.000
1737550272.946,158.203,-6.836,-18.555,999.512,0.000
1737550272.950,138.672,-10.254,-8.789,999.512,0.000
1737550272.954,79.102,-20.020,-13.672,316.895,0.000
1737550272.958,-62.988,-23.438,-25.391,-1000.000,0.000
1737550272.962,21.484,-10.742,-19.043,-150.879,0.000
1737550272.966,132.324,-3.906,-14.648,999.512,0.000
1737550272.970,61.523,-14.160,-9.277,959.473,0.000
1737550272.974,15.137,-12.207,-4.395,878.418,0.000
1737550272.978,-75.195,-13.672,-8.789,-501.953,0.000
1737550272.982,-27.344,-20.020,-4.883,-340.332,0.000
1737550272.985,129.883,-10.254,2.930,999.512,0.000
1737550272.989,119.141,-7.812,-2.930,985.840,0.000
1737550272.993,33.203,-21.973,-8.789,869.629,0.000
1737550272.997,-128.906,-22.949,-10.254,-503.906,0.000
1737550273.001,-132.812,-13.672,-13.184,-402.832,0.000
1737550273.005,44.922,-3.906,-10.742,999.512,0.000
1737550273.009,116.211,-3.906,-16.113,950.684,0.000
1737550273.013,51.270,-10.254,-18.555,999.512,0.000
1737550273.017,-163.574,-15.625,-13.184,-219.238,0.000
1737550273.021,-233.887,-17.090,-12.207,-638.672,0.000
1737550273.024,-47.852,-1.953,-14.648,847.168,0.000
1737550273.028,10.254,1.465,-14.648,972.168,0.000
1737550273.032,-35.156,-0.488,-18.066,999.512,0.000
1737550273.036,-168.457,-3.906,-21.973,106.934,0.000
1737550273.040,-248.535,-12.695,-25.879,-731.445,0.000
1737550273.044,-99.121,-1.953,-30.273,645.996,0.000
1737550273.048,-31.738,10.254,-31.738,999.512,0.000
1737550273.052,-62.988,17.090,-32.227,999.512,0.000
1737550273.056,-163.086,15.137,-44.434,144.531,0.000
1737550273.060,-233.398,6.836,-41.016,-810.059,0.000
1737550273.064,-147.461,6.836,-26.367,567.383,0.000
1737550273.067,-87.402,4.395,-24.414,999.512,0.000
1737550273.071,-80.566,-0.977,-22.949,981.934,0.000
1737550273.075,-136.230,-3.418,-22.461,715.332,0.000
1737550273.079,-159.668,-0.977,-20.996,436.523,0.000
1737550273.083,-56.641,3.906,-22.461,947.266,0.000
1737550273.087,5.859,0.977,-13.184,964.355,0.000
1737550273.091,21.973,0.488,-18.555,999.512,0.000
1737550273.095,-31.738,-6.348,-28.320,779.785,0.000
1737550273.099,-131.348,-29.297,-13.672,45.410,0.000
1737550273.103,-44.922,-40.527,-4.395,564.941,0.000
1737550273.106,65.430,-26.855,-2.441,999.512,0.000
1737550273.110,111.816,-12.695,-3.906,973.145,0.000
1737550273.114,96.680,-9.766,-1.953,855.957,0.000
1737550273.118,0.488,-23.438,1.465,5.859,0.000
1737550273.122,81.543,-25.391,0.977,378.906,0.000
1737550273.126,199.707,-8.301,-0.488,999.512,0.000
1737550273.130,172.852,-9.277,-7.812,958.008,0.000
1737550273.134,147.461,-19.043,-9.277,899.414,0.000
1737550273.138,18.066,-25.391,-9.766,-511.230,0.000
1737550273.142,48.828,-30.273,-17.578,-454.590,0.000
1737550273.146,214.844,-26.367,-9.277,958.008,0.000
1737550273.149,246.582,-20.508,-11.719,999.512,0.000
1737550273.153,184.570,-18.066,-22.461,174.316,0.000
1737550273.157,48.828,-26.367,-12.207,-1000.000,0.000
1737550273.161,114.258,-27.344,-6.836,-747.070,0.000
1737550273.165,295.410,-9.766,-14.160,536.621,0.000
1737550273.169,344.238,-3.418,-10.254,999.512,0.000
1737550273.173,230.469,-13.184,-7.812,210.938,0.000
1737550273.177,76.172,-22.461,-17.578,-964.355,0.000
1737550273.181,17.578,-27.344,-18.555,-1000.000,0.000
1737550273.185,102.539,-27.344,-12.695,-98.145,0.000
1737550273.189,199.707,-22.461,-11.719,999.512,0.000
1737550273.192,118.164,-21.973,-11.719,115.234,0.000
1737550273.196,6.836,-26.367,-16.602,-1000.000,0.000
1737550273.200,50.781,-26.367,-13.672,-765.625,0.000
1737550273.204,213.379,-16.113,-7.324,528.809,0.000
1737550273.208,254.883,-9.277,-4.883,999.512,0.000
1737550273.212,176.270,-17.578,-2.441,829.590,0.000
1737550273.216,19.531,-24.902,-9.277,-414.062,0.000
1737550273.220,-23.926,-24.414,-10.254,-927.246,0.000
1737550273.224,164.062,-16.113,-3.418,470.215,0.000
1737550273.228,214.355,-5.371,-10.254,999.512,0.000
1737550273.231,129.395,-3.418,-15.137,834.473,0.000
1737550273.235,-27.832,-9.766,-16.113,-249.512,0.000
1737550273.239,-93.750,-6.836,-24.902,-1000.000,0.000
1737550273.243,58.105,3.418,-26.855,-101.074,0.000
1737550273.247,124.023,7.324,-24.902,999.512,0.000
1737550273.251,21.973,13.184,-34.180,402.344,0.000
1737550273.255,-136.230,10.742,-47.852,-870.605,0.000
1737550273.259,-154.297,12.695,-49.805,-1000.000,0.000
1737550273.263,13.672,24.902,-40.039,-135.254,0.000
1737550273.267,88.379,35.156,-43.457,999.512,0.000
1737550273.271,26.855,36.133,-45.410,654.785,0.000
1737550273.274,-66.895,19.043,-36.621,-595.703,0.000
1737550273.278,-118.652,4.395,-33.691,-1000.000,0.000
1737550273.282,38.086,10.742,-37.109,162.598,0.000
1737550273.286,158.203,19.531,-36.621,999.512,0.000
1737550273.290,111.328,23.926,-32.227,926.758,0.000
1737550273.294,42.969,25.879,-30.762,962.402,0.000
1737550273.298,-24.902,18.555,-34.180,973.633,0.000
1737550273.302,-23.926,12.207,-29.785,970.703,0.000
1737550273.306,16.113,9.277,-20.020,970.703,0.000
1737550273.310,29.785,4.395,-21.484,970.703,0.000
1737550273.314,29.297,1.465,-17.578,970.703,0.000
1737550273.317,-28.809,0.977,-4.395,970.703,0.000
1737550273.321,-12.207,1.953,-8.301,970.703,0.000
1737550273.325,43.945,-5.859,-13.672,970.703,0.000
1737550273.329,19.531,-9.277,-17.090,970.703,0.000
1737550273.333,-9.766,-12.695,-11.719,970.703,0.000
1737550273.337,-62.500,-11.719,-12.207,970.703,0.000
1737550273.341,-85.449,-13.672,-8.301,970.703,0.000
1737550273.345,-58.105,-16.113,-2.441,970.703,0.000
1737550273.349,-52.734,-15.625,-9.277,970.703,0.000
1737550273.353,-63.477,-13.672,-8.789,970.703,0.000
1737550273.356,-84.473,-13.672,-12.695,970.703,0.000
1737550273.360,-49.805,-12.207,-11.719,970.215,0.000
1737550273.364,11.230,-8.301,-10.254,970.703,0.000
1737550273.368,5.371,-12.207,-14.648,970.703,0.000
1737550273.372,18.066,-12.695,-9.277,970.703,0.000
1737550273.376,-28.320,-11.719,-9.766,970.703,0.000
1737550273.380,-29.785,-14.648,-12.695,970.703,0.000
1737550273.384,33.691,-9.277,-13.184,970.703,0.000
1737550273.388,42.480,-8.301,-14.160,970.703,0.000
1737550273.392,43.945,-13.184,-14.160,970.703,0.000
1737550273.396,1.465,-12.207,-10.742,970.703,0.000
1737550273.399,-49.805,-12.207,-14.648,970.703,0.000
1737550273.403,-19.531,-7.812,-17.578,970.703,0.000
1737550273.407,28.320,4.395,-10.254,970.703,0.000
1737550273.411,-0.488,1.465,-9.277,970.215,0.000
1737550273.415,-65.430,-6.348,-10.254,970.703,0.000
1737550273.419,-102.539,-7.324,-12.207,970.703,0.000
1737550273.423,-95.703,-13.672,-11.230,970.703,0.000
1737550273.427,-63.965,-14.648,-3.418,970.703,0.000
1737550273.431,-61.035,-7.812,-2.441,970.703,0.000
1737550273.435,-77.148,-9.277,-3.906,970.703,0.000
1737550273.438,-104.004,-18.066,-3.906,970.703,0.000
1737550273.442,-70.312,-21.973,-3.418,970.703,0.000
1737550273.446,1.953,-19.043,-6.836,970.703,0.000
1737550273.450,-4.395,-17.578,-4.395,970.703,0.000
1737550273.454,-52.246,-15.137,-2.930,970.703,0.000
1737550273.458,-83.984,-18.066,-11.230,971.680,0.000
1737550273.462,-62.988,-23.926,-10.742,972.656,0.000
1737550273.466,-24.414,-15.137,-10.742,914.551,0.000
1737550273.470,-13.672,-6.348,-11.230,999.512,0.000
1737550273.474,-91.797,-11.719,-13.672,395.508,0.000
1737550273.478,-210.938,-16.113,-14.160,-1000.000,0.000
1737550273.481,-85.449,-6.348,-10.254,-133.301,0.000
1737550273.485,36.133,-7.812,-11.230,999.512,0.000
1737550273.489,1.465,-15.625,-8.789,999.512,0.000
1737550273.493,-73.730,-22.461,-11.230,152.832,0.000
1737550273.497,-193.359,-28.320,-17.090,-1000.000,0.000
1737550273.501,-69.336,-20.508,-12.695,-277.832,0.000
1737550273.505,81.055,-14.160,-8.789,977.051,0.000
1737550273.509,60.059,-18.066,-9.277,999.512,0.000
1737550273.513,-4.395,-19.043,-11.230,471.191,0.000
1737550273.517,-139.648,-23.926,-18.066,-963.379,0.000
1737550273.521,-75.684,-24.414,-19.531,-410.645,0.000
1737550273.524,105.469,-15.137,-13.184,994.629,0.000
1737550273.528,88.379,-13.672,-13.184,945.801,0.000
1737550273.532,51.758,-15.625,-11.230,999.512,0.000
1737550273.536,-59.082,-17.578,-10.254,63.477,0.000
1737550273.540,-74.219,-17.578,-12.207,-122.070,0.000
1737550273.544,74.707,-10.254,-7.812,999.512,0.000
1737550273.548,84.473,-6.836,-7.324,922.363,0.000
1737550273.552,79.590,-6.836,-12.695,999.512,0.000
1737550273.556,-39.062,-10.742,-19.531,349.609,0.000
1737550273.560,-115.723,-17.578,-18.066,-207.520,0.000
1737550273.563,37.598,-12.695,-9.277,891.602,0.000
1737550273.567,86.914,-12.695,-4.883,999.512,0.000
1737550273.571,68.359,-14.160,-8.301,925.293,0.000
1737550273.575,27.832,-11.230,-9.766,977.051,0.000
1737550273.579,-21.973,-16.602,-10.742,965.332,0.000
1737550273.583,29.785,-14.160,-11.230,973.145,0.000
1737550273.587,81.543,-13.184,-7.812,959.961,0.000
1737550273.591,68.359,-15.625,-7.812,998.047,0.000
1737550273.595,8.301,-16.113,-9.766,877.441,0.000
1737550273.599,-30.762,-20.020,-10.742,799.805,0.000
1737550273.603,14.160,-15.625,-11.719,976.074,0.000
1737550273.606,61.035,-13.672,-7.324,952.637,0.000
1737550273.610,67.871,-19.043,-4.395,999.512,0.000
1737550273.614,5.371,-13.672,-15.625,801.758,0.000
1737550273.618,-60.547,-15.137,-19.531,525.391,0.000
1737550273.622,-2.441,-23.438,-15.625,913.086,0.000
1737550273.626,32.227,-24.414,-15.625,968.750,0.000
1737550273.630,-3.418,-24.414,-10.742,972.168,0.000
1737550273.634,-74.219,-24.902,-4.883,906.738,0.000
1737550273.638,-246.582,-36.133,-8.301,-497.559,0.000
1737550273.642,-225.098,-38.574,-14.160,-335.449,0.000
1737550273.646,-80.566,-31.250,-10.254,999.512,0.000
1737550273.649,-117.676,-41.992,-8.301,798.340,0.000
1737550273.653,-275.879,-60.059,-14.648,-356.445,0.000
1737550273.657,-385.254,-72.266,-21.484,-1000.000,0.000
1737550273.661,-269.531,-64.941,-13.672,-530.273,0.000
1737550273.665,-147.949,-61.035,2.930,914.551,0.000
1737550273.669,-208.008,-72.754,3.418,703.125,0.000
1737550273.673,-315.430,-74.219,-0.977,-672.852,0.000
1737550273.677,-368.652,-77.637,3.418,-1000.000,0.000
1737550273.681,-358.398,-84.473,7.812,-1000.000,0.000
1737550273.685,-208.008,-79.590,7.812,166.504,0.000
1737550273.689,-118.164,-71.289,10.742,572.754,0.000
1737550273.692,-244.629,-67.871,-1.953,-882.812,0.000
1737550273.696,-314.453,-67.871,-20.508,-1000.000,0.000
1737550273.700,-279.785,-64.453,-15.137,-1000.000,0.000
1737550273.704,-159.180,-57.617,-8.301,-341.309,0.000
1737550273.708,-108.887,-55.176,-8.789,80.566,0.000
1737550273.712,-187.988,-56.641,-3.906,-907.715,0.000
1737550273.716,-244.141,-57.129,-5.371,-1000.000,0.000
1737550273.720,-221.191,-48.828,-5.371,-999.512,0.000
1737550273.724,-67.383,-38.574,-15.137,30.273,0.000
1737550273.728,8.789,-32.715,-18.555,999.512,0.000
1737550273.731,-81.055,-34.668,-13.672,343.262,0.000
1737550273.735,-200.684,-35.645,-18.066,-979.004,0.000
1737550273.739,-201.172,-29.297,-11.719,-820.312,0.000
1737550273.743,-41.992,-22.461,-7.324,567.871,0.000
1737550273.747,10.254,-22.461,-8.301,999.023,0.000
1737550273.751,-31.738,-25.391,-11.719,999.512,0.000
1737550273.755,-120.605,-25.879,-17.090,542.480,0.000
1737550273.759,-199.707,-28.809,-14.648,-128.418,0.000
1737550273.763,-76.172,-23.926,-12.695,768.555,0.000
1737550273.767,-24.902,-21.973,-11.230,999.512,0.000
1737550273.771,-68.848,-25.391,-14.160,979.004,0.000
1737550273.774,-133.301,-28.809,-18.555,822.754,0.000
1737550273.778,-225.586,-30.762,-23.926,130.859,0.000
1737550273.782,-121.582,-23.926,-27.344,608.398,0.000
1737550273.786,-25.391,-22.461,-19.043,996.582,0.000
1737550273.790,-67.383,-23.926,-13.672,999.512,0.000
1737550273.794,-156.738,-24.902,-19.043,408.691,0.000
1737550273.798,-291.016,-35.156,-26.367,-1000.000,0.000
1737550273.802,-150.879,-29.785,-26.855,-91.797,0.000
1737550273.806,27.832,-17.578,-20.996,999.512,0.000
1737550273.810,-20.996,-14.648,-20.020,951.660,0.000
1737550273.813,-68.359,-13.672,-21.973,878.418,0.000
1737550273.817,-202.148,-21.484,-21.484,-511.719,0.000
1737550273.821,-167.480,-24.902,-24.414,-390.625,0.000
1737550273.825,-9.766,-20.020,-24.902,999.512,0.000
1737550273.829,-17.578,-15.625,-30.273,970.215,0.000
1737550273.833,-114.258,-14.648,-33.203,-168.457,0.000
1737550273.837,-216.797,-18.555,-28.809,-1000.000,0.000
1737550273.841,-186.523,-22.461,-26.855,-1000.000,0.000
1737550273.845,-46.875,-20.020,-22.461,69.336,0.000
1737550273.849,-24.414,-14.160,-24.414,250.488,0.000
1737550273.853,-154.297,-15.137,-28.320,-998.047,0.000
1737550273.856,-202.637,-15.625,-30.762,-1000.000,0.000
1737550273.860,-174.805,-4.883,-28.320,-1000.000,0.000
1737550273.864,-103.516,0.488,-23.926,-508.789,0.000
1737550273.868,-127.930,-10.742,-26.367,-449.707,0.000
1737550273.872,-205.078,-18.555,-26.855,-1000.000,0.000
1737550273.876,-252.930,-15.625,-26.855,-994.629,0.000
1737550273.880,-245.605,-13.672,-30.273,-988.770,0.000
1737550273.884,-174.316,-20.020,-29.297,-1000.000,0.000
1737550273.888,-148.438,-16.602,-27.832,-1000.000,0.000
1737550273.892,-169.922,-17.578,-27.344,-1000.000,0.000
1737550273.896,-244.141,-30.762,-19.531,-1000.000,0.000
1737550273.899,-264.160,-27.344,-19.531,-1000.000,0.000
1737550273.903,-213.867,-23.438,-22.461,-1000.000,0.000
1737550273.907,-149.902,-23.926,-22.949,-1000.000,0.000
1737550273.911,-144.043,-19.043,-30.273,-1000.000,0.000
1737550273.915,-251.953,-19.043,-35.645,-1000.000,0.000
1737550273.919,-296.875,-13.672,-36.621,-1000.000,0.000
1737550273.923,-219.238,-5.859,-37.109,-1000.000,0.000
1737550273.927,-176.270,-6.348,-36.133,-1000.000,0.000
1737550273.931,-229.004,-13.672,-39.062,-1000.000,0.000
1737550273.935,-284.180,-24.902,-43.945,-1000.000,0.000
1737550273.938,-295.898,-25.391,-43.457,-1000.000,0.000
1737550273.942,-253.418,-18.555,-41.016,-1000.000,0.000
1737550273.946,-214.355,-14.160,-35.156,-1000.000,0.000
1737550273.950,-170.410,-8.789,-32.227,-1000.000,0.000
1737550273.954,-182.617,-9.277,-33.203,-1000.000,0.000
1737550273.958,-260.254,-14.648,-30.762,-1000.000,0.000
1737550273.962,-198.242,-11.230,-36.133,-1000.000,0.000
1737550273.966,-156.738,-7.812,-43.945,-1000.000,0.000
1737550273.970,-211.426,-8.789,-37.109,-1000.000,0.000
1737550273.974,-224.609,-10.742,-31.738,-1000.000,0.000
1737550273.978,-256.348,-11.230,-33.691,-1000.000,0.000
1737550273.981,-244.629,-17.578,-29.785,-1000.000,0.000
1737550273.985,-201.172,-19.531,-33.691,-1000.000,0.000
1737550273.989,-195.312,-13.184,-33.691,-992.188,0.000
1737550273.993,-236.328,-8.301,-5.859,-952.148,0.000
1737550273.997,-265.625,-16.113,-12.695,-1000.000,0.000
1737550274.001,-140.137,-24.414,-51.270,-85.449,0.000
1737550274.005,-22.949,-14.648,-52.246,999.512,0.000
1737550274.009,-60.059,-23.926,-41.504,938.965,0.000
1737550274.013,-152.832,-34.668,-43.457,952.637,0.000
1737550274.017,-277.832,-33.203,-42.480,975.098,0.000
1737550274.021,-354.980,-22.949,-34.668,970.703,0.000
1737550274.024,-374.023,-19.043,-21.973,970.703,0.000
1737550274.028,-458.496,-21.973,-21.973,970.703,0.000
1737550274.032,-703.613,-17.578,-27.344,970.703,0.000
1737550274.036,-961.426,-16.602,-30.762,970.703,0.000
1737550274.040,-1000.000,-21.484,-28.809,970.703,0.000
1737550274.044,-992.676,-20.508,-27.344,970.703,0.000
1737550274.048,-1000.000,-18.066,-28.320,970.703,0.000
1737550274.052,-1000.000,-18.066,-28.809,970.703,0.000
1737550274.056,-1000.000,-16.113,-29.785,970.703,0.000
1737550274.060,-1000.000,-12.207,-26.855,970.703,0.000
1737550274.063,-1000.000,-8.789,-22.461,977.051,0.000
