timestamps,TP9,AF7,AF8,TP10,Right AUX
1737556402.203,-35.645,-18.555,-13.184,402.344,0.000
1737556402.207,-63.477,-39.062,-28.809,-868.652,0.000
1737556402.211,-67.383,-61.523,-32.715,-1000.000,0.000
1737556402.215,-32.227,-26.367,-12.695,-141.113,0.000
1737556402.218,-4.883,-7.324,-10.254,999.512,0.000
1737556402.222,-28.809,-7.324,-25.879,486.328,0.000
1737556402.226,-54.688,-4.395,-41.504,-820.801,0.000
1737556402.230,-35.156,4.395,-17.578,-1000.000,0.000
1737556402.234,-18.555,-3.418,0.488,-353.027,0.000
1737556402.238,8.301,-5.859,-9.277,999.512,0.000
1737556402.242,-10.254,-7.324,-11.230,592.773,0.000
1737556402.246,-79.102,-35.645,-33.203,-773.438,0.000
1737556402.250,-74.219,-35.645,-44.434,-1000.000,0.000
1737556402.254,-16.602,-20.508,-14.160,-298.828,0.000
1737556402.258,4.395,-20.508,9.277,987.305,0.000
1737556402.261,-19.531,-12.695,-17.090,959.473,0.000
1737556402.265,-40.527,-11.230,-41.504,-228.027,0.000
1737556402.269,-40.527,-9.277,-32.227,-1000.000,0.000
1737556402.273,-8.789,10.254,-13.672,-357.910,0.000
1737556402.277,12.695,-2.930,-18.066,933.594,0.000
1737556402.281,-6.836,-30.762,-27.344,999.512,0.000
1737556402.285,-48.828,-42.480,-31.738,-22.949,0.000
1737556402.289,-77.637,-51.270,-43.457,-1000.000,0.000
1737556402.293,-43.457,-34.668,-13.672,-685.059,0.000
1737556402.297,0.000,-9.766,0.000,664.551,0.000
1737556402.301,0.000,4.883,0.000,999.512,0.000
1737556402.304,0.000,14.160,0.000,-79.590,0.000
1737556402.308,0.000,-7.324,0.000,-1000.000,0.000
1737556402.312,0.000,-16.602,0.000,-992.188,0.000
1737556402.316,0.000,-5.859,0.000,149.902,0.000
1737556402.320,0.000,-20.996,0.000,999.512,0.000
1737556402.324,0.000,-33.691,0.000,41.992,0.000
1737556402.328,0.000,-17.090,0.000,-1000.000,0.000
1737556402.332,0.000,-2.441,0.000,-1000.000,0.000
1737556402.336,0.000,4.395,0.000,61.035,0.000
1737556402.340,0.000,-16.602,0.000,999.512,0.000
1737556402.344,-36.621,-20.508,-12.207,143.066,0.000
1737556402.347,-62.012,-14.648,-21.484,-1000.000,0.000
1737556402.351,-55.664,-1.465,-38.086,-1000.000,0.000
1737556402.355,1.465,2.930,-29.785,-74.707,0.000
1737556402.359,28.809,-10.742,-17.578,999.512,0.000
1737556402.363,-20.508,-11.719,-20.508,297.852,0.000
1737556402.367,-72.754,-32.227,-33.203,-965.820,0.000
1737556402.371,-69.336,-36.621,-34.668,-1000.000,0.000
1737556402.375,-31.738,-20.508,-47.852,-215.820,0.000
1737556402.379,-2.930,-7.324,-33.203,999.512,0.000
1737556402.383,-23.926,-20.020,4.883,338.379,0.000
1737556402.386,-52.246,-20.996,-5.859,-960.938,0.000
1737556402.390,-48.828,-10.742,-11.719,-1000.000,0.000
1737556402.394,-16.113,-17.090,-3.906,-222.168,0.000
1737556402.398,-3.906,-30.273,-23.926,999.512,0.000
1737556402.402,-25.879,-25.391,-21.484,714.355,0.000
1737556402.406,-48.340,-8.789,-20.020,-597.168,0.000
1737556402.410,-71.777,-26.855,-48.828,-1000.000,0.000
1737556402.414,-54.688,-41.016,-35.156,-177.734,0.000
1737556402.418,-19.531,-20.508,-10.254,999.512,0.000
1737556402.422,-34.180,-5.371,-11.230,975.586,0.000
1737556402.425,-67.383,-17.090,-33.691,-138.672,0.000
1737556402.429,-61.035,-18.066,-37.598,-1000.000,0.000
1737556402.433,-30.762,-12.207,-11.230,-317.383,0.000
1737556402.437,-20.508,-20.508,-14.648,959.961,0.000
1737556402.441,-35.156,-20.508,-22.461,999.512,0.000
1737556402.445,-64.453,-24.414,-17.090,-10.742,0.000
1737556402.449,-79.102,-27.344,-24.902,-1000.000,0.000
1737556402.453,-28.320,-10.742,-28.320,-464.355,0.000
1737556402.457,14.648,27.832,-3.906,856.445,0.000
1737556402.461,-13.184,-2.441,-41.992,999.512,0.000
1737556402.465,-40.527,-36.133,-62.988,105.469,0.000
1737556402.468,-49.805,-23.438,-30.273,-1000.000,0.000
1737556402.472,-37.598,-20.996,-16.113,-638.184,0.000
1737556402.476,-4.883,-8.789,-8.789,683.594,0.000
1737556402.480,15.137,4.395,-10.254,999.512,0.000
1737556402.484,-30.762,-12.207,-24.414,277.832,0.000
1737556402.488,-81.055,-35.645,-33.691,-1000.000,0.000
1737556402.492,-63.965,-25.879,-48.828,-820.312,0.000
1737556402.496,-12.695,-6.836,-36.133,525.391,0.000
1737556402.500,-18.555,-16.113,-23.926,999.512,0.000
1737556402.504,-25.879,-5.371,-40.527,652.344,0.000
1737556402.508,-34.180,-0.488,-31.738,-687.988,0.000
1737556402.511,-56.641,-27.344,-30.273,-979.980,0.000
1737556402.515,-36.133,-37.109,-41.016,418.457,0.000
1737556402.519,-25.391,-29.785,-31.250,999.512,0.000
1737556402.523,-38.086,-28.809,-26.367,789.062,0.000
1737556402.527,-66.406,-23.926,-34.668,-476.074,0.000
1737556402.531,-63.477,-18.555,-17.578,-1000.000,0.000
1737556402.535,-14.160,-6.348,-20.020,260.742,0.000
1737556402.539,-0.977,17.090,-32.227,999.512,0.000
1737556402.543,-8.789,6.348,-22.461,776.855,0.000
1737556402.547,-37.109,-14.648,-14.160,-439.941,0.000
1737556402.551,-51.758,-8.789,-9.277,-1000.000,0.000
1737556402.554,-13.672,7.324,-20.508,-154.297,0.000
1737556402.558,3.418,-13.672,-34.668,999.512,0.000
1737556402.562,-38.086,-40.039,-38.086,585.449,0.000
1737556402.566,-69.336,-24.414,-23.926,-731.445,0.000
1737556402.570,-62.500,-9.277,-27.344,-1000.000,0.000
1737556402.574,-25.391,7.812,-26.367,-289.062,0.000
1737556402.578,10.254,9.766,-19.531,999.512,0.000
1737556402.582,-39.062,-5.859,-21.484,748.535,0.000
1737556402.586,-77.637,-11.719,-8.789,-578.125,0.000
1737556402.590,-60.059,-15.625,-10.254,-1000.000,0.000
1737556402.593,-41.016,-10.254,-32.227,-732.422,0.000
1737556402.597,4.883,12.207,-31.738,739.746,0.000
1737556402.601,-0.977,7.812,-15.625,672.363,0.000
1737556402.605,-70.312,-35.156,-16.602,-815.918,0.000
1737556402.609,-72.754,-44.434,-30.273,-1000.000,0.000
1737556402.613,-38.574,-13.184,-22.949,-922.852,0.000
1737556402.617,-2.930,7.812,-7.812,355.957,0.000
1737556402.621,-4.883,-16.602,-13.672,992.188,0.000
1737556402.625,-66.406,-47.852,-25.879,-433.105,0.000
1737556402.629,-63.477,-32.227,-10.254,-1000.000,0.000
1737556402.633,-26.367,-8.301,2.930,-918.457,0.000
1737556402.636,-2.930,17.090,-21.973,278.320,0.000
1737556402.640,-1.953,15.625,-30.762,999.512,0.000
1737556402.644,-20.996,4.395,-9.766,-145.996,0.000
1737556402.648,-47.363,-15.625,-15.625,-1000.000,0.000
1737556402.652,-42.480,-14.648,-17.090,-1000.000,0.000
1737556402.656,-3.418,1.953,-5.859,-19.531,0.000
1737556402.660,2.930,-12.695,-9.277,999.512,0.000
1737556402.664,-42.480,-29.785,-31.250,-7.812,0.000
1737556402.668,-61.523,-29.785,-41.992,-1000.000,0.000
1737556402.672,-45.898,-27.832,-26.367,-1000.000,0.000
1737556402.676,-8.301,-1.953,-10.742,20.020,0.000
1737556402.679,19.043,14.648,-15.625,999.512,0.000
1737556402.683,-18.555,-5.859,-35.645,197.754,0.000
1737556402.687,-57.617,-16.602,-21.973,-1000.000,0.000
1737556402.691,-56.152,-27.832,3.906,-1000.000,0.000
1737556402.695,-19.043,-20.996,-12.207,-124.023,0.000
1737556402.699,-5.371,-10.254,-15.137,999.512,0.000
1737556402.703,-50.781,-20.996,-23.438,378.906,0.000
1737556402.707,-83.496,-21.973,-30.273,-917.480,0.000
1737556402.711,-67.383,-18.555,-12.695,-1000.000,0.000
1737556402.715,-34.668,-14.648,-24.414,-232.422,0.000
1737556402.719,-10.742,-2.441,-31.738,999.512,0.000
1737556402.722,-32.227,-8.301,-24.902,397.949,0.000
1737556402.726,-61.523,-24.902,-5.371,-909.180,0.000
1737556402.730,-64.941,-25.879,-1.953,-1000.000,0.000
1737556402.734,-25.879,-14.160,-16.602,-438.477,0.000
1737556402.738,4.395,-7.324,-29.297,999.512,0.000
1737556402.742,-30.273,-20.020,-19.043,493.652,0.000
1737556402.746,-83.008,-40.527,-30.273,-900.391,0.000
1737556402.750,-76.660,-34.668,-24.902,-1000.000,0.000
1737556402.754,-50.293,-20.508,-12.695,-830.566,0.000
1737556402.758,-26.367,-14.160,-13.184,625.000,0.000
1737556402.761,-15.625,-11.719,-3.418,622.559,0.000
1737556402.765,-43.945,-11.719,-35.156,-872.070,0.000
1737556402.769,-54.688,-13.184,-44.922,-1000.000,0.000
1737556402.773,-37.109,-12.207,5.859,-913.086,0.000
1737556402.777,-0.977,-5.859,-0.977,418.457,0.000
1737556402.781,1.953,-4.395,-36.133,926.758,0.000
1737556402.785,-36.621,-23.438,-31.250,-570.801,0.000
1737556402.789,-61.523,-29.785,-32.715,-1000.000,0.000
1737556402.793,-44.434,-18.066,-36.133,-1000.000,0.000
1737556402.797,-10.254,-15.625,-13.672,15.137,0.000
1737556402.800,-9.277,-21.484,-27.832,989.258,0.000
1737556402.804,-40.039,-23.438,-33.691,-437.988,0.000
1737556402.808,-47.363,-10.254,-17.578,-1000.000,0.000
1737556402.812,-26.855,-10.742,-19.043,-1000.000,0.000
1737556402.816,5.859,-15.625,-19.531,-31.738,0.000
1737556402.820,14.648,1.953,-24.902,999.512,0.000
1737556402.824,-35.645,3.418,-7.324,-41.016,0.000
1737556402.828,-58.594,-6.836,-3.906,-1000.000,0.000
1737556402.832,-48.828,-9.277,-10.254,-1000.000,0.000
1737556402.836,-38.086,-23.438,-20.020,-190.918,0.000
1737556402.840,-4.395,-12.695,-24.414,999.512,0.000
1737556402.843,-39.551,-18.066,-20.020,-16.602,0.000
1737556402.847,-71.289,-17.578,-26.855,-1000.000,0.000
1737556402.851,-44.434,-1.953,-19.531,-1000.000,0.000
1737556402.855,-12.207,0.000,-6.348,-238.281,0.000
1737556402.859,-5.859,-10.254,-39.062,999.512,0.000
1737556402.863,-31.738,-10.742,-67.871,267.090,0.000
1737556402.867,-63.965,-13.184,-33.691,-1000.000,0.000
1737556402.871,-71.289,-30.273,-4.883,-1000.000,0.000
1737556402.875,-14.648,-20.020,1.953,-180.664,0.000
1737556402.879,33.203,-2.441,-7.812,999.512,0.000
1737556402.883,8.301,3.906,-24.902,672.852,0.000
1737556402.886,-23.926,6.836,-30.762,-635.742,0.000
1737556402.890,-33.203,-5.371,-29.297,-1000.000,0.000
1737556402.894,-13.184,-21.484,-23.926,-214.355,0.000
1737556402.898,3.418,-34.180,-39.551,999.512,0.000
1737556402.902,-26.367,-31.738,-47.852,493.652,0.000
1737556402.906,-64.941,-29.297,-48.340,-834.473,0.000
1737556402.910,-68.359,-33.203,-44.434,-1000.000,0.000
1737556402.914,-16.602,-4.883,-9.277,-314.941,0.000
1737556402.918,32.715,23.438,12.207,999.512,0.000
1737556402.922,5.859,8.301,-4.395,889.160,0.000
1737556402.926,-32.715,-18.555,-16.602,-376.465,0.000
1737556402.929,-62.988,-37.109,-39.551,-1000.000,0.000
1737556402.933,-45.898,-20.996,-31.250,-676.758,0.000
1737556402.937,13.672,1.465,7.324,733.398,0.000
1737556402.941,-4.883,-10.254,-9.277,893.555,0.000
1737556402.945,-71.777,-38.574,-34.180,-507.324,0.000
1737556402.949,-74.707,-33.691,-18.066,-1000.000,0.000
1737556402.953,-35.645,-6.348,-19.531,-692.871,0.000
1737556402.957,-1.953,1.465,-39.062,589.355,0.000
1737556402.961,-10.254,-6.836,-13.672,999.512,0.000
1737556402.965,-50.781,-29.785,-4.883,20.020,0.000
1737556402.968,-62.988,-34.180,-21.973,-1000.000,0.000
1737556402.972,-39.551,-20.508,-14.160,-883.301,0.000
1737556402.976,-6.348,-12.207,-3.418,370.117,0.000
1737556402.980,6.836,-19.531,-16.602,999.512,0.000
1737556402.984,-32.715,-31.738,-22.949,52.246,0.000
1737556402.988,-72.266,-42.480,-22.461,-1000.000,0.000
1737556402.992,-47.363,-27.832,-18.555,-1000.000,0.000
1737556402.996,19.043,8.301,-13.672,88.867,0.000
1737556403.000,32.715,7.324,-21.973,999.512,0.000
1737556403.004,-34.180,-18.555,-38.574,65.430,0.000
1737556403.008,-62.012,-20.020,-48.340,-1000.000,0.000
1737556403.011,-51.758,-22.461,-18.555,-1000.000,0.000
1737556403.015,-29.297,-20.508,8.301,-346.191,0.000
1737556403.019,3.418,-2.441,-12.695,999.512,0.000
1737556403.023,-23.438,-7.812,-20.020,146.484,0.000
1737556403.027,-61.035,-25.391,-27.832,-1000.000,0.000
1737556403.031,-58.594,-19.531,-31.250,-1000.000,0.000
1737556403.035,-20.996,-6.348,-24.414,-264.160,0.000
1737556403.039,12.207,-9.277,-19.043,999.512,0.000
1737556403.043,-24.414,-22.461,-21.973,282.227,0.000
1737556403.047,-65.430,-38.574,-38.086,-991.211,0.000
1737556403.051,-53.711,-25.879,-25.879,-1000.000,0.000
1737556403.054,-19.531,-11.230,-30.762,-268.555,0.000
1737556403.058,5.371,-20.020,-50.293,999.512,0.000
1737556403.062,-19.531,-21.484,-35.645,633.301,0.000
1737556403.066,-52.734,-24.414,-17.090,-690.430,0.000
1737556403.070,-55.664,-23.926,-4.395,-1000.000,0.000
1737556403.074,-38.086,-14.648,-11.719,-493.652,0.000
1737556403.078,-18.555,-13.672,-34.180,992.188,0.000
1737556403.082,-32.715,-20.020,-54.199,574.707,0.000
1737556403.086,-33.691,-19.531,-26.367,-833.496,0.000
1737556403.090,-30.762,-24.414,0.000,-1000.000,0.000
1737556403.094,-40.527,-32.715,-21.973,-677.734,0.000
1737556403.097,-20.020,-11.230,-24.414,734.375,0.000
1737556403.101,-14.648,-17.090,-29.785,892.578,0.000
1737556403.105,-35.645,-29.785,-33.691,-500.000,0.000
1737556403.109,-48.828,-12.207,-33.691,-1000.000,0.000
1737556403.113,-21.973,9.766,-23.926,-626.953,0.000
1737556403.117,8.789,17.090,-18.066,693.359,0.000
1737556403.121,-2.930,-5.371,-17.090,999.512,0.000
1737556403.125,-41.992,-28.809,-6.836,-115.723,0.000
1737556403.129,-62.500,-34.180,-23.438,-1000.000,0.000
1737556403.133,-49.805,-31.250,-24.414,-917.969,0.000
1737556403.136,-26.855,-32.715,-28.809,273.438,0.000
1737556403.140,-11.719,-20.996,-41.504,999.512,0.000
1737556403.144,-38.574,-23.926,-27.832,97.656,0.000
1737556403.148,-67.871,-28.320,-39.062,-1000.000,0.000
1737556403.152,-33.691,0.488,-44.434,-937.500,0.000
1737556403.156,3.418,-5.859,-18.066,279.785,0.000
1737556403.160,-10.742,-28.320,-23.926,999.512,0.000
1737556403.164,-50.781,-8.789,-12.207,131.348,0.000
1737556403.168,-71.289,-13.184,-9.277,-1000.000,0.000
1737556403.172,-47.363,-26.367,-37.598,-1000.000,0.000
1737556403.176,0.000,3.906,-31.738,-141.602,0.000
1737556403.179,21.484,11.230,-16.113,999.512,0.000
1737556403.183,-32.227,-20.996,-26.855,161.621,0.000
1737556403.187,-60.547,-26.367,-27.344,-1000.000,0.000
1737556403.191,-46.875,-23.438,-28.320,-1000.000,0.000
1737556403.195,-19.531,-16.602,-25.879,-200.684,0.000
1737556403.199,1.953,-6.836,-18.555,999.512,0.000
1737556403.203,-22.949,-13.184,-30.762,392.578,0.000
1737556403.207,-46.875,-14.648,-46.875,-921.875,0.000
1737556403.211,-46.875,-17.578,-41.992,-1000.000,0.000
1737556403.215,-22.461,-19.531,-41.016,-147.461,0.000
1737556403.218,-1.465,-12.695,-41.504,999.512,0.000
1737556403.222,-0.488,2.441,-21.973,999.512,0.000
1737556403.226,-39.551,-7.812,-30.273,-51.758,0.000
1737556403.230,-62.988,-35.645,-38.574,-1000.000,0.000
1737556403.234,-11.230,-22.461,-8.789,-165.039,0.000
1737556403.238,-0.977,-10.254,-7.324,999.512,0.000
1737556403.242,-25.879,-7.324,-12.695,967.285,0.000
1737556403.246,-46.387,3.418,-20.508,-126.465,0.000
1737556403.250,-77.148,-20.996,-43.457,-1000.000,0.000
1737556403.254,-50.781,-38.574,-44.922,-329.590,0.000
1737556403.258,-1.953,-18.066,-28.320,999.512,0.000
1737556403.261,-7.324,-11.230,-31.250,865.234,0.000
1737556403.265,-45.410,-24.414,-54.688,-425.781,0.000
1737556403.269,-60.547,-38.086,-34.180,-1000.000,0.000
1737556403.273,-31.250,-19.043,-16.602,-735.840,0.000
1737556403.277,-6.836,-1.465,-18.066,550.293,0.000
1737556403.281,-1.465,9.766,-12.695,999.512,0.000
1737556403.285,-31.738,-3.418,-19.043,-44.922,0.000
1737556403.289,-41.992,-12.695,-33.203,-1000.000,0.000
1737556403.293,-30.762,-18.066,-49.316,-834.961,0.000
1737556403.297,-26.367,-38.574,-26.855,440.918,0.000
1737556403.301,-10.742,-24.902,-8.301,999.512,0.000
1737556403.304,-41.504,-11.230,-21.484,31.250,0.000
1737556403.308,-70.801,-23.926,-36.133,-1000.000,0.000
1737556403.312,-60.059,-25.879,-28.809,-1000.000,0.000
1737556403.316,-25.879,-6.348,-21.973,24.902,0.000
1737556403.320,0.488,-7.812,-38.086,999.512,0.000
1737556403.324,-22.461,-13.672,-30.762,129.883,0.000
1737556403.328,-51.270,-8.789,-20.996,-1000.000,0.000
1737556403.332,-51.758,-19.531,-33.203,-1000.000,0.000
1737556403.336,-29.297,-8.301,-34.668,91.309,0.000
1737556403.340,-8.301,3.906,-26.855,999.512,0.000
1737556403.343,-40.527,-17.090,-26.855,177.734,0.000
1737556403.347,-76.172,-20.020,-37.109,-1000.000,0.000
1737556403.351,-57.617,-19.531,-39.551,-1000.000,0.000
1737556403.355,-19.043,-18.555,-41.016,-155.762,0.000
1737556403.359,12.695,-11.719,-22.949,999.512,0.000
1737556403.363,-7.324,-21.973,-14.160,381.836,0.000
1737556403.367,-36.133,-20.508,-23.926,-922.852,0.000
1737556403.371,-53.711,-19.531,-26.855,-1000.000,0.000
1737556403.375,-35.156,-10.254,-24.902,-199.707,0.000
1737556403.379,-19.043,-1.953,-29.297,999.512,0.000
1737556403.383,-50.293,-3.906,-37.109,538.086,0.000
1737556403.386,-94.238,-9.766,-48.828,-796.387,0.000
1737556403.390,-110.840,-10.254,-54.199,-1000.000,0.000
1737556403.394,-88.379,-2.930,-54.688,-223.145,0.000
1737556403.398,-104.980,5.859,-82.031,999.512,0.000
1737556403.402,-155.273,-1.953,-110.352,688.965,0.000
1737556403.406,-215.332,-34.180,-111.328,-627.930,0.000
1737556403.410,-240.723,-38.574,-118.652,-1000.000,0.000
1737556403.414,-206.543,-20.508,-121.094,-377.441,0.000
1737556403.418,-179.688,-15.625,-113.770,956.543,0.000
1737556403.422,-200.684,-20.996,-130.371,940.430,0.000
1737556403.426,-229.492,-36.621,-127.441,-297.363,0.000
1737556403.429,-250.000,-45.898,-124.023,-1000.000,0.000
1737556403.433,-231.445,-53.711,-128.906,-575.684,0.000
1737556403.437,-195.801,-46.387,-126.953,773.926,0.000
1737556403.441,-213.379,-48.340,-129.883,999.512,0.000
1737556403.445,-230.469,-54.688,-88.867,-165.039,0.000
1737556403.449,-208.008,-41.504,-79.590,-1000.000,0.000
1737556403.453,-177.246,-13.184,-108.887,-846.680,0.000
1737556403.457,-147.461,-24.414,-89.844,458.008,0.000
1737556403.461,-144.531,-47.363,-64.941,999.512,0.000
1737556403.465,-174.316,-56.641,-83.496,-244.141,0.000
1737556403.469,-177.734,-70.801,-84.473,-1000.000,0.000
1737556403.472,-142.578,-53.223,-58.594,-1000.000,0.000
1737556403.476,-86.426,-17.578,-47.363,-24.414,0.000
1737556403.480,-44.922,-3.906,-35.645,999.512,0.000
1737556403.484,-84.473,-28.809,-51.758,14.648,0.000
1737556403.488,-107.422,-47.363,-52.246,-1000.000,0.000
1737556403.492,-75.195,-37.598,-37.109,-1000.000,0.000
1737556403.496,-27.832,-16.113,-26.367,-99.121,0.000
1737556403.500,-5.371,-14.160,-17.090,999.512,0.000
1737556403.504,-44.922,-33.691,-20.996,94.727,0.000
1737556403.508,-56.641,-36.133,-21.973,-1000.000,0.000
1737556403.511,-17.090,-18.555,-4.395,-1000.000,0.000
1737556403.515,24.414,-7.324,2.441,-197.266,0.000
1737556403.519,57.617,6.836,-4.395,999.512,0.000
1737556403.523,35.156,2.930,-21.484,246.582,0.000
1737556403.527,-7.812,-23.926,-7.324,-1000.000,0.000
1737556403.531,-7.812,-24.414,8.789,-1000.000,0.000
1737556403.535,25.391,-1.953,11.230,-210.938,0.000
1737556403.539,49.316,-1.465,15.625,999.512,0.000
1737556403.543,31.738,-19.531,-9.766,546.387,0.000
1737556403.547,21.484,-14.648,-10.254,-786.133,0.000
1737556403.551,9.277,-12.695,8.301,-1000.000,0.000
1737556403.554,40.039,-4.883,15.625,-191.406,0.000
1737556403.558,81.543,9.277,17.090,999.512,0.000
1737556403.562,57.617,-1.953,9.766,883.789,0.000
1737556403.566,12.695,-9.766,-4.883,-341.797,0.000
1737556403.570,0.488,-10.254,-5.371,-1000.000,0.000
1737556403.574,21.484,-19.531,-1.953,-274.414,0.000
1737556403.578,49.316,-4.883,-0.488,998.535,0.000
1737556403.582,52.734,4.883,0.000,971.680,0.000
1737556403.586,11.230,-15.625,4.883,-183.105,0.000
1737556403.590,0.000,-13.184,7.324,-1000.000,0.000
1737556403.593,27.832,-8.789,7.324,-547.852,0.000
1737556403.597,51.270,-16.602,7.324,804.199,0.000
1737556403.601,55.664,-6.836,16.602,999.512,0.000
1737556403.605,14.648,-13.672,15.137,-112.305,0.000
1737556403.609,-22.461,-32.715,-8.301,-1000.000,0.000
1737556403.613,-3.906,-30.273,-4.883,-656.738,0.000
1737556403.617,39.062,0.977,15.137,668.945,0.000
1737556403.621,44.434,0.977,-6.348,999.512,0.000
1737556403.625,-2.930,-33.691,-23.926,32.227,0.000
1737556403.629,-33.203,-28.320,-6.836,-1000.000,0.000
1737556403.633,-6.836,-6.348,3.906,-757.812,0.000
1737556403.636,26.367,-8.301,5.371,544.434,0.000
1737556403.640,33.203,-5.371,-1.953,999.512,0.000
1737556403.644,1.953,-12.695,-6.348,149.414,0.000
1737556403.648,-24.902,-15.137,-11.719,-1000.000,0.000
1737556403.652,-2.441,3.418,-14.160,-1000.000,0.000
1737556403.656,0.000,9.277,-11.230,119.141,0.000
1737556403.660,0.000,13.184,-12.207,999.512,0.000
1737556403.664,0.000,13.672,-19.043,277.832,0.000
1737556403.668,0.000,13.184,-35.645,-953.125,0.000
1737556403.672,0.000,6.836,-51.758,-1000.000,0.000
1737556403.676,0.000,5.859,-63.477,-206.055,0.000
1737556403.679,0.000,12.207,-74.707,999.512,0.000
1737556403.683,0.000,-11.719,-100.098,-20.996,0.000
1737556403.687,0.000,-35.645,-116.211,-1000.000,0.000
1737556403.691,0.000,-43.457,-118.164,-1000.000,0.000
1737556403.695,0.000,-38.574,-123.047,-328.613,0.000
1737556403.699,0.000,-21.484,-125.977,999.512,0.000
1737556403.703,24.414,-15.137,-107.910,472.656,0.000
1737556403.707,20.508,-45.410,-110.352,-868.164,0.000
1737556403.711,-2.441,-59.570,-117.676,-1000.000,0.000
1737556403.715,-30.273,-40.039,-118.164,-275.879,0.000
1737556403.718,-70.312,-27.344,-136.230,999.512,0.000
1737556403.722,-64.941,-5.371,-122.070,761.719,0.000
1737556403.726,-57.129,-25.879,-105.469,-547.363,0.000
1737556403.730,-158.203,-59.570,-97.656,-1000.000,0.000
1737556403.734,-229.980,-44.922,-85.938,-509.766,0.000
1737556403.738,-219.727,-32.715,-51.270,937.988,0.000
1737556403.742,-206.055,-23.926,-47.363,751.953,0.000
1737556403.746,-173.340,-12.695,-78.125,-694.336,0.000
1737556403.750,-95.215,-6.836,-77.637,-1000.000,0.000
1737556403.754,-77.148,-7.812,-41.016,-998.535,0.000
1737556403.758,-20.508,13.184,-12.695,237.305,0.000
1737556403.761,4.395,16.602,-16.113,884.277,0.000
1737556403.765,-31.738,0.977,-37.109,-576.172,0.000
1737556403.769,-41.016,-2.930,-41.992,-1000.000,0.000
1737556403.773,-17.090,-3.906,-13.184,-846.191,0.000
1737556403.777,26.855,0.488,10.254,441.895,0.000
1737556403.781,28.320,-18.555,10.254,999.512,0.000
1737556403.785,-0.488,-23.926,0.488,-293.945,0.000
1737556403.789,0.488,-11.230,0.977,-1000.000,0.000
1737556403.793,22.461,1.465,7.812,-916.504,0.000
1737556403.797,0.000,12.207,7.812,251.953,0.000
1737556403.801,0.000,9.277,16.113,999.512,0.000
1737556403.804,0.000,6.348,24.414,83.496,0.000
1737556403.808,0.000,3.418,21.484,-1000.000,0.000
1737556403.812,0.000,3.418,41.016,-1000.000,0.000
1737556403.816,0.000,28.320,52.246,111.816,0.000
1737556403.820,0.000,22.461,31.738,999.512,0.000
1737556403.824,0.000,-10.742,20.996,74.707,0.000
1737556403.828,0.000,-16.602,20.508,-1000.000,0.000
1737556403.832,0.000,-0.488,29.297,-1000.000,0.000
1737556403.836,0.000,13.672,30.273,-171.387,0.000
1737556403.840,0.000,1.465,28.809,999.512,0.000
1737556403.843,56.152,-6.836,31.738,159.180,0.000
1737556403.847,81.543,-1.953,30.273,-1000.000,0.000
1737556403.851,68.359,-8.789,23.926,-1000.000,0.000
1737556403.855,33.691,2.930,35.645,-302.734,0.000
1737556403.859,47.852,10.254,46.875,999.512,0.000
1737556403.863,96.680,3.418,33.203,301.758,0.000
1737556403.867,85.938,-1.953,17.578,-980.957,0.000
1737556403.871,43.945,-26.855,9.277,-1000.000,0.000
1737556403.875,30.762,-29.785,10.254,-366.211,0.000
1737556403.879,47.363,-10.742,19.043,999.512,0.000
1737556403.882,87.402,-12.695,24.414,612.793,0.000
1737556403.886,86.426,-16.602,21.973,-751.953,0.000
1737556403.890,-4.883,-20.020,20.020,0.000,0.000
1737556403.894,10.742,-15.625,18.066,0.000,0.000
1737556403.898,53.223,5.371,17.578,0.000,0.000
1737556403.902,40.039,7.324,5.371,0.000,0.000
1737556403.906,-1.953,-0.488,-5.371,0.000,0.000
1737556403.910,-33.691,-12.207,4.883,0.000,0.000
1737556403.914,-4.883,-0.488,12.207,0.000,0.000
1737556403.918,30.273,1.953,17.578,0.000,0.000
1737556403.922,22.461,-4.395,6.348,0.000,0.000
1737556403.925,-10.742,-5.859,-11.230,0.000,0.000
1737556403.929,-73.730,-27.344,-13.184,0.000,0.000
1737556403.933,-93.750,-20.996,-25.391,0.000,0.000
1737556403.937,-112.305,-23.926,-40.527,-1000.000,0.000
1737556403.941,-160.156,-35.645,-58.105,-1000.000,0.000
1737556403.945,-180.664,-35.645,-80.566,-1000.000,0.000
1737556403.949,-213.867,-46.875,-103.027,-1000.000,0.000
1737556403.953,-224.121,-41.504,-104.004,-1000.000,0.000
1737556403.957,-204.102,-25.879,-87.891,-1000.000,0.000
1737556403.961,-208.008,-23.438,-97.168,-1000.000,0.000
1737556403.965,-230.957,-34.668,-106.934,-1000.000,0.000
1737556403.968,-231.934,-41.992,-99.609,-1000.000,0.000
1737556403.972,-209.961,-37.109,-92.773,-1000.000,0.000
1737556403.976,-173.340,-27.344,-83.496,-1000.000,0.000
1737556403.980,-176.270,-30.273,-83.984,-1000.000,0.000
1737556403.984,0.000,-47.852,-79.102,-1000.000,0.000
1737556403.988,0.000,-51.270,-89.355,-1000.000,0.000
1737556403.992,0.000,-40.039,-118.164,-1000.000,0.000
1737556403.996,0.000,-30.273,-93.262,-1000.000,0.000
1737556404.000,0.000,-13.184,-52.734,-1000.000,0.000
1737556404.004,0.000,-7.812,-50.781,-1000.000,0.000
1737556404.008,0.000,-30.762,-57.129,-993.652,0.000
1737556404.011,0.000,-41.504,-47.363,-1000.000,0.000
1737556404.015,0.000,-16.602,-26.367,-959.961,0.000
1737556404.019,0.000,-18.066,-27.832,-908.203,0.000
1737556404.023,0.000,-39.551,-29.785,-1000.000,0.000
1737556404.027,0.000,-31.738,-19.043,-971.680,0.000
1737556404.031,-70.312,-35.645,-22.461,-1000.000,0.000
1737556404.035,-55.664,-37.598,-20.508,-1000.000,0.000
1737556404.039,-21.484,-27.344,-7.324,416.504,0.000
1737556404.043,-9.766,-19.043,0.488,321.777,0.000
1737556404.047,-28.320,-18.066,-1.465,-1000.000,0.000
1737556404.050,-18.066,-13.184,3.906,-1000.000,0.000
1737556404.054,23.438,0.488,21.484,-393.555,0.000
1737556404.058,57.129,6.348,24.414,999.512,0.000
1737556404.062,53.711,8.789,14.648,786.621,0.000
1737556404.066,32.227,-3.906,15.625,-552.734,0.000
1737556404.070,8.301,-18.555,14.648,-1000.000,0.000
1737556404.074,46.387,1.953,19.531,-302.246,0.000
1737556404.078,92.773,12.207,27.832,962.891,0.000
1737556404.082,73.730,9.766,34.180,999.512,0.000
1737556404.086,27.832,-8.301,38.574,-102.539,0.000
1737556404.090,31.738,-14.648,43.945,-1000.000,0.000
1737556404.093,76.172,4.395,47.363,-429.199,0.000
1737556404.097,104.004,18.555,49.316,854.004,0.000
1737556404.101,97.168,16.602,47.852,999.512,0.000
1737556404.105,58.105,3.418,39.062,253.906,0.000
1737556404.109,38.086,1.465,40.527,-1000.000,0.000
1737556404.113,57.617,0.977,46.875,-490.234,0.000
1737556404.117,89.355,5.859,44.922,852.051,0.000
1737556404.121,90.820,6.836,38.086,999.512,0.000
1737556404.125,63.477,1.953,41.504,451.660,0.000
1737556404.129,29.785,-7.812,38.086,-1000.000,0.000
1737556404.133,46.875,-4.883,35.645,-596.191,0.000
1737556404.136,93.750,3.906,40.039,865.723,0.000
1737556404.140,86.426,2.930,31.738,968.262,0.000
1737556404.144,61.523,-0.488,28.320,999.512,0.000
1737556404.148,45.410,-0.977,37.109,-57.129,0.000
1737556404.152,37.598,1.465,38.574,-929.199,0.000
1737556404.156,50.293,4.883,40.527,499.512,0.000
1737556404.160,49.316,4.883,40.039,999.512,0.000
1737556404.164,30.273,-0.488,33.691,899.414,0.000
1737556404.168,4.883,-7.812,28.320,-291.504,0.000
1737556404.172,9.277,0.488,17.578,-979.004,0.000
1737556404.176,41.504,7.812,18.555,500.488,0.000
1737556404.179,49.805,4.395,32.227,999.512,0.000
1737556404.183,30.762,-0.977,31.250,905.762,0.000
1737556404.187,14.648,-2.441,23.438,978.027,0.000
1737556404.191,9.766,1.953,20.508,970.703,0.000
1737556404.195,24.414,4.395,15.625,973.145,0.000
1737556404.199,31.738,8.789,15.625,954.590,0.000
1737556404.203,18.555,5.859,14.160,982.910,0.000
1737556404.207,17.090,1.465,13.672,971.191,0.000
1737556404.211,4.883,-2.930,15.625,413.086,0.000
1737556404.215,14.160,3.418,16.602,570.312,0.000
1737556404.218,36.133,12.695,16.113,999.512,0.000
1737556404.222,20.020,10.742,22.949,999.512,0.000
1737556404.226,-10.254,0.488,27.344,35.645,0.000
1737556404.230,-22.461,-10.742,15.137,-1000.000,0.000
1737556404.234,10.742,-0.977,15.137,-208.496,0.000
1737556404.238,40.039,9.766,19.531,999.512,0.000
1737556404.242,27.344,-1.953,6.348,999.512,0.000
1737556404.246,0.000,-10.742,-2.930,71.777,0.000
1737556404.250,-29.297,-10.254,-3.418,-1000.000,0.000
1737556404.254,-2.441,-7.812,0.977,-286.621,0.000
1737556404.257,34.180,0.977,5.371,965.820,0.000
1737556404.261,22.949,-0.977,4.883,999.512,0.000
1737556404.265,-7.324,-5.859,0.488,159.180,0.000
1737556404.269,-29.297,-9.766,-5.859,-1000.000,0.000
1737556404.273,-15.137,-7.324,-5.371,-561.523,0.000
1737556404.277,17.090,-0.977,-1.953,769.531,0.000
1737556404.281,9.766,-2.441,-7.812,999.512,0.000
1737556404.285,-13.672,-0.488,-13.184,412.598,0.000
1737556404.289,-38.574,-5.371,-17.578,-1000.000,0.000
1737556404.293,-41.504,-3.906,-25.879,-778.320,0.000
1737556404.297,-21.973,4.395,-32.715,605.469,0.000
1737556404.300,-31.250,-2.930,-26.855,999.512,0.000
1737556404.304,-73.242,-0.977,-43.457,292.969,0.000
1737556404.308,-130.859,-4.395,-74.707,-1000.000,0.000
1737556404.312,-158.203,-10.742,-93.750,-860.840,0.000
1737556404.316,-149.902,-11.719,-106.934,472.168,0.000
1737556404.320,-170.410,-26.855,-120.605,999.512,0.000
1737556404.324,-212.891,-40.527,-132.324,668.457,0.000
1737556404.328,-255.859,-53.223,-123.047,-665.527,0.000
1737556404.332,-254.883,-53.223,-114.746,-1000.000,0.000
1737556404.336,-210.938,-37.598,-125.000,386.719,0.000
1737556404.340,-198.730,-47.852,-118.164,999.512,0.000
1737556404.343,-218.750,-57.617,-112.793,807.129,0.000
1737556404.347,-250.488,-60.547,-116.211,-371.582,0.000
1737556404.351,-242.676,-57.617,-116.699,-1000.000,0.000
1737556404.355,-179.688,-42.969,-104.980,-114.258,0.000
1737556404.359,-140.137,-35.156,-98.633,999.512,0.000
1737556404.363,-167.480,-41.016,-104.492,371.094,0.000
1737556404.367,-208.984,-51.270,-102.539,-914.551,0.000
1737556404.371,-198.242,-41.504,-102.051,-1000.000,0.000
1737556404.375,-156.738,-35.156,-99.609,-607.422,0.000
1737556404.379,-111.328,-25.391,-85.938,926.758,0.000
1737556404.383,-126.465,-25.391,-83.496,329.102,0.000
1737556404.386,-153.320,-33.203,-89.844,-1000.000,0.000
1737556404.390,-133.301,-25.879,-88.379,-941.406,0.000
1737556404.394,-115.723,-22.461,-80.078,-1000.000,0.000
1737556404.398,-87.891,-19.531,-71.289,25.879,0.000
1737556404.402,-83.496,-20.020,-67.383,293.945,0.000
1737556404.406,0.000,-17.578,-73.730,-1000.000,0.000
1737556404.410,0.000,-7.324,-71.777,-1000.000,0.000
1737556404.414,0.000,-7.812,-49.316,-964.355,0.000
1737556404.418,0.000,-10.254,-37.598,-1000.000,0.000
1737556404.422,0.000,-7.324,-39.551,-1000.000,0.000
1737556404.425,0.000,-8.301,-39.062,-1000.000,0.000
1737556404.429,0.000,-7.812,-36.133,-1000.000,0.000
1737556404.433,0.000,-9.277,-33.203,-1000.000,0.000
1737556404.437,0.000,-3.906,-21.973,-1000.000,0.000
1737556404.441,0.000,0.977,-16.602,-1000.000,0.000
1737556404.445,0.000,4.395,-20.020,-1000.000,0.000
1737556404.449,0.000,6.836,-18.066,-1000.000,0.000
1737556404.453,-11.719,4.395,-8.789,-1000.000,0.000
1737556404.457,8.789,6.348,0.488,-1000.000,0.000
1737556404.461,8.301,6.348,-1.953,-1000.000,0.000
1737556404.465,10.254,4.395,0.000,-1000.000,0.000
1737556404.468,17.090,5.859,14.160,-1000.000,0.000
1737556404.472,24.902,9.766,21.484,-1000.000,0.000
1737556404.476,48.828,11.719,21.484,-1000.000,0.000
1737556404.480,43.457,3.906,22.461,-1000.000,0.000
1737556404.484,29.297,-1.465,21.484,-1000.000,0.000
1737556404.488,33.691,-2.441,23.926,-1000.000,0.000
1737556404.492,41.504,-5.371,23.438,-1000.000,0.000
1737556404.496,59.082,-0.488,27.832,-1000.000,0.000
1737556404.500,69.336,5.371,29.297,-1000.000,0.000
1737556404.504,67.383,3.418,20.996,-1000.000,0.000
1737556404.508,62.988,4.395,16.113,-999.512,0.000
1737556404.511,58.594,3.906,21.973,-1000.000,0.000
1737556404.515,70.801,4.395,31.250,-998.535,0.000
1737556404.519,66.406,6.348,26.855,-989.258,0.000
1737556404.523,54.688,0.488,21.484,-1000.000,0.000
1737556404.527,60.059,-1.953,23.926,-934.082,0.000
1737556404.531,59.082,-1.953,25.391,-1000.000,0.000
1737556404.535,59.082,-0.488,29.785,-666.504,0.000
1737556404.539,79.590,6.348,35.156,945.801,0.000
1737556404.543,60.547,2.441,34.668,431.152,0.000
1737556404.547,19.043,-7.812,23.438,-968.750,0.000
1737556404.551,20.508,-8.301,24.414,-1000.000,0.000
1737556404.554,49.316,-0.488,28.809,-531.250,0.000
1737556404.558,69.824,1.953,26.367,888.184,0.000
1737556404.562,44.922,-1.465,24.902,857.910,0.000
1737556404.566,6.836,-3.906,20.020,-477.051,0.000
1737556404.570,-11.719,-9.277,16.113,-1000.000,0.000
1737556404.574,6.836,-7.812,17.090,-435.547,0.000
1737556404.578,35.156,0.977,22.461,853.027,0.000
1737556404.582,20.020,2.930,18.555,999.512,0.000
1737556404.586,-30.762,-8.789,16.602,45.898,0.000
1737556404.590,-65.430,-17.090,13.672,-1000.000,0.000
1737556404.593,-50.781,-13.184,11.719,-468.750,0.000
1737556404.597,-21.484,2.441,15.137,834.473,0.000
1737556404.601,-40.039,0.977,12.207,999.512,0.000
1737556404.605,-86.426,-16.602,10.254,323.242,0.000
1737556404.609,-114.746,-21.973,7.812,-1000.000,0.000
1737556404.613,-96.680,-10.742,7.324,-400.879,0.000
1737556404.617,-73.242,-4.395,10.742,934.570,0.000
1737556404.621,-76.660,-12.695,12.207,999.512,0.000
1737556404.625,-83.496,-16.602,10.742,556.641,0.000
1737556404.629,-100.098,-23.926,6.836,-908.203,0.000
1737556404.632,-85.449,-20.508,9.766,-723.145,0.000
1737556404.636,-41.504,-10.254,12.695,785.645,0.000
1737556404.640,-39.062,-10.742,10.742,999.512,0.000
1737556404.644,-65.918,-17.090,7.812,936.523,0.000
1737556404.648,-78.613,-16.602,6.836,916.504,0.000
1737556404.652,-74.707,-10.254,3.418,824.219,0.000
1737556404.656,-71.289,-6.836,5.859,940.918,0.000
1737556404.660,-80.566,-5.859,0.000,968.750,0.000
1737556404.664,-95.703,-12.207,-6.836,971.680,0.000
1737556404.668,-112.305,-23.438,-3.418,-199.219,0.000
1737556404.672,-125.977,-27.344,-2.441,-1000.000,0.000
1737556404.675,-100.098,-20.020,1.953,218.262,0.000
1737556404.679,-83.008,-11.230,2.441,999.512,0.000
1737556404.683,-106.445,-14.648,0.488,984.375,0.000
1737556404.687,0.000,-23.438,-2.441,-1.465,0.000
1737556404.691,0.000,-20.996,-4.883,-1000.000,0.000
1737556404.695,0.000,-9.766,1.465,-48.340,0.000
1737556404.699,0.000,-1.465,4.395,999.512,0.000
1737556404.703,0.000,-10.254,-9.277,936.035,0.000
1737556404.707,0.000,-10.254,-9.277,976.562,0.000
1737556404.711,0.000,-6.836,1.953,557.129,0.000
1737556404.715,0.000,-7.812,0.977,638.672,0.000
1737556404.718,0.000,-10.742,-1.953,987.305,0.000
1737556404.722,0.000,-13.184,-9.766,999.512,0.000
1737556404.726,0.000,-18.066,-17.090,129.395,0.000
1737556404.730,0.000,-23.926,-13.672,-1000.000,0.000
1737556404.734,-115.723,-13.184,0.000,-199.219,0.000
1737556404.738,-77.148,-4.395,0.000,999.512,0.000
1737556404.742,-92.773,-10.254,0.000,924.805,0.000
1737556404.746,-100.586,-14.160,0.000,999.512,0.000
1737556404.750,-119.629,-22.461,0.000,-215.820,0.000
1737556404.754,-100.098,-18.066,0.000,-361.328,0.000
1737556404.758,-58.105,-6.836,0.000,999.512,0.000
1737556404.761,-79.102,-13.184,0.000,976.074,0.000
1737556404.765,-84.473,-14.160,0.000,918.457,0.000
1737556404.769,-107.422,-15.137,0.000,-394.043,0.000
1737556404.773,-107.910,-9.766,0.000,-455.078,0.000
1737556404.777,-75.195,-1.465,0.000,963.379,0.000
1737556404.781,-94.238,-10.742,-14.160,999.512,0.000
1737556404.785,-110.840,-13.184,-15.137,756.348,0.000
1737556404.789,-138.184,-15.137,-9.277,-629.883,0.000
1737556404.793,-141.113,-20.508,-7.812,-772.461,0.000
1737556404.797,-104.492,-13.672,-11.230,739.746,0.000
1737556404.800,-107.422,-5.371,-9.766,999.512,0.000
1737556404.804,-131.348,-12.207,-11.719,978.516,0.000
1737556404.808,-159.180,-26.855,-16.602,-72.266,0.000
1737556404.812,-168.457,-28.320,-18.066,-1000.000,0.000
1737556404.816,-129.395,-15.137,-14.160,340.820,0.000
1737556404.820,-113.281,-5.859,-14.648,999.512,0.000
1737556404.824,-125.488,-9.766,-20.996,999.512,0.000
1737556404.828,-145.996,-18.066,0.000,140.137,0.000
1737556404.832,-165.527,-19.531,0.000,-1000.000,0.000
1737556404.836,-131.836,-10.742,0.000,177.246,0.000
1737556404.840,-118.164,-10.254,0.000,999.512,0.000
1737556404.843,-134.277,-15.137,0.000,999.512,0.000
1737556404.847,-142.090,-5.371,0.000,366.699,0.000
1737556404.851,-160.645,-3.906,0.000,-1000.000,0.000
1737556404.855,-135.742,-8.301,0.000,-78.125,0.000
1737556404.859,-115.723,-8.301,0.000,999.512,0.000
1737556404.863,-143.555,-18.066,0.000,999.512,0.000
1737556404.867,-173.340,-27.344,0.000,176.758,0.000
1737556404.871,-187.500,-20.508,0.000,-1000.000,0.000
1737556404.875,-153.809,-8.301,-17.090,-159.180,0.000
1737556404.879,-130.859,-8.301,-6.836,999.512,0.000
1737556404.883,-148.438,-15.625,-8.301,999.512,0.000
1737556404.886,-174.316,-22.461,-13.184,139.160,0.000
1737556404.890,-193.359,-28.320,-17.090,-1000.000,0.000
1737556404.894,-158.203,-16.602,-12.695,-269.043,0.000
1737556404.898,-129.883,-9.277,-10.254,995.117,0.000
1737556404.902,-146.973,-16.602,-8.789,999.512,0.000
1737556404.906,-173.340,-19.531,-5.371,74.219,0.000
1737556404.910,-197.754,-25.391,-10.254,-1000.000,0.000
1737556404.914,-184.570,-26.855,-14.648,-504.883,0.000
1737556404.918,-157.227,-19.531,-10.742,827.148,0.000
1737556404.922,-160.156,-19.043,-7.324,999.512,0.000
1737556404.926,-182.617,-24.414,-7.812,97.656,0.000
1737556404.929,-193.359,-24.902,-4.883,-1000.000,0.000
1737556404.933,-181.641,-22.949,-3.418,-652.344,0.000
1737556404.937,-143.555,-9.766,-5.859,681.641,0.000
1737556404.941,-145.996,-8.301,-5.859,999.512,0.000
1737556404.945,-187.012,-11.719,-21.484,124.512,0.000
1737556404.949,-210.938,-14.160,-47.363,-1000.000,0.000
1737556404.953,-223.633,-26.367,-49.805,-1000.000,0.000
1737556404.957,-215.332,-16.602,-42.480,53.223,0.000
1737556404.961,-208.496,5.859,-50.293,999.512,0.000
1737556404.965,-294.434,-11.719,-83.008,62.988,0.000
1737556404.968,-355.957,-29.297,-120.605,-1000.000,0.000
1737556404.972,-367.676,-26.855,-135.254,-1000.000,0.000
1737556404.976,-370.117,-35.156,-131.836,-217.773,0.000
1737556404.980,-347.168,-32.227,-125.000,999.512,0.000
1737556404.984,-375.977,-42.969,-126.953,120.605,0.000
1737556404.988,-394.531,-53.223,-130.371,-1000.000,0.000
1737556404.992,-381.836,-48.340,-126.953,-1000.000,0.000
1737556404.996,-361.816,-45.898,-120.117,-254.395,0.000
1737556405.000,-331.543,-42.969,-115.723,999.512,0.000
1737556405.004,-355.469,-50.293,-127.441,216.797,0.000
1737556405.008,-383.301,-57.129,-123.535,-1000.000,0.000
1737556405.011,-356.934,-50.781,-102.539,-1000.000,0.000
1737556405.015,-313.477,-48.828,-113.770,-463.379,0.000
1737556405.019,-268.555,-32.715,-111.816,999.512,0.000
1737556405.023,-269.043,-20.508,-92.773,409.180,0.000
1737556405.027,-291.504,-28.809,-85.938,-984.863,0.000
1737556405.031,-265.625,-27.832,-80.566,-1000.000,0.000
1737556405.035,-242.676,-25.391,-71.289,-981.934,0.000
1737556405.039,-209.961,-17.090,-66.406,382.812,0.000
1737556405.043,-198.242,-10.742,-64.941,289.062,0.000
1737556405.047,-216.309,-33.691,-52.734,-1000.000,0.000
1737556405.050,-192.383,-29.297,-55.176,-940.918,0.000
1737556405.054,-160.645,-5.371,-51.270,-1000.000,0.000
1737556405.058,-123.535,0.977,-29.297,97.168,0.000
1737556405.062,-128.906,-3.906,-27.344,432.129,0.000
1737556405.066,-147.949,-9.277,-30.273,-1000.000,0.000
1737556405.070,-114.746,5.371,-20.020,-961.426,0.000
1737556405.074,-96.680,5.859,-0.488,-1000.000,0.000
1737556405.078,-87.402,-5.371,13.184,-370.605,0.000
1737556405.082,-80.566,-3.418,14.160,445.312,0.000
1737556405.086,-101.074,1.465,11.719,-750.000,0.000
1737556405.090,-88.867,6.836,21.484,-1000.000,0.000
1737556405.093,-68.848,1.465,22.949,-1000.000,0.000
1737556405.097,-48.828,1.953,23.438,-182.129,0.000
1737556405.101,-33.691,6.348,21.973,897.461,0.000
1737556405.105,-66.895,-3.418,13.184,-514.648,0.000
1737556405.109,0.000,-7.812,20.020,0.000,0.000
1737556405.113,0.000,1.953,36.621,0.000,0.000
1737556405.117,0.000,8.301,42.969,0.000,0.000
1737556405.121,0.000,1.465,36.133,0.000,0.000
1737556405.125,0.000,-4.395,32.715,0.000,0.000
1737556405.129,0.000,-4.883,34.668,0.000,0.000
1737556405.133,0.000,-15.137,34.668,0.000,0.000
1737556405.136,0.000,-19.043,38.086,0.000,0.000
1737556405.140,0.000,-11.230,38.574,0.000,0.000
1737556405.144,0.000,-17.578,29.785,0.000,0.000
1737556405.148,0.000,-29.297,26.855,0.000,0.000
1737556405.152,0.000,-27.832,26.367,0.000,0.000
1737556405.156,-53.711,-14.160,35.156,-195.312,0.000
1737556405.160,-38.086,-3.418,45.410,999.512,0.000
1737556405.164,-79.590,-13.184,31.738,363.281,0.000
1737556405.168,-123.047,-26.367,17.090,-959.473,0.000
1737556405.172,-118.164,-23.438,21.484,-1000.000,0.000
1737556405.175,-72.266,-11.230,34.668,-45.410,0.000
1737556405.179,-59.570,-8.301,40.527,999.512,0.000
1737556405.183,-82.520,-15.625,29.785,858.398,0.000
1737556405.187,-99.121,-16.113,25.879,-333.496,0.000
1737556405.191,-114.258,-21.973,31.250,-1000.000,0.000
1737556405.195,-93.750,-19.531,36.133,-130.859,0.000
1737556405.199,-72.266,-5.859,38.574,999.512,0.000
1737556405.203,0.000,-7.812,28.320,999.512,0.000
1737556405.207,0.000,-18.555,24.902,130.859,0.000
1737556405.211,0.000,-20.020,24.902,-1000.000,0.000
1737556405.215,0.000,-3.418,17.090,-159.180,0.000
1737556405.218,0.000,2.441,22.461,999.512,0.000
1737556405.222,0.000,-2.441,23.438,999.512,0.000
1737556405.226,0.000,-0.977,17.578,521.973,0.000
1737556405.230,0.000,-9.766,20.020,-979.004,0.000
1737556405.234,0.000,-9.766,26.855,-302.246,0.000
1737556405.238,0.000,0.000,26.855,999.512,0.000
1737556405.242,0.000,-1.465,8.301,999.512,0.000
1737556405.246,0.000,-6.836,-3.906,634.277,0.000
1737556405.250,-138.184,-11.230,1.953,-857.422,0.000
1737556405.254,-121.582,-14.160,4.395,-392.090,0.000
1737556405.258,-86.914,-7.324,8.301,999.512,0.000
1737556405.261,-97.656,-1.953,16.602,925.293,0.000
1737556405.265,-108.887,-2.930,9.277,999.512,0.000
1737556405.269,-107.422,7.812,19.531,530.273,0.000
1737556405.273,-109.375,2.930,17.578,192.383,0.000
1737556405.277,-102.051,-13.184,-7.812,924.805,0.000
1737556405.281,-109.863,-20.996,-5.371,999.512,0.000
1737556405.285,-129.395,-26.855,-8.301,857.910,0.000
1737556405.289,-145.020,-24.414,-6.836,-417.480,0.000
1737556405.293,-145.508,-19.043,-4.883,-973.145,0.000
1737556405.297,-102.051,-8.789,-3.906,445.801,0.000
1737556405.301,-85.449,-10.254,-9.766,999.512,0.000
1737556405.304,-114.258,-19.043,-20.020,722.168,0.000
1737556405.308,-140.625,-28.320,-15.625,-572.266,0.000
1737556405.312,-134.766,-27.832,-4.883,-1000.000,0.000
1737556405.316,-98.633,-12.695,-1.465,351.562,0.000
1737556405.320,-93.262,-8.789,-10.742,999.512,0.000
1737556405.324,-117.676,-21.973,-22.949,710.449,0.000
1737556405.328,-143.066,-39.551,-10.742,-521.973,0.000
1737556405.332,-149.414,-35.645,-9.766,-1000.000,0.000
1737556405.336,-114.746,-20.020,-14.648,4.883,0.000
1737556405.340,-90.332,-9.766,-12.207,999.512,0.000
1737556405.343,-104.492,-9.277,-8.301,999.512,0.000
1737556405.347,-130.859,-14.160,10.742,185.547,0.000
1737556405.351,-163.574,-28.320,0.488,-1000.000,0.000
1737556405.355,-143.555,-32.227,-7.812,-166.016,0.000
1737556405.359,-115.723,-21.973,2.441,999.512,0.000
1737556405.363,-121.094,-20.508,0.000,999.512,0.000
1737556405.367,-134.766,-16.113,-2.930,54.688,0.000
1737556405.371,-149.414,-18.555,-10.742,-1000.000,0.000
1737556405.375,-115.234,-12.695,-11.719,-172.852,0.000
1737556405.379,-82.031,-1.953,-11.230,999.512,0.000
1737556405.383,-96.191,-10.254,-20.020,999.512,0.000
1737556405.386,-116.699,-12.695,-17.578,264.160,0.000
1737556405.390,-138.672,-14.648,-22.461,-1000.000,0.000
1737556405.394,-106.934,-5.859,-15.137,-252.930,0.000
1737556405.398,-75.195,3.418,-8.301,988.770,0.000
1737556405.402,-94.727,-0.977,-8.301,999.512,0.000
1737556405.406,-118.164,-18.555,-11.230,406.250,0.000
1737556405.410,-138.672,-24.902,-21.973,-1000.000,0.000
1737556405.414,-110.352,-12.207,-13.672,-354.004,0.000
1737556405.418,-80.078,-8.789,-4.883,975.586,0.000
1737556405.422,-89.355,-12.695,-12.695,999.512,0.000
1737556405.425,-117.188,-24.414,-20.020,198.730,0.000
1737556405.429,-140.137,-22.461,-26.367,-1000.000,0.000
1737556405.433,-121.582,-17.090,-26.855,-720.215,0.000
1737556405.437,-83.984,-11.230,-16.602,621.094,0.000
1737556405.441,-82.520,-9.277,-10.742,999.512,0.000
1737556405.445,-111.816,-15.137,-8.789,194.336,0.000
1737556405.449,-117.676,-9.766,-5.859,-1000.000,0.000
1737556405.453,-99.121,-9.277,-14.160,-856.445,0.000
1737556405.457,-79.590,-11.719,-19.043,431.641,0.000
1737556405.461,-76.660,-14.160,-20.020,999.512,0.000
1737556405.465,-107.910,-19.043,-19.531,355.469,0.000
1737556405.468,-131.348,-20.020,-24.414,-932.129,0.000
1737556405.472,-119.141,-24.902,-23.926,-1000.000,0.000
1737556405.476,-83.496,-16.602,-13.184,53.223,0.000
1737556405.480,-66.406,-4.395,-19.043,999.512,0.000
1737556405.484,-97.168,-12.207,-20.508,370.605,0.000
1737556405.488,-125.488,-18.555,-18.066,-919.434,0.000
1737556405.492,-123.535,-20.996,-16.602,-1000.000,0.000
1737556405.496,-86.426,-20.020,-2.441,-118.164,0.000
1737556405.500,-69.336,-9.766,-8.789,999.512,0.000
1737556405.504,-98.633,-2.930,-25.879,534.668,0.000
1737556405.508,-127.930,-10.742,-21.484,-780.762,0.000
1737556405.511,-126.465,-15.625,-15.137,-1000.000,0.000
1737556405.515,-88.379,-7.812,-7.324,-232.422,0.000
1737556405.519,-64.453,-4.395,-2.441,999.512,0.000
1737556405.523,-97.168,-20.020,-9.277,495.605,0.000
1737556405.527,-123.047,-29.297,-13.184,-832.031,0.000
1737556405.531,-119.141,-22.949,-8.789,-1000.000,0.000
1737556405.535,-92.285,-18.066,-4.395,-401.367,0.000
1737556405.539,-60.547,-18.066,-0.977,999.512,0.000
1737556405.543,-76.660,-20.508,-8.301,727.051,0.000
1737556405.547,-109.863,-20.020,-20.508,-628.418,0.000
1737556405.551,-107.910,-13.672,-16.113,-1000.000,0.000
1737556405.554,-76.172,-7.324,-18.555,-515.137,0.000
1737556405.558,-45.898,-6.836,-25.391,876.953,0.000
1737556405.562,-52.734,-1.465,-10.254,909.180,0.000
1737556405.566,-95.703,-14.648,-11.230,-433.105,0.000
1737556405.570,-115.234,-26.367,-20.508,-1000.000,0.000
1737556405.574,-97.656,-17.578,-17.578,-752.930,0.000
1737556405.578,0.000,-8.789,-21.973,0.000,0.000
1737556405.582,0.000,-13.672,-25.391,0.000,0.000
1737556405.586,0.000,-22.949,-20.996,0.000,0.000
1737556405.590,0.000,-23.438,-19.043,0.000,0.000
1737556405.593,0.000,-26.855,-22.461,0.000,0.000
1737556405.597,0.000,-16.113,-19.531,0.000,0.000
1737556405.601,0.000,-7.812,-20.020,0.000,0.000
1737556405.605,0.000,-14.648,-21.973,0.000,0.000
1737556405.609,0.000,-19.531,-26.367,0.000,0.000
1737556405.613,0.000,-22.949,-30.273,0.000,0.000
1737556405.617,0.000,-7.812,-21.484,0.000,0.000
1737556405.621,0.000,6.348,-16.113,0.000,0.000
1737556405.625,-92.773,-18.066,-20.996,-25.391,0.000
1737556405.629,-107.910,-26.855,-18.555,-1000.000,0.000
1737556405.633,-91.797,-15.625,-9.766,-1000.000,0.000
1737556405.636,-70.312,-9.277,-5.371,-219.727,0.000
1737556405.640,-41.016,-1.465,-10.254,999.512,0.000
1737556405.644,-63.477,-6.348,-18.555,197.754,0.000
1737556405.648,-93.262,-13.184,-14.160,-1000.000,0.000
1737556405.652,-89.355,-15.137,-11.230,-1000.000,0.000
1737556405.656,-61.523,-8.301,-3.906,-190.918,0.000
1737556405.660,-39.551,0.000,-10.254,999.512,0.000
1737556405.664,-62.012,-7.812,-17.090,389.648,0.000
1737556405.668,-90.820,-22.461,-15.625,-910.156,0.000
1737556405.672,-84.473,-14.648,-19.531,-1000.000,0.000
1737556405.676,-53.711,-2.441,-14.160,-330.078,0.000
1737556405.679,-35.645,-7.324,-9.277,999.512,0.000
1737556405.683,-50.293,-1.953,-15.137,378.906,0.000
1737556405.687,-74.707,-2.441,-18.066,-941.895,0.000
1737556405.691,-77.637,-7.812,-13.672,-1000.000,0.000
1737556405.695,-51.758,-10.742,-9.766,-425.293,0.000
1737556405.699,-22.949,-10.742,-10.254,999.512,0.000
1737556405.703,-49.805,-10.254,-20.020,621.582,0.000
1737556405.707,-84.473,-18.555,-25.879,-762.695,0.000
1737556405.711,-86.426,-20.508,-19.531,-1000.000,0.000
1737556405.715,-74.219,-19.531,-18.555,-705.566,0.000
1737556405.719,-40.039,-5.859,-9.766,651.367,0.000
1737556405.722,-41.016,-5.859,-10.742,999.512,0.000
1737556405.726,-79.102,-20.996,-23.926,-313.965,0.000
1737556405.730,-84.473,-31.738,-26.855,-1000.000,0.000
1737556405.734,-55.664,-21.973,-22.949,-620.605,0.000
1737556405.738,-30.273,5.371,-14.160,683.105,0.000
1737556405.742,-36.621,-4.883,-13.184,999.512,0.000
1737556405.746,-62.500,-21.484,-30.762,29.785,0.000
1737556405.750,-73.730,-20.508,-31.738,-1000.000,0.000
1737556405.754,-70.312,-28.809,-30.273,-974.121,0.000
1737556405.758,-36.133,-16.113,-18.555,195.801,0.000
1737556405.761,-14.648,-2.930,-3.906,999.512,0.000
1737556405.765,0.000,-21.484,0.000,0.000,0.000
1737556405.769,0.000,-34.180,0.000,0.000,0.000
1737556405.773,0.000,-27.344,0.000,0.000,0.000
1737556405.777,0.000,-16.602,0.000,0.000,0.000
1737556405.781,0.000,-17.578,0.000,0.000,0.000
1737556405.785,0.000,-15.625,0.000,0.000,0.000
1737556405.789,0.000,-17.090,0.000,0.000,0.000
1737556405.793,0.000,-23.438,0.000,0.000,0.000
1737556405.797,0.000,-18.066,0.000,0.000,0.000
1737556405.801,0.000,-10.254,0.000,0.000,0.000
1737556405.804,0.000,-12.207,0.000,0.000,0.000
1737556405.808,0.000,-20.508,0.000,0.000,0.000
1737556405.812,-62.500,-21.973,-30.273,-1000.000,0.000
1737556405.816,-27.832,-16.602,-22.461,-11.230,0.000
1737556405.820,-6.836,-11.230,-17.090,999.512,0.000
1737556405.824,-20.020,-9.277,-27.832,828.125,0.000
1737556405.828,-58.105,-22.949,-39.062,-382.812,0.000
1737556405.832,-67.871,-25.391,-24.902,-1000.000,0.000
1737556405.836,-21.973,-8.789,-13.184,-160.645,0.000
1737556405.840,-0.488,-4.883,-9.277,999.512,0.000
1737556405.843,-14.648,-10.254,-14.648,796.875,0.000
1737556405.847,-38.086,-17.090,-30.273,-456.543,0.000
1737556405.851,-54.688,-26.367,-36.133,-1000.000,0.000
1737556405.855,-19.043,-11.230,-19.043,-223.145,0.000
1737556405.859,15.137,4.883,-5.859,999.512,0.000
1737556405.863,-14.648,-16.113,-20.996,876.465,0.000
1737556405.867,-52.734,-32.715,-27.344,-346.191,0.000
1737556405.871,-67.383,-37.598,-26.367,-1000.000,0.000
1737556405.875,-36.621,-36.133,-13.184,-415.039,0.000
1737556405.879,3.418,-14.648,-7.812,901.855,0.000
1737556405.883,-3.906,-6.348,-20.996,999.512,0.000
1737556405.886,-33.203,-21.484,-35.156,-96.191,0.000
1737556405.890,-48.828,-28.320,-31.738,-1000.000,0.000
1737556405.894,-25.391,-23.926,-19.531,-534.180,0.000
1737556405.898,3.906,-15.137,-14.160,789.062,0.000
1737556405.902,-2.441,-16.113,-13.184,999.512,0.000
1737556405.906,0.000,-28.320,0.000,0.000,0.000
1737556405.910,0.000,-33.691,0.000,0.000,0.000
1737556405.914,0.000,-27.832,0.000,0.000,0.000
1737556405.918,0.000,-8.301,0.000,0.000,0.000
1737556405.922,0.000,-8.301,0.000,0.000,0.000
1737556405.926,0.000,-21.973,0.000,0.000,0.000
1737556405.929,0.000,-33.203,0.000,0.000,0.000
1737556405.933,0.000,-33.691,0.000,0.000,0.000
1737556405.937,0.000,-20.508,0.000,0.000,0.000
1737556405.941,0.000,-11.230,0.000,0.000,0.000
1737556405.945,0.000,-15.137,0.000,0.000,0.000
1737556405.949,0.000,-20.020,0.000,0.000,0.000
1737556405.953,-12.207,-16.602,-21.973,-1000.000,0.000
1737556405.957,24.902,-10.742,-18.066,246.582,0.000
1737556405.961,41.016,-12.207,-10.254,999.512,0.000
1737556405.965,20.996,-12.695,-9.277,449.707,0.000
1737556405.968,-1.465,-12.695,-27.344,-845.703,0.000
1737556405.972,0.488,-18.555,-44.434,-1000.000,0.000
1737556405.976,36.621,-10.742,-22.949,-14.160,0.000
1737556405.980,51.758,-10.254,-9.277,999.512,0.000
1737556405.984,19.531,-22.461,-15.625,574.707,0.000
1737556405.988,-7.812,-22.949,-14.160,-725.586,0.000
1737556405.992,-5.859,-18.066,-20.996,-1000.000,0.000
1737556405.996,30.273,-8.789,-20.996,-120.605,0.000
1737556406.000,49.316,-3.906,-24.902,999.512,0.000
1737556406.004,34.180,-5.371,-25.879,852.539,0.000
1737556406.008,7.324,-13.184,-14.160,-366.211,0.000
1737556406.011,-19.531,-28.809,-16.113,-1000.000,0.000
1737556406.015,1.953,-16.113,-19.043,-151.367,0.000
1737556406.019,18.555,2.441,-19.531,999.512,0.000
1737556406.023,-9.277,-7.324,-26.855,999.512,0.000
1737556406.027,-41.504,-18.555,-33.691,22.949,0.000
1737556406.031,-58.594,-30.273,-34.180,-1000.000,0.000
1737556406.035,-32.227,-30.762,-31.738,-319.824,0.000
1737556406.039,-2.930,-20.996,-34.180,959.961,0.000
1737556406.043,-10.254,-21.484,-36.621,999.512,0.000
1737556406.047,0.000,-31.738,0.000,0.000,0.000
1737556406.051,0.000,-32.715,0.000,0.000,0.000
1737556406.054,0.000,-21.484,0.000,0.000,0.000
1737556406.058,0.000,-15.625,0.000,0.000,0.000
1737556406.062,0.000,-14.160,0.000,0.000,0.000
1737556406.066,0.000,-14.648,0.000,0.000,0.000
1737556406.070,0.000,-25.391,0.000,0.000,0.000
1737556406.074,0.000,-30.273,0.000,0.000,0.000
1737556406.078,0.000,-23.926,0.000,0.000,0.000
1737556406.082,0.000,-22.949,0.000,0.000,0.000
1737556406.086,0.000,-36.621,0.000,0.000,0.000
1737556406.090,0.000,-39.062,0.000,0.000,0.000
1737556406.094,-7.324,-23.926,-30.273,-840.820,0.000
1737556406.097,35.645,-6.836,-17.090,477.051,0.000
1737556406.101,42.480,-4.883,-21.973,999.512,0.000
1737556406.105,21.973,-17.578,-11.719,185.547,0.000
1737556406.109,4.883,-21.973,-9.277,-1000.000,0.000
1737556406.113,4.883,-22.949,-26.855,-949.707,0.000
1737556406.117,39.551,-20.020,-20.508,272.461,0.000
1737556406.121,53.223,-20.020,-16.602,999.512,0.000
1737556406.125,32.227,-28.320,-31.250,491.211,0.000
1737556406.129,5.371,-34.180,-29.297,-821.289,0.000
1737556406.133,4.883,-30.762,-29.297,-1000.000,0.000
1737556406.136,48.828,-18.066,-22.949,127.930,0.000
1737556406.140,69.824,-9.766,-11.230,999.512,0.000
1737556406.144,52.734,-13.672,-13.672,961.914,0.000
1737556406.148,30.273,-15.137,-12.207,-22.949,0.000
1737556406.152,14.160,-21.484,-18.555,-1000.000,0.000
1737556406.156,45.410,-19.043,-19.531,-93.750,0.000
1737556406.160,71.777,-10.254,-8.789,999.512,0.000
1737556406.164,57.129,-10.254,-9.766,939.941,0.000
1737556406.168,32.227,-20.996,-20.508,-162.109,0.000
1737556406.172,18.555,-31.250,-19.531,-1000.000,0.000
1737556406.176,45.898,-23.438,-14.160,-175.293,0.000
1737556406.179,69.336,-12.695,-14.648,999.512,0.000
1737556406.183,51.270,-13.672,-19.531,827.148,0.000
1737556406.187,20.508,-16.113,-20.020,-415.527,0.000
1737556406.191,16.113,-10.254,-18.066,-1000.000,0.000
1737556406.195,49.316,-5.371,-23.438,-252.930,0.000
1737556406.199,72.754,2.930,-19.043,968.750,0.000
1737556406.203,58.594,1.465,-10.254,999.512,0.000
1737556406.207,29.297,-9.277,-8.789,31.738,0.000
1737556406.211,14.648,-14.648,-17.578,-1000.000,0.000
1737556406.215,49.316,-7.812,-25.391,-387.207,0.000
1737556406.218,79.590,-5.859,-22.461,916.992,0.000
1737556406.222,65.918,-13.672,-11.719,999.512,0.000
1737556406.226,40.039,-11.719,-9.766,124.512,0.000
1737556406.230,17.578,-11.719,-19.043,-1000.000,0.000
1737556406.234,36.621,-9.277,-10.254,-488.770,0.000
1737556406.238,74.219,-3.418,-2.441,844.238,0.000
1737556406.242,72.266,-7.324,-5.859,999.512,0.000
1737556406.246,38.086,-17.578,-12.207,158.203,0.000
1737556406.250,7.812,-29.785,-20.996,-1000.000,0.000
1737556406.254,17.578,-26.367,-23.926,-781.250,0.000
1737556406.258,56.641,-21.484,-20.508,533.203,0.000
1737556406.261,71.289,-16.602,-14.648,999.512,0.000
1737556406.265,51.270,-10.742,-9.766,208.496,0.000
1737556406.269,29.297,-14.648,-16.602,-1000.000,0.000
1737556406.273,31.250,-19.531,-29.297,-986.816,0.000
1737556406.277,59.570,-24.414,-22.461,207.520,0.000
1737556406.281,73.242,-15.137,-7.812,999.512,0.000
1737556406.285,48.340,-7.812,-3.418,360.840,0.000
1737556406.289,15.625,-17.578,-9.766,-933.105,0.000
1737556406.293,22.461,-20.996,-16.602,-1000.000,0.000
1737556406.297,67.383,-11.230,-11.230,37.598,0.000
1737556406.301,88.379,-1.465,0.000,999.512,0.000
1737556406.304,59.570,-4.395,-9.766,777.832,0.000
1737556406.308,30.273,-11.230,-18.555,-455.566,0.000
1737556406.312,26.855,-11.719,-8.789,-1000.000,0.000
1737556406.316,61.523,-2.930,-5.371,-144.043,0.000
1737556406.320,85.449,-6.348,-11.230,999.512,0.000
1737556406.324,59.570,-19.531,-16.113,573.730,0.000
1737556406.328,33.203,-18.555,-17.090,-747.559,0.000
1737556406.332,25.391,-17.578,-23.438,-1000.000,0.000
1737556406.336,52.246,-12.207,-12.695,-172.363,0.000
1737556406.340,74.707,-12.207,-6.348,999.512,0.000
1737556406.343,48.828,-21.484,-21.973,877.441,0.000
1737556406.347,18.555,-20.996,-27.344,-313.965,0.000
1737556406.351,11.230,-18.555,-22.949,-1000.000,0.000
1737556406.355,41.504,-17.578,-19.043,-240.234,0.000
1737556406.359,70.801,-4.395,-22.461,999.512,0.000
1737556406.363,55.176,-0.977,-19.531,963.867,0.000
1737556406.367,24.902,-18.066,-5.859,-185.059,0.000
1737556406.371,13.672,-26.367,-4.883,-1000.000,0.000
1737556406.375,44.434,-9.766,-13.184,-302.734,0.000
1737556406.379,64.941,-5.859,-15.625,934.570,0.000
1737556406.383,52.246,-9.766,-14.160,999.512,0.000
1737556406.386,26.855,-12.207,-18.066,173.340,0.000
1737556406.390,0.000,-24.414,-19.531,-1000.000,0.000
1737556406.394,25.391,-19.043,-15.625,-493.164,0.000
1737556406.398,66.406,-5.371,-6.836,850.586,0.000
1737556406.402,54.688,-9.766,-9.766,999.512,0.000
1737556406.406,16.602,-24.902,-23.926,140.625,0.000
1737556406.410,0.488,-25.879,-35.156,-1000.000,0.000
1737556406.414,20.996,-15.137,-33.203,-828.613,0.000
1737556406.418,50.781,-11.719,-12.695,479.492,0.000
1737556406.422,0.000,-14.160,-7.812,999.512,0.000
1737556406.426,0.000,-19.531,-20.020,66.406,0.000
1737556406.429,0.000,-26.367,-22.949,-1000.000,0.000
1737556406.433,0.000,-19.043,-24.414,-1000.000,0.000
1737556406.437,0.000,-7.324,-18.555,74.219,0.000
1737556406.441,0.000,-7.324,-12.207,999.512,0.000
1737556406.445,0.000,-13.184,-16.602,248.535,0.000
1737556406.449,0.000,-32.227,-19.043,-1000.000,0.000
1737556406.453,0.000,-40.527,-21.973,-1000.000,0.000
1737556406.457,0.000,-17.578,-13.184,77.148,0.000
1737556406.461,0.000,-8.789,-3.418,999.512,0.000
1737556406.465,0.000,-14.160,-2.441,505.371,0.000
1737556406.469,15.137,-20.508,-6.836,-791.016,0.000
1737556406.472,16.602,-26.367,-23.926,-1000.000,0.000
1737556406.476,41.504,-24.414,-27.832,-106.934,0.000
1737556406.480,53.223,-19.043,-18.555,999.512,0.000
1737556406.484,40.527,-19.043,-20.996,770.996,0.000
1737556406.488,16.602,-20.508,-24.902,-484.375,0.000
1737556406.492,8.789,-20.996,-25.391,-1000.000,0.000
1737556406.496,41.992,-12.207,-25.391,-157.715,0.000
1737556406.500,66.895,-4.883,-36.133,999.512,0.000
1737556406.504,44.922,-14.160,-39.551,802.734,0.000
1737556406.508,20.996,-28.320,-33.203,-450.684,0.000
1737556406.511,8.301,-33.203,-27.832,-1000.000,0.000
1737556406.515,34.668,-21.973,-12.207,-211.914,0.000
1737556406.519,62.012,-14.160,-10.742,999.512,0.000
1737556406.523,51.270,-16.602,-22.461,999.512,0.000
1737556406.527,25.391,-25.391,-31.250,-82.031,0.000
1737556406.531,5.371,-27.832,-27.832,-1000.000,0.000
1737556406.535,35.645,-7.324,-13.672,-252.441,0.000
1737556406.539,64.941,6.348,-5.859,983.887,0.000
1737556406.543,49.316,1.465,-11.230,999.512,0.000
1737556406.547,16.113,-7.812,-22.949,68.359,0.000
1737556406.551,-3.906,-14.160,-31.250,-1000.000,0.000
1737556406.554,22.949,-7.324,-21.973,-511.719,0.000
1737556406.558,44.922,-12.695,-21.484,821.289,0.000
1737556406.562,30.273,-22.461,-26.855,999.512,0.000
1737556406.566,-1.465,-30.273,-19.531,81.543,0.000
1737556406.570,-19.043,-40.527,-19.531,-1000.000,0.000
1737556406.574,-3.418,-36.621,-17.578,-921.387,0.000
1737556406.578,31.250,-27.344,-16.602,300.781,0.000
1737556406.582,45.410,-16.113,-17.578,999.512,0.000
1737556406.586,15.625,-17.090,-16.113,132.324,0.000
1737556406.590,-6.348,-24.902,-26.367,-1000.000,0.000
1737556406.593,4.883,-24.414,-28.809,-1000.000,0.000
1737556406.597,37.598,-16.113,-13.672,79.590,0.000
1737556406.601,48.340,-12.207,-20.996,999.512,0.000
1737556406.605,12.207,-22.949,-34.180,145.996,0.000
1737556406.609,-4.395,-34.180,-28.809,-1000.000,0.000
1737556406.613,4.883,-32.715,-14.160,-1000.000,0.000
1737556406.617,34.180,-23.438,-11.719,-141.113,0.000
1737556406.621,65.430,-10.742,-17.578,999.512,0.000
1737556406.625,31.738,-17.090,-20.996,175.781,0.000
1737556406.629,-1.465,-24.902,-23.926,-1000.000,0.000
1737556406.633,15.137,-13.184,-19.043,-1000.000,0.000
1737556406.636,48.828,-6.836,-21.484,-170.410,0.000
1737556406.640,62.500,-4.395,-26.855,999.512,0.000
1737556406.644,43.457,-5.859,-16.602,398.438,0.000
1737556406.648,17.090,-14.648,-11.719,-911.133,0.000
1737556406.652,12.695,-16.113,-20.508,-1000.000,0.000
1737556406.656,0.000,-7.324,-21.973,-178.223,0.000
1737556406.660,0.000,-0.977,-17.090,999.512,0.000
1737556406.664,0.000,-4.395,-19.531,748.047,0.000
1737556406.668,0.000,-18.555,-22.461,-530.273,0.000
1737556406.672,0.000,-21.484,-28.809,-1000.000,0.000
1737556406.676,0.000,-4.883,-29.297,-298.828,0.000
1737556406.679,0.000,-2.930,-16.602,999.512,0.000
1737556406.683,0.000,-24.414,-18.555,600.098,0.000
1737556406.687,0.000,-26.367,-22.461,-747.559,0.000
1737556406.691,0.000,-10.254,-14.648,-1000.000,0.000
1737556406.695,0.000,-6.836,-19.531,-601.074,0.000
1737556406.699,0.000,-7.812,-35.645,779.785,0.000
1737556406.703,43.457,-8.789,-35.645,966.797,0.000
1737556406.707,64.941,-14.648,-25.879,-356.445,0.000
1737556406.711,43.457,-15.137,-30.273,-1000.000,0.000
1737556406.715,-0.977,-10.254,-22.949,-578.125,0.000
1737556406.718,-8.789,-5.859,-15.625,720.703,0.000
1737556406.722,28.320,-10.742,-28.809,999.512,0.000
1737556406.726,59.082,-35.645,-30.762,37.109,0.000
1737556406.730,43.457,-44.434,-33.691,-1000.000,0.000
1737556406.734,12.207,-25.391,-28.809,-780.762,0.000
1737556406.738,9.766,-17.090,-16.113,522.949,0.000
1737556406.742,26.367,-14.648,-22.949,999.512,0.000
1737556406.746,41.016,-7.324,-28.320,54.688,0.000
1737556406.750,-22.461,-14.648,-25.391,-1000.000,0.000
1737556406.754,-26.367,-16.113,-30.762,-1000.000,0.000
1737556406.758,2.930,-10.254,-28.320,48.828,0.000
1737556406.761,26.367,-14.160,-5.859,999.512,0.000
1737556406.765,-7.324,-6.348,-29.785,62.988,0.000
1737556406.769,-41.992,3.418,-32.227,-1000.000,0.000
1737556406.773,-45.410,0.977,1.465,-1000.000,0.000
1737556406.777,-43.945,18.066,-32.227,-163.574,0.000
1737556406.781,-41.992,15.137,-46.875,999.512,0.000
1737556406.785,-41.992,-18.555,-20.020,87.891,0.000
1737556406.789,-49.805,-23.438,-29.785,-1000.000,0.000
1737556406.793,-63.477,-20.996,-35.156,-969.727,0.000
1737556406.797,-150.879,-2.441,0.000,-978.516,0.000
1737556406.801,-182.129,-30.762,0.000,-1000.000,0.000
1737556406.804,-183.105,-70.801,0.000,-1000.000,0.000
1737556406.808,-218.750,-54.199,0.000,-1000.000,0.000
1737556406.812,-222.168,-27.344,0.000,-1000.000,0.000
1737556406.816,-241.699,-27.832,0.000,-1000.000,0.000
1737556406.820,-287.109,-56.641,0.000,-1000.000,0.000
1737556406.824,-333.008,-35.156,0.000,-1000.000,0.000
1737556406.828,-307.129,-57.617,0.000,-1000.000,0.000
1737556406.832,-39.551,-45.898,0.000,-1000.000,0.000
1737556406.836,30.273,-2.441,0.000,-1000.000,0.000
1737556406.840,-49.316,5.371,0.000,-1000.000,0.000
1737556406.844,-62.012,-0.977,924.805,-1000.000,0.000
1737556406.847,-72.754,-4.395,747.070,-1000.000,0.000
1737556406.851,-77.148,1.953,650.391,-1000.000,0.000
1737556406.855,-59.570,18.066,640.137,-1000.000,0.000
1737556406.859,-55.176,29.785,614.746,-1000.000,0.000
1737556406.863,-59.082,27.832,555.176,-1000.000,0.000
1737556406.867,-75.195,31.250,521.973,-1000.000,0.000
1737556406.871,-74.707,41.992,517.578,-1000.000,0.000
1737556406.875,-64.453,37.109,476.074,-1000.000,0.000
1737556406.879,-32.715,42.969,451.172,-1000.000,0.000
1737556406.883,-11.719,58.594,464.355,-1000.000,0.000
1737556406.886,-20.508,48.340,467.773,-1000.000,0.000
1737556406.890,-4.395,52.734,457.031,-1000.000,0.000
1737556406.894,38.086,67.383,492.188,-1000.000,0.000
1737556406.898,60.547,69.824,493.652,-1000.000,0.000
1737556406.902,46.875,69.336,447.266,-1000.000,0.000
1737556406.906,29.297,59.570,444.824,-1000.000,0.000
1737556406.910,43.457,43.457,441.895,-1000.000,0.000
1737556406.914,74.219,46.387,430.664,-1000.000,0.000
1737556406.918,82.520,58.594,415.039,-1000.000,0.000
1737556406.922,79.102,47.852,388.672,-1000.000,0.000
1737556406.925,83.984,33.691,361.328,-1000.000,0.000
1737556406.929,93.750,39.062,332.520,-1000.000,0.000
1737556406.933,105.957,48.828,323.242,-1000.000,0.000
1737556406.937,111.328,48.340,321.289,0.000,0.000
1737556406.941,119.141,50.781,293.457,0.000,0.000
1737556406.945,116.699,41.992,269.531,0.000,0.000
1737556406.949,112.305,38.086,262.207,0.000,0.000
1737556406.953,107.910,33.691,250.000,0.000,0.000
1737556406.957,128.418,32.715,242.676,0.000,0.000
1737556406.961,157.715,40.039,245.117,0.000,0.000
1737556406.965,125.977,33.203,223.145,0.000,0.000
1737556406.968,67.871,8.301,163.574,0.000,0.000
1737556406.972,56.152,-7.324,162.598,0.000,0.000
1737556406.976,90.820,2.930,191.406,0.000,0.000
1737556406.980,96.191,7.324,171.875,0.000,0.000
1737556406.984,78.125,-4.395,145.020,912.598,0.000
1737556406.988,68.848,-10.254,143.066,971.191,0.000
1737556406.992,57.617,-20.508,137.207,971.191,0.000
1737556406.996,63.965,-18.066,133.301,970.703,0.000
1737556407.000,59.082,-17.090,123.047,970.703,0.000
1737556407.004,43.945,-15.625,109.375,970.703,0.000
1737556407.008,34.668,-13.672,92.773,970.703,0.000
1737556407.011,29.785,-23.438,79.102,970.703,0.000
1737556407.015,41.016,-14.648,83.984,970.703,0.000
1737556407.019,56.641,2.441,85.938,970.703,0.000
1737556407.023,41.992,-10.742,79.590,970.703,0.000
1737556407.027,28.809,-18.555,72.754,970.703,0.000
1737556407.031,28.809,-10.742,69.336,970.703,0.000
1737556407.035,42.480,-1.465,75.195,970.703,0.000
1737556407.039,53.711,4.395,76.172,970.703,0.000
1737556407.043,30.762,-9.277,58.594,970.703,0.000
1737556407.047,14.160,-15.137,47.363,970.703,0.000
1737556407.051,9.277,-14.648,52.734,970.703,0.000
1737556407.054,21.973,-9.766,66.895,970.703,0.000
1737556407.058,32.227,-11.719,79.102,970.703,0.000
1737556407.062,19.043,-14.160,59.570,970.703,0.000
1737556407.066,9.277,-10.742,38.086,970.703,0.000
1737556407.070,3.906,-15.137,32.227,970.703,0.000
1737556407.074,12.207,-15.625,42.480,970.703,0.000
1737556407.078,26.367,-6.348,0.000,0.000,0.000
1737556407.082,11.230,-7.324,0.000,0.000,0.000
1737556407.086,3.906,-9.766,0.000,0.000,0.000
1737556407.090,8.301,-10.254,0.000,0.000,0.000
1737556407.094,0.488,-16.602,0.000,0.000,0.000
1737556407.097,-1.953,-18.555,0.000,0.000,0.000
1737556407.101,-7.324,-14.648,0.000,0.000,0.000
1737556407.105,-17.090,-16.113,0.000,0.000,0.000
1737556407.109,-10.742,-11.230,0.000,0.000,0.000
1737556407.113,0.977,-2.930,0.000,0.000,0.000
1737556407.117,9.277,5.859,0.000,0.000,0.000
1737556407.121,-0.977,-1.953,0.000,0.000,0.000
1737556407.125,-14.160,-13.672,24.902,970.703,0.000
1737556407.129,-18.066,-14.648,21.973,970.703,0.000
1737556407.133,-18.555,-16.602,17.578,970.703,0.000
1737556407.136,-5.859,-7.812,24.414,970.703,0.000
1737556407.140,-7.812,-12.207,23.926,970.703,0.000
1737556407.144,-20.996,-14.160,16.602,970.703,0.000
1737556407.148,-12.207,-9.277,9.277,970.703,0.000
1737556407.152,-7.812,-17.090,2.441,970.703,0.000
1737556407.156,-4.883,-17.090,13.672,970.703,0.000
1737556407.160,-4.883,-15.625,13.672,970.703,0.000
1737556407.164,-22.949,-16.602,8.301,970.703,0.000
1737556407.168,-38.574,-20.996,3.906,970.703,0.000
1737556407.172,-39.551,-24.902,5.859,970.703,0.000
1737556407.176,-20.996,-12.695,23.926,972.168,0.000
1737556407.179,-11.719,-11.719,22.461,966.309,0.000
1737556407.183,-24.902,-20.508,7.812,940.430,0.000
1737556407.187,-25.879,-21.973,5.371,999.512,0.000
1737556407.191,-35.645,-20.020,6.836,304.199,0.000
1737556407.195,-29.785,-14.648,7.324,155.273,0.000
1737556407.199,-5.371,-12.207,10.254,999.512,0.000
1737556407.203,-17.578,-19.531,-7.812,945.312,0.000
1737556407.207,-20.996,-20.508,-15.137,999.512,0.000
1737556407.211,-26.855,-18.066,8.301,578.613,0.000
1737556407.215,-24.902,-20.508,19.043,430.664,0.000
1737556407.218,0.000,-15.625,0.000,999.512,0.000
1737556407.222,0.000,-15.137,0.000,974.121,0.000
1737556407.226,0.000,-24.902,0.000,956.055,0.000
1737556407.230,0.000,-34.180,0.000,973.145,0.000
1737556407.234,0.000,-20.508,0.000,971.680,0.000
1737556407.238,0.000,-0.977,0.000,971.191,0.000
1737556407.242,0.000,-13.184,0.000,902.832,0.000
1737556407.246,0.000,-18.555,0.000,999.512,0.000
1737556407.250,0.000,-12.207,0.000,169.922,0.000
1737556407.254,0.000,-26.367,0.000,-738.770,0.000
1737556407.258,0.000,-19.531,0.000,670.898,0.000
1737556407.261,0.000,-3.418,0.000,999.512,0.000
1737556407.265,-6.836,-9.277,22.949,0.000,0.000
1737556407.269,-15.137,-19.043,7.812,0.000,0.000
1737556407.273,-28.809,-22.949,0.488,0.000,0.000
1737556407.277,-6.836,-14.648,11.230,0.000,0.000
1737556407.281,4.883,-4.395,4.883,0.000,0.000
1737556407.285,-9.277,-3.418,-9.766,0.000,0.000
1737556407.289,-13.184,-10.742,-9.277,0.000,0.000
1737556407.293,-31.738,-18.555,-1.953,0.000,0.000
1737556407.297,-14.160,-10.254,0.000,0.000,0.000
1737556407.300,12.695,-8.301,-6.836,0.000,0.000
1737556407.304,-1.465,-20.020,-3.906,0.000,0.000
1737556407.308,-28.320,-11.230,4.395,0.000,0.000
1737556407.312,0.000,-11.230,-2.930,-1000.000,0.000
1737556407.316,0.000,-15.137,-4.395,-103.027,0.000
1737556407.320,0.000,-4.883,20.508,999.512,0.000
1737556407.324,0.000,3.906,14.648,999.512,0.000
1737556407.328,0.000,-5.371,-16.113,256.836,0.000
1737556407.332,0.000,-15.137,-28.320,-1000.000,0.000
1737556407.336,0.000,-7.324,3.906,-171.875,0.000
1737556407.340,0.000,11.719,18.555,999.512,0.000
1737556407.343,0.000,-10.254,-63.965,999.512,0.000
1737556407.347,0.000,-44.922,-101.562,207.520,0.000
1737556407.351,0.000,-40.039,-104.492,-1000.000,0.000
1737556407.355,0.000,-34.668,-142.578,-240.723,0.000
1737556407.359,-275.391,-32.227,-145.996,999.512,0.000
1737556407.363,-264.160,-44.434,-136.719,961.914,0.000
1737556407.367,-269.531,-47.363,-133.789,896.484,0.000
1737556407.371,-292.480,-50.293,-123.535,-456.055,0.000
1737556407.375,-290.039,-42.480,-115.723,-690.430,0.000
1737556407.379,-265.625,-34.180,-114.258,849.609,0.000
1737556407.383,-233.887,-34.668,-99.121,999.512,0.000
1737556407.386,-252.930,-55.176,-90.332,-197.754,0.000
1737556407.390,-278.809,-55.664,-100.586,-1000.000,0.000
1737556407.394,-232.910,-33.203,-101.562,-880.371,0.000
1737556407.398,-181.152,-31.250,-85.938,314.941,0.000
1737556407.402,-169.434,-25.879,-72.266,999.512,0.000
1737556407.406,0.000,-21.973,0.000,197.266,0.000
1737556407.410,0.000,-22.461,0.000,-1000.000,0.000
1737556407.414,0.000,-16.602,0.000,-981.934,0.000
1737556407.418,0.000,-11.230,0.000,229.004,0.000
1737556407.422,0.000,-13.672,0.000,999.512,0.000
1737556407.426,0.000,-19.531,0.000,122.070,0.000
1737556407.429,0.000,-12.695,0.000,-1000.000,0.000
1737556407.433,0.000,-7.324,0.000,-1000.000,0.000
1737556407.437,0.000,-7.812,0.000,-213.379,0.000
1737556407.441,0.000,9.277,0.000,999.512,0.000
1737556407.445,0.000,2.930,0.000,266.602,0.000
1737556407.449,0.000,-26.367,0.000,-1000.000,0.000
1737556407.453,-15.625,-20.996,-2.441,-1000.000,0.000
1737556407.457,46.875,4.883,7.812,12.207,0.000
1737556407.461,86.426,21.484,20.996,999.512,0.000
1737556407.465,71.289,16.113,14.160,989.746,0.000
1737556407.468,62.500,3.418,16.602,776.367,0.000
1737556407.472,68.848,15.137,34.180,-608.887,0.000
1737556407.476,103.027,28.809,47.363,-73.242,0.000
1737556407.480,117.676,10.254,41.992,999.512,0.000
1737556407.484,97.656,-6.836,36.133,999.512,0.000
1737556407.488,94.238,-4.883,38.086,355.469,0.000
1737556407.492,76.172,-14.160,36.133,-1000.000,0.000
1737556407.496,101.562,-8.789,55.664,-337.402,0.000
1737556407.500,0.000,3.906,67.383,999.512,0.000
1737556407.504,0.000,-0.488,48.340,420.898,0.000
1737556407.508,0.000,-12.695,43.945,-957.031,0.000
1737556407.511,0.000,-11.230,36.621,-978.516,0.000
1737556407.515,0.000,-4.883,38.574,-1000.000,0.000
1737556407.519,0.000,0.977,56.641,105.469,0.000
1737556407.523,0.000,10.742,58.105,624.023,0.000
1737556407.527,0.000,-8.301,47.363,-853.027,0.000
1737556407.531,0.000,-25.391,43.945,-1000.000,0.000
1737556407.535,0.000,-10.742,45.898,-890.137,0.000
1737556407.539,0.000,3.906,45.898,461.426,0.000
1737556407.543,0.000,-10.742,41.504,906.250,0.000
1737556407.547,50.293,-26.367,37.109,0.000,0.000
1737556407.551,43.457,-22.461,38.574,0.000,0.000
1737556407.554,60.059,-20.508,39.062,0.000,0.000
1737556407.558,75.195,-13.184,41.016,0.000,0.000
1737556407.562,67.383,-14.160,28.809,0.000,0.000
1737556407.566,26.367,-16.602,18.066,0.000,0.000
1737556407.570,28.809,-9.766,21.973,0.000,0.000
1737556407.574,44.922,-11.230,31.738,0.000,0.000
1737556407.578,46.387,-9.766,27.344,0.000,0.000
1737556407.582,31.738,-21.973,9.766,0.000,0.000
1737556407.586,18.066,-30.762,3.418,0.000,0.000
1737556407.590,16.602,-23.438,7.324,0.000,0.000
1737556407.594,11.719,-22.949,10.742,-1000.000,0.000
1737556407.597,16.113,-28.809,12.695,-1000.000,0.000
1737556407.601,13.672,-29.785,14.648,-1000.000,0.000
1737556407.605,-0.488,-27.832,9.277,-1000.000,0.000
1737556407.609,-0.977,-24.902,4.395,-1000.000,0.000
1737556407.613,3.418,-20.020,6.836,-1000.000,0.000
1737556407.617,-0.488,-24.902,8.789,-1000.000,0.000
1737556407.621,-9.766,-31.250,6.836,-1000.000,0.000
1737556407.625,-17.578,-33.203,-2.441,-1000.000,0.000
1737556407.629,-18.555,-35.156,-5.859,-1000.000,0.000
1737556407.633,-17.578,-36.133,0.977,-1000.000,0.000
1737556407.636,-1.465,-22.949,6.836,-1000.000,0.000
1737556407.640,8.301,-10.742,3.906,-1000.000,0.000
1737556407.644,-3.418,-19.531,0.000,-1000.000,0.000
1737556407.648,-9.766,-30.273,0.977,-1000.000,0.000
1737556407.652,-15.625,-31.738,-4.883,-1000.000,0.000
1737556407.656,-4.883,-24.902,-0.488,-1000.000,0.000
1737556407.660,5.859,-23.926,3.906,-1000.000,0.000
1737556407.664,-7.812,-29.297,0.977,-1000.000,0.000
1737556407.668,-16.113,-26.367,-0.488,-1000.000,0.000
1737556407.672,-17.578,-25.391,0.977,-1000.000,0.000
1737556407.675,-11.719,-25.391,6.836,-1000.000,0.000
1737556407.679,-1.953,-16.113,6.348,-1000.000,0.000
1737556407.683,-12.695,-17.090,-3.906,-1000.000,0.000
1737556407.687,0.000,-21.973,-10.742,-1000.000,0.000
1737556407.691,0.000,-16.602,-9.766,-1000.000,0.000
1737556407.695,0.000,-11.230,-5.859,-1000.000,0.000
1737556407.699,0.000,-6.836,-4.395,-1000.000,0.000
1737556407.703,0.000,-13.672,-5.859,-1000.000,0.000
1737556407.707,0.000,-15.625,-8.301,-1000.000,0.000
1737556407.711,0.000,-3.418,-12.207,-1000.000,0.000
1737556407.715,0.000,-2.441,-9.277,-1000.000,0.000
1737556407.718,0.000,-9.766,-2.441,-1000.000,0.000
1737556407.722,0.000,-17.578,-5.859,-1000.000,0.000
1737556407.726,0.000,-20.996,-9.766,-1000.000,0.000
1737556407.730,0.000,-16.113,-8.789,-1000.000,0.000
1737556407.734,-22.949,-11.719,-3.418,-1000.000,0.000
1737556407.738,-17.578,-17.090,-0.977,-1000.000,0.000
1737556407.742,-7.812,-22.461,-5.859,-1000.000,0.000
1737556407.746,4.395,-25.391,-4.395,-1000.000,0.000
1737556407.750,5.371,-21.973,1.465,-1000.000,0.000
1737556407.754,9.277,-15.625,7.812,-1000.000,0.000
1737556407.758,24.414,-16.602,12.695,-1000.000,0.000
1737556407.761,32.227,-22.461,4.883,-936.523,0.000
1737556407.765,31.250,-23.438,2.930,-1000.000,0.000
1737556407.769,13.184,-15.137,15.625,-231.934,0.000
1737556407.773,1.953,-5.859,18.555,999.512,0.000
1737556407.777,-2.441,-9.277,27.832,956.543,0.000
1737556407.781,-10.254,-17.090,39.551,942.383,0.000
1737556407.785,-10.254,-16.602,42.480,978.027,0.000
1737556407.789,-14.160,-12.695,35.645,970.703,0.000
1737556407.793,-27.832,-3.906,31.250,970.703,0.000
1737556407.797,-33.203,7.812,36.133,970.703,0.000
1737556407.800,-32.715,7.812,30.273,970.703,0.000
1737556407.804,-35.156,-4.883,17.578,970.703,0.000
1737556407.808,-56.152,-12.207,6.348,970.703,0.000
1737556407.812,-79.590,-12.695,6.348,970.703,0.000
1737556407.816,-62.012,-6.836,6.348,971.191,0.000
1737556407.820,-38.086,-6.836,-1.465,970.703,0.000
1737556407.824,-41.016,-13.184,-9.277,909.180,0.000
1737556407.828,-129.395,-15.137,-18.555,999.512,0.000
1737556407.832,-136.719,-27.344,-17.090,172.852,0.000
1737556407.836,-154.297,-34.180,-13.184,-1000.000,0.000
1737556407.840,-151.367,-35.156,-26.367,-981.445,0.000
1737556407.843,-157.227,-41.016,-39.062,-974.121,0.000
1737556407.847,-150.879,-37.598,-37.598,-1000.000,0.000
1737556407.851,-142.090,-36.621,-34.180,-1000.000,0.000
1737556407.855,-118.164,-31.250,-33.203,-1000.000,0.000
1737556407.859,-75.195,-29.785,-26.855,-1000.000,0.000
1737556407.863,-28.320,-36.621,-29.785,-1000.000,0.000
1737556407.867,35.156,-25.391,-32.227,-1000.000,0.000
1737556407.871,83.008,-17.090,-21.484,-1000.000,0.000
1737556407.875,96.680,-15.137,-18.555,-1000.000,0.000
1737556407.879,90.332,-21.484,-27.832,-1000.000,0.000
1737556407.883,80.078,-24.414,-25.879,-1000.000,0.000
1737556407.886,65.918,-21.973,-24.414,-1000.000,0.000
1737556407.890,57.129,-16.113,-25.879,-1000.000,0.000
1737556407.894,56.641,-6.348,-22.949,-1000.000,0.000
1737556407.898,60.059,-2.930,-24.414,-1000.000,0.000
1737556407.902,44.434,-12.207,-31.250,-937.500,0.000
1737556407.906,22.949,-15.625,-36.621,-1000.000,0.000
1737556407.910,25.879,-9.277,-34.668,-219.238,0.000
1737556407.914,41.016,-4.883,-21.484,999.512,0.000
1737556407.918,35.645,-0.977,-12.207,954.590,0.000
1737556407.922,23.438,-5.371,-17.090,943.359,0.000
1737556407.925,18.555,-18.555,-27.832,977.539,0.000
1737556407.929,23.926,-25.391,-31.250,970.703,0.000
1737556407.933,42.480,-18.066,-19.043,970.703,0.000
1737556407.937,58.105,-19.043,-6.348,970.703,0.000
1737556407.941,68.848,-16.113,-7.324,970.703,0.000
1737556407.945,66.895,-15.137,-9.277,970.703,0.000
1737556407.949,62.500,-18.555,-14.160,970.703,0.000
1737556407.953,78.613,-17.090,-12.695,970.703,0.000
1737556407.957,97.656,-16.602,-10.254,970.703,0.000
1737556407.961,101.562,-16.602,-6.836,970.703,0.000
1737556407.965,98.145,-16.602,-5.859,970.703,0.000
1737556407.968,0.000,-17.090,-12.695,970.703,0.000
1737556407.972,0.000,-17.090,-9.766,970.703,0.000
1737556407.976,0.000,-3.418,5.371,970.703,0.000
1737556407.980,0.000,-1.953,11.719,970.703,0.000
1737556407.984,0.000,-11.230,-2.930,970.703,0.000
1737556407.988,0.000,-0.977,-12.695,970.215,0.000
1737556407.992,0.000,-5.371,-4.395,970.215,0.000
1737556407.996,0.000,-8.789,-7.324,970.703,0.000
1737556408.000,0.000,-1.953,-12.207,970.703,0.000
1737556408.004,0.000,-6.836,-17.578,970.703,0.000
1737556408.007,0.000,-16.113,-30.762,970.703,0.000
1737556408.011,0.000,-11.230,-30.273,970.703,0.000
1737556408.015,88.867,4.395,-16.602,970.703,0.000
1737556408.019,78.125,0.000,-18.555,970.703,0.000
1737556408.023,78.613,-18.555,-28.320,970.703,0.000
1737556408.027,66.895,-19.043,-32.227,970.703,0.000
1737556408.031,34.668,-7.812,-25.879,970.703,0.000
1737556408.035,3.906,-2.930,-19.043,970.703,0.000
1737556408.039,-25.391,4.395,-14.160,970.703,0.000
1737556408.043,-44.434,5.371,-12.207,970.703,0.000
1737556408.047,-68.848,3.418,-14.648,970.703,0.000
1737556408.050,-102.539,-2.441,-13.184,970.703,0.000
1737556408.054,-127.930,-4.395,-7.812,970.703,0.000
1737556408.058,-135.742,0.977,0.000,970.703,0.000
1737556408.062,143.555,-6.348,1.953,970.703,0.000
1737556408.066,155.273,-14.160,0.977,970.703,0.000
1737556408.070,148.438,-12.207,-3.418,970.703,0.000
1737556408.074,145.020,-6.836,-9.766,970.703,0.000
1737556408.078,150.879,-3.906,-6.348,970.703,0.000
1737556408.082,148.438,1.953,3.906,970.703,0.000
1737556408.086,137.207,0.000,0.000,970.703,0.000
1737556408.090,125.977,-9.766,-4.395,970.703,0.000
1737556408.093,130.859,-3.906,2.930,970.703,0.000
1737556408.097,131.348,-5.371,0.488,970.703,0.000
1737556408.101,116.211,-15.137,-0.488,970.703,0.000
1737556408.105,101.562,-17.090,-2.441,970.703,0.000
1737556408.109,0.000,-14.648,0.000,970.703,0.000
1737556408.113,0.000,-18.555,0.000,970.703,0.000
1737556408.117,0.000,-24.414,0.000,970.703,0.000
1737556408.121,0.000,-13.672,0.000,970.703,0.000
1737556408.125,0.000,-11.719,0.000,970.703,0.000
1737556408.129,0.000,-11.719,0.000,970.703,0.000
1737556408.132,0.000,-9.766,0.000,970.703,0.000
1737556408.136,0.000,-19.043,0.000,970.703,0.000
1737556408.140,0.000,-21.484,0.000,970.703,0.000
1737556408.144,0.000,-17.578,0.000,970.703,0.000
1737556408.148,0.000,-18.066,0.000,970.703,0.000
1737556408.152,0.000,-17.090,0.000,970.703,0.000
1737556408.156,82.520,-19.043,-13.184,0.000,0.000
1737556408.160,67.871,-21.484,-18.555,0.000,0.000
1737556408.164,55.664,-22.949,-15.137,0.000,0.000
1737556408.168,36.621,-25.879,-14.160,0.000,0.000
1737556408.172,17.578,-28.809,-17.090,0.000,0.000
1737556408.175,8.301,-17.090,-14.648,0.000,0.000
1737556408.179,-0.977,-9.277,-14.648,0.000,0.000
1737556408.183,-19.531,-22.461,-14.160,0.000,0.000
1737556408.187,-29.785,-27.832,-9.277,0.000,0.000
1737556408.191,-35.156,-29.785,-8.301,0.000,0.000
1737556408.195,-50.293,-24.902,-12.207,0.000,0.000
1737556408.199,-54.199,-16.602,-14.160,0.000,0.000
1737556408.203,-49.805,-17.090,-18.555,970.703,0.000
1737556408.207,-49.316,-20.508,-21.973,970.703,0.000
1737556408.211,-47.852,-23.926,-19.043,970.703,0.000
1737556408.214,-39.062,-25.879,-22.461,970.703,0.000
1737556408.218,-30.762,-20.020,-15.137,970.703,0.000
1737556408.222,-13.672,-15.137,-14.648,970.703,0.000
1737556408.226,0.488,-20.996,-25.391,970.215,0.000
1737556408.230,-3.418,-27.344,-28.809,970.703,0.000
1737556408.234,-3.906,-22.461,-24.414,970.703,0.000
1737556408.238,-10.742,-12.695,-16.113,970.703,0.000
1737556408.242,-4.883,-17.578,-17.090,970.703,0.000
1737556408.246,17.578,-22.949,-18.066,970.703,0.000
1737556408.250,20.508,-19.531,-18.066,970.703,0.000
1737556408.254,18.066,-18.555,-24.902,970.703,0.000
1737556408.257,19.043,-16.602,-21.484,970.703,0.000
1737556408.261,23.926,-20.996,-19.531,970.703,0.000
1737556408.265,35.156,-25.391,-23.438,970.703,0.000
1737556408.269,31.738,-19.531,-26.367,970.703,0.000
1737556408.273,22.461,-20.020,-22.949,970.703,0.000
1737556408.277,11.719,-24.414,-18.066,970.703,0.000
1737556408.281,9.766,-17.578,-25.879,970.703,0.000
1737556408.285,24.414,-16.113,-31.250,970.703,0.000
1737556408.289,22.949,-21.973,-26.855,970.703,0.000
1737556408.293,11.230,-18.066,-28.320,970.703,0.000
1737556408.296,7.812,-7.812,-36.621,970.703,0.000
1737556408.300,3.418,-9.766,-32.227,970.703,0.000
1737556408.304,-1.953,-20.020,-41.016,970.703,0.000
1737556408.308,-6.836,-15.625,-58.105,970.703,0.000
1737556408.312,-15.137,-14.648,-64.941,970.703,0.000
1737556408.316,-11.719,-11.230,-69.824,970.703,0.000
1737556408.320,-10.254,-10.742,-73.730,970.703,0.000
1737556408.324,-17.578,-13.672,-93.750,970.703,0.000
1737556408.328,-9.277,-14.648,-115.234,970.703,0.000
1737556408.332,-6.348,-28.809,-123.535,970.703,0.000
1737556408.335,-21.973,-30.762,-125.000,970.703,0.000
1737556408.339,-21.484,-30.273,-124.512,970.703,0.000
1737556408.343,-218.750,-42.480,-129.883,970.703,0.000
1737556408.347,-221.191,-46.875,-129.395,970.703,0.000
1737556408.351,-215.332,-42.969,-123.535,970.703,0.000
1737556408.355,-200.684,-43.457,-111.816,970.703,0.000
1737556408.359,-179.688,-41.504,-96.191,974.121,0.000
1737556408.363,-161.621,-31.738,-86.426,902.344,0.000
1737556408.367,-142.578,-25.391,-82.520,999.512,0.000
1737556408.371,-140.625,-28.320,-83.984,307.129,0.000
1737556408.375,-150.879,-36.621,-80.566,-1000.000,0.000
1737556408.378,-109.863,-28.809,-59.082,-106.934,0.000
1737556408.382,-67.383,-19.043,-47.363,999.512,0.000
1737556408.386,-80.566,-27.832,-54.688,-57.129,0.000
1737556408.390,-77.637,-24.902,-45.410,-1000.000,0.000
1737556408.394,-48.340,-18.555,-33.203,-1000.000,0.000
1737556408.398,-7.324,-14.160,-26.367,-409.180,0.000
1737556408.402,26.855,-6.836,-20.020,999.512,0.000
1737556408.406,11.230,-13.672,-22.461,167.480,0.000
1737556408.410,-1.953,-16.113,-21.973,-1000.000,0.000
1737556408.414,0.488,-15.625,-16.113,-1000.000,0.000
1737556408.418,12.695,-12.207,-9.277,-879.395,0.000
1737556408.421,27.832,-11.230,-4.395,-405.273,0.000
1737556408.425,16.113,-14.648,-5.859,-740.723,0.000
1737556408.429,1.953,-15.137,-8.789,-1000.000,0.000
1737556408.433,12.695,-13.184,-2.441,-970.703,0.000
1737556408.437,38.574,-1.953,0.000,-1000.000,0.000
1737556408.441,40.527,-5.371,0.000,-1000.000,0.000
1737556408.445,36.621,-8.789,0.000,-1000.000,0.000
1737556408.449,31.738,-9.766,0.000,-1000.000,0.000
1737556408.453,22.949,-20.508,0.000,-1000.000,0.000
1737556408.457,32.227,-13.184,0.000,-1000.000,0.000
1737556408.461,33.691,-12.695,0.000,-1000.000,0.000
1737556408.464,31.738,-20.508,0.000,-1000.000,0.000
1737556408.468,36.133,-18.066,0.000,-959.473,0.000
1737556408.472,38.086,-15.625,0.000,-1000.000,0.000
1737556408.476,46.875,-7.812,0.000,-924.316,0.000
1737556408.480,72.266,2.441,0.000,340.332,0.000
1737556408.484,80.566,0.488,3.906,999.512,0.000
1737556408.488,46.387,-11.719,-0.977,57.617,0.000
1737556408.492,16.602,-16.113,-0.977,-1000.000,0.000
1737556408.496,40.039,-11.230,5.859,-551.758,0.000
1737556408.500,75.684,-9.277,14.648,772.461,0.000
1737556408.503,72.754,-5.859,14.648,999.512,0.000
1737556408.507,62.012,-9.766,6.836,746.094,0.000
1737556408.511,31.738,-22.949,-3.418,-589.355,0.000
1737556408.515,18.066,-21.484,-4.395,-964.355,0.000
1737556408.519,58.105,-8.301,3.906,516.113,0.000
1737556408.523,67.871,-3.418,5.371,989.746,0.000
1737556408.527,64.453,-4.395,3.906,999.512,0.000
1737556408.531,50.293,-14.160,0.000,339.355,0.000
1737556408.535,16.602,-23.926,-2.441,-770.508,0.000
1737556408.539,42.969,-14.160,3.418,541.504,0.000
1737556408.543,55.664,-9.277,-3.906,999.512,0.000
1737556408.546,47.363,-4.883,-7.324,898.438,0.000
1737556408.550,47.852,-1.465,-5.371,980.469,0.000
1737556408.554,45.898,0.488,-5.371,970.703,0.000
1737556408.558,44.434,-4.883,-1.465,970.703,0.000
1737556408.562,32.227,-17.090,-8.301,970.703,0.000
1737556408.566,30.273,-15.137,-9.766,970.703,0.000
1737556408.570,30.762,-11.230,-10.742,970.703,0.000
1737556408.574,29.297,-8.789,-11.719,970.703,0.000
1737556408.578,26.367,-4.883,-7.324,970.703,0.000
1737556408.582,13.672,-6.836,-6.836,970.703,0.000
1737556408.586,18.066,-9.277,-8.301,970.703,0.000
1737556408.589,26.367,-8.789,-8.789,970.703,0.000
1737556408.593,24.902,-7.324,-7.324,970.703,0.000
1737556408.597,33.691,0.488,-3.418,970.703,0.000
1737556408.601,35.645,-0.488,-4.395,970.703,0.000
1737556408.605,30.273,-8.301,-11.719,970.703,0.000
1737556408.609,25.391,-7.812,-19.531,970.703,0.000
1737556408.613,22.461,-10.742,-15.137,970.703,0.000
1737556408.617,34.180,-8.301,-6.836,970.703,0.000
1737556408.621,41.992,-4.395,-7.324,970.703,0.000
1737556408.625,40.527,-8.789,-5.859,970.703,0.000
1737556408.629,39.062,-9.277,-6.348,970.215,0.000
1737556408.632,39.062,-7.324,-10.254,970.703,0.000
1737556408.636,44.922,-5.371,-12.207,970.703,0.000
1737556408.640,42.480,-5.859,-7.812,970.703,0.000
1737556408.644,33.203,-6.348,-9.766,970.703,0.000
1737556408.648,28.809,-7.324,-17.090,970.703,0.000
1737556408.652,24.414,-13.184,-18.066,970.703,0.000
1737556408.656,22.461,-17.578,-19.531,970.703,0.000
1737556408.660,19.531,-16.602,-19.043,970.703,0.000
1737556408.664,19.043,-14.648,-21.484,970.703,0.000
1737556408.668,29.297,-11.719,-22.949,970.703,0.000
1737556408.671,37.109,-11.719,-22.949,970.703,0.000
1737556408.675,45.898,-11.230,-25.391,970.703,0.000
1737556408.679,52.734,-4.883,-19.531,970.703,0.000
1737556408.683,38.574,-10.254,-18.066,970.703,0.000
1737556408.687,25.391,-20.996,-23.926,970.703,0.000
1737556408.691,23.926,-20.996,-26.855,970.703,0.000
1737556408.695,25.391,-16.113,-26.367,970.703,0.000
1737556408.699,36.621,-15.625,-24.902,970.703,0.000
1737556408.703,42.969,-19.531,-29.785,970.703,0.000
1737556408.707,41.504,-22.949,-40.039,970.703,0.000
1737556408.710,41.016,-23.438,-39.551,970.703,0.000
1737556408.714,42.969,-18.555,-34.180,970.703,0.000
1737556408.718,52.734,-12.207,-33.203,970.703,0.000
1737556408.722,63.965,-4.395,-27.832,970.703,0.000
1737556408.726,69.336,-2.441,-27.832,970.703,0.000
1737556408.730,62.500,-8.789,-29.785,970.703,0.000
1737556408.734,58.594,-3.906,-22.461,970.703,0.000
1737556408.738,69.336,3.906,-20.508,970.703,0.000
1737556408.742,74.219,2.930,-22.949,970.703,0.000
1737556408.746,66.406,-1.953,-25.879,970.703,0.000
1737556408.750,62.500,-3.906,-27.344,970.703,0.000
1737556408.753,58.594,-3.418,-22.949,970.703,0.000
1737556408.757,62.500,2.441,-16.602,970.703,0.000
1737556408.761,63.477,3.418,-17.578,970.703,0.000
1737556408.765,0.000,-1.953,-19.043,970.703,0.000
1737556408.769,0.000,-6.836,-16.113,970.703,0.000
1737556408.773,0.000,-6.348,-14.160,970.703,0.000
1737556408.777,0.000,0.488,-12.207,970.703,0.000
1737556408.781,0.000,3.418,-10.254,970.703,0.000
1737556408.785,0.000,4.883,-13.184,970.703,0.000
1737556408.789,0.000,3.906,-15.625,970.703,0.000
1737556408.793,0.000,-0.488,-19.531,970.703,0.000
1737556408.796,0.000,-1.465,-17.578,970.703,0.000
1737556408.800,0.000,-3.906,-13.184,970.703,0.000
1737556408.804,0.000,-4.395,-16.113,970.703,0.000
1737556408.808,0.000,-8.789,-19.043,970.703,0.000
1737556408.812,60.547,-7.324,-16.602,970.703,0.000
1737556408.816,57.617,0.977,-13.184,970.703,0.000
1737556408.820,57.129,-2.930,-10.742,970.703,0.000
1737556408.824,66.406,-8.789,-10.742,970.703,0.000
1737556408.828,65.918,-8.789,-8.789,970.703,0.000
1737556408.832,58.105,-2.930,-9.277,970.703,0.000
1737556408.835,61.523,1.953,-10.254,970.703,0.000
1737556408.839,65.918,5.371,-12.207,970.703,0.000
1737556408.843,70.801,0.488,-20.020,970.703,0.000
1737556408.847,75.195,-4.395,-20.508,970.703,0.000
1737556408.851,69.336,-6.836,-18.555,970.703,0.000
1737556408.855,58.594,-7.812,-14.648,970.703,0.000
1737556408.859,46.387,-5.371,-11.230,970.703,0.000
1737556408.863,46.387,-5.371,-11.719,970.703,0.000
1737556408.867,36.133,-3.418,-13.672,970.703,0.000
1737556408.871,23.926,-6.348,-18.066,970.703,0.000
1737556408.875,16.113,-11.719,-17.090,970.703,0.000
1737556408.878,18.555,-9.277,-12.695,970.703,0.000
1737556408.882,16.113,-10.254,-10.254,970.703,0.000
1737556408.886,12.207,-18.066,-16.113,970.703,0.000
1737556408.890,13.672,-20.996,-21.973,970.703,0.000
1737556408.894,8.789,-17.578,-16.602,970.703,0.000
1737556408.898,20.996,-10.742,-12.207,970.703,0.000
1737556408.902,32.227,-8.789,-9.277,970.703,0.000
1737556408.906,28.809,-12.695,-13.184,970.703,0.000
1737556408.910,24.414,-18.066,-20.996,970.703,0.000
1737556408.914,17.578,-15.625,-18.555,970.703,0.000
1737556408.918,24.902,-13.672,-9.277,970.703,0.000
1737556408.921,25.879,-16.602,-6.348,970.703,0.000
1737556408.925,21.973,-16.113,-11.230,970.703,0.000
1737556408.929,27.344,-17.578,-17.090,970.703,0.000
1737556408.933,20.508,-15.625,-21.484,970.703,0.000
1737556408.937,29.785,-9.766,-21.484,970.703,0.000
1737556408.941,43.945,-5.371,-18.555,970.703,0.000
1737556408.945,23.438,-8.789,-19.043,970.703,0.000
1737556408.949,5.371,-13.184,-20.020,970.703,0.000
1737556408.953,0.000,-6.836,-16.113,970.703,0.000
1737556408.957,0.000,-3.418,-13.184,970.703,0.000
1737556408.961,0.000,-14.160,-11.230,970.215,0.000
1737556408.964,0.000,-18.066,-17.578,970.703,0.000
1737556408.968,0.000,-17.090,-23.438,970.703,0.000
1737556408.972,0.000,-15.137,-24.902,970.703,0.000
1737556408.976,0.000,-10.254,-25.391,970.703,0.000
1737556408.980,0.000,-13.184,-21.484,970.703,0.000
1737556408.984,0.000,-20.996,-23.926,970.703,0.000
1737556408.988,0.000,-26.855,-31.250,970.703,0.000
1737556408.992,0.000,-23.926,-29.785,970.703,0.000
1737556408.996,0.000,-22.461,-24.414,970.703,0.000
1737556409.000,-44.434,-23.438,-20.508,970.703,0.000
1737556409.003,-42.480,-26.855,-26.855,970.703,0.000
1737556409.007,-45.410,-27.832,-29.785,970.703,0.000
1737556409.011,-66.406,-29.297,-25.391,970.703,0.000
1737556409.015,-73.730,-26.855,-21.484,970.703,0.000
1737556409.019,-56.152,-13.672,-17.578,970.703,0.000
1737556409.023,-54.199,-9.766,-23.926,970.703,0.000
1737556409.027,-59.570,-15.625,-35.645,970.703,0.000
1737556409.031,-60.547,-14.648,-37.109,970.703,0.000
1737556409.035,-65.918,-15.137,-31.738,970.703,0.000
1737556409.039,-72.266,-22.949,-30.273,970.703,0.000
1737556409.043,-74.219,-29.297,-31.250,970.703,0.000
1737556409.046,0.000,-29.297,0.000,970.703,0.000
1737556409.050,0.000,-32.227,0.000,970.703,0.000
1737556409.054,0.000,-31.738,0.000,970.703,0.000
1737556409.058,0.000,-24.414,0.000,980.957,0.000
1737556409.062,0.000,-27.344,0.000,905.762,0.000
1737556409.066,0.000,-27.344,0.000,999.512,0.000
1737556409.070,0.000,-29.785,0.000,596.680,0.000
1737556409.074,0.000,-37.109,0.000,-986.328,0.000
1737556409.078,0.000,-30.273,0.000,-341.309,0.000
1737556409.082,0.000,-26.855,0.000,989.746,0.000
1737556409.085,0.000,-30.762,0.000,999.512,0.000
1737556409.089,0.000,-38.574,0.000,408.691,0.000
1737556409.093,-131.348,-46.387,-32.715,-929.199,0.000
1737556409.097,-112.793,-41.992,-25.879,-1000.000,0.000
1737556409.101,-96.191,-37.109,-23.438,-953.613,0.000
1737556409.105,-90.820,-34.668,-25.391,-1000.000,0.000
1737556409.109,-69.824,-32.227,-31.738,-1000.000,0.000
1737556409.113,-83.496,-32.715,-32.715,-1000.000,0.000
1737556409.117,-105.957,-37.109,-29.297,-1000.000,0.000
1737556409.121,-107.422,-44.922,-28.320,-1000.000,0.000
1737556409.125,-92.773,-38.086,-41.016,-1000.000,0.000
1737556409.128,-85.938,-34.668,-50.293,-1000.000,0.000
1737556409.132,-107.422,-48.340,-45.410,-1000.000,0.000
1737556409.136,-113.281,-45.898,-41.992,-1000.000,0.000
1737556409.140,-109.375,-39.062,-39.062,-1000.000,0.000
1737556409.144,-108.398,-33.691,-36.133,-1000.000,0.000
1737556409.148,-125.488,-40.039,-32.227,-1000.000,0.000
1737556409.152,-135.742,-47.852,-37.598,-1000.000,0.000
1737556409.156,-126.465,-37.109,-34.668,-1000.000,0.000
1737556409.160,-123.047,-28.809,-23.438,-1000.000,0.000
1737556409.164,-127.930,-30.762,-27.344,-1000.000,0.000
1737556409.168,-122.070,-27.344,-33.203,-1000.000,0.000
1737556409.171,-116.699,-26.367,-35.156,-1000.000,0.000
1737556409.175,-101.074,-29.297,-32.715,-1000.000,0.000
1737556409.179,-50.293,-21.973,-23.926,-1000.000,0.000
1737556409.183,-12.695,-21.484,-19.531,-1000.000,0.000
1737556409.187,-9.766,-35.156,-21.973,-1000.000,0.000
1737556409.191,0.488,-41.992,-29.297,-1000.000,0.000
1737556409.195,30.762,-38.086,-33.691,-1000.000,0.000
1737556409.199,67.383,-36.621,-40.039,-1000.000,0.000
1737556409.203,86.426,-40.527,-46.387,-1000.000,0.000
1737556409.207,112.305,-34.180,-50.781,-1000.000,0.000
1737556409.211,123.535,-36.133,-55.176,-1000.000,0.000
1737556409.214,114.258,-47.852,-52.734,-1000.000,0.000
1737556409.218,130.859,-44.434,-46.387,-1000.000,0.000
1737556409.222,141.602,-42.480,-43.945,-1000.000,0.000
1737556409.226,139.648,-43.945,-43.945,-1000.000,0.000
1737556409.230,132.324,-42.969,-47.363,-1000.000,0.000
1737556409.234,106.445,-44.434,-46.387,-1000.000,0.000
1737556409.238,83.984,-34.668,-41.992,-1000.000,0.000
1737556409.242,28.320,-30.273,-39.551,-1000.000,0.000
1737556409.246,-48.828,-37.109,-40.527,-1000.000,0.000
1737556409.250,-64.941,-33.691,-49.316,-1000.000,0.000
1737556409.253,-44.922,-25.879,-44.922,-1000.000,0.000
1737556409.257,-20.996,-16.602,-39.551,-1000.000,0.000
1737556409.261,-20.996,-20.020,-45.410,-1000.000,0.000
1737556409.265,-24.902,-27.832,-40.527,-936.523,0.000
1737556409.269,-23.438,-25.879,-45.410,-1000.000,0.000
1737556409.273,-17.578,-19.531,-59.570,-220.703,0.000
1737556409.277,11.719,-8.301,-53.711,968.750,0.000
1737556409.281,35.645,-0.977,-44.922,999.512,0.000
1737556409.285,25.391,-1.953,-46.387,588.379,0.000
1737556409.289,8.789,-9.277,-41.992,-800.293,0.000
1737556409.293,22.949,-3.418,-41.504,-1000.000,0.000
1737556409.296,33.203,-1.953,-39.062,-942.383,0.000
1737556409.300,37.598,-6.836,-26.367,-1000.000,0.000
1737556409.304,54.199,-7.324,-31.738,-1000.000,0.000
1737556409.308,70.801,-16.113,-33.691,-1000.000,0.000
1737556409.312,89.355,-17.578,-20.996,-1000.000,0.000
1737556409.316,106.445,-15.137,-14.160,-1000.000,0.000
1737556409.320,120.117,-10.254,-12.695,-1000.000,0.000
1737556409.324,125.000,-6.836,-7.812,-1000.000,0.000
1737556409.328,128.906,-12.695,-7.324,-1000.000,0.000
1737556409.332,132.812,-20.020,-16.113,-1000.000,0.000
1737556409.336,143.066,-28.320,-16.602,-1000.000,0.000
1737556409.339,209.961,-30.273,-8.789,-1000.000,0.000
1737556409.343,282.227,-22.949,-12.207,-1000.000,0.000
1737556409.347,311.035,-20.508,-20.508,-1000.000,0.000
1737556409.351,343.262,-24.414,-27.344,-1000.000,0.000
1737556409.355,364.746,-33.203,-34.668,-1000.000,0.000
1737556409.359,366.211,-35.156,-32.715,-1000.000,0.000
1737556409.363,350.586,-32.227,-36.133,-1000.000,0.000
1737556409.367,337.402,-38.574,-41.016,-1000.000,0.000
1737556409.371,319.336,-47.852,-45.410,-1000.000,0.000
1737556409.375,299.805,-50.293,-47.363,-1000.000,0.000
1737556409.378,302.734,-47.852,-42.480,-1000.000,0.000
1737556409.382,350.098,-38.574,-50.293,-1000.000,0.000
1737556409.386,375.488,-36.621,-58.594,-1000.000,0.000
1737556409.390,405.273,-36.133,-58.105,-1000.000,0.000
1737556409.394,387.207,-45.410,-46.875,-1000.000,0.000
1737556409.398,379.883,-50.781,-46.387,-1000.000,0.000
1737556409.402,428.223,-45.898,-50.781,-1000.000,0.000
1737556409.406,469.238,-43.945,-53.223,-1000.000,0.000
1737556409.410,506.836,-41.016,-58.594,-1000.000,0.000
1737556409.414,515.625,-48.828,-56.641,-1000.000,0.000
1737556409.418,564.941,-55.664,-37.598,-1000.000,0.000
1737556409.421,644.043,-44.922,-38.086,-1000.000,0.000
1737556409.425,676.758,-46.875,-45.898,-1000.000,0.000
1737556409.429,712.891,-56.152,-34.668,-1000.000,0.000
1737556409.433,793.457,-39.062,-50.781,-1000.000,0.000
1737556409.437,819.824,-20.508,-53.711,-1000.000,0.000
1737556409.441,749.023,-22.949,-42.969,-1000.000,0.000
1737556409.445,711.426,-31.250,-41.016,-1000.000,0.000
1737556409.449,705.078,-41.992,-35.645,-1000.000,0.000
1737556409.453,676.758,-38.086,-33.691,-1000.000,0.000
1737556409.457,625.000,-31.250,-31.738,-1000.000,0.000
1737556409.460,603.027,-34.668,-29.297,-1000.000,0.000
1737556409.464,630.371,-28.320,-40.039,-1000.000,0.000
1737556409.468,696.289,-21.484,-45.898,-1000.000,0.000
1737556409.472,776.367,-25.879,-43.457,-1000.000,0.000
1737556409.476,831.543,-26.367,-40.039,-1000.000,0.000
1737556409.480,877.441,-21.973,-39.551,-1000.000,0.000
1737556409.484,923.340,-20.508,-43.945,-1000.000,0.000
1737556409.488,945.801,-12.695,-39.062,-1000.000,0.000
1737556409.492,914.551,-14.648,-27.832,-1000.000,0.000
1737556409.496,866.211,-17.578,-23.926,-1000.000,0.000
1737556409.500,842.285,-5.371,-25.879,-1000.000,0.000
1737556409.503,815.430,-1.465,-25.391,-1000.000,0.000
1737556409.507,772.461,-4.395,-24.414,-1000.000,0.000
1737556409.511,722.168,-9.277,-26.367,-1000.000,0.000
1737556409.515,700.195,-15.137,0.000,-1000.000,0.000
1737556409.519,698.242,-5.371,0.000,-1000.000,0.000
1737556409.523,669.922,9.277,0.000,-1000.000,0.000
1737556409.527,625.000,12.207,0.000,-1000.000,0.000
1737556409.531,562.988,-1.465,0.000,-1000.000,0.000
1737556409.535,514.648,-5.859,0.000,-1000.000,0.000
1737556409.539,483.887,-0.488,0.000,-1000.000,0.000
1737556409.543,465.820,-1.953,0.000,-1000.000,0.000
1737556409.546,492.676,-4.395,0.000,-929.688,0.000
1737556409.550,516.113,-9.766,0.000,-1000.000,0.000
1737556409.554,575.684,-4.883,0.000,-530.762,0.000
1737556409.558,684.570,7.812,0.000,876.953,0.000
1737556409.562,692.383,10.742,-16.602,999.512,0.000
1737556409.566,643.555,2.930,-20.508,919.434,0.000
1737556409.570,600.586,-6.348,-26.855,984.375,0.000
1737556409.574,559.082,-2.441,-21.973,970.703,0.000
1737556409.578,535.645,-0.488,-15.137,970.703,0.000
1737556409.582,535.156,-1.465,-11.719,970.703,0.000
1737556409.586,552.246,-1.465,-20.020,970.703,0.000
1737556409.589,538.574,-8.301,-22.949,970.703,0.000
1737556409.593,501.465,-13.672,-17.090,970.703,0.000
1737556409.597,488.281,-14.648,-13.184,970.703,0.000
1737556409.601,460.938,-19.043,-10.742,970.703,0.000
1737556409.605,420.898,-17.090,-9.277,970.703,0.000
1737556409.609,404.785,-17.090,-12.695,970.703,0.000
1737556409.613,374.512,-23.438,-17.090,970.703,0.000
1737556409.617,330.566,-20.996,-11.230,970.703,0.000
1737556409.621,291.992,-17.090,-4.395,970.703,0.000
1737556409.625,251.465,-15.137,-7.324,970.703,0.000
1737556409.628,224.121,-10.742,-17.090,970.703,0.000
1737556409.632,203.613,-10.742,-20.508,970.703,0.000
1737556409.636,192.871,-17.090,-17.578,970.703,0.000
1737556409.640,211.914,-17.578,-19.043,970.703,0.000
1737556409.644,211.426,-24.414,-23.926,970.703,0.000
1737556409.648,200.684,-27.832,-23.438,970.703,0.000
1737556409.652,169.922,-28.809,-22.461,970.703,0.000
1737556409.656,134.766,-27.344,-24.902,970.703,0.000
1737556409.660,129.883,-19.043,-22.949,970.703,0.000
1737556409.664,99.609,-18.555,-28.320,970.703,0.000
1737556409.668,67.871,-20.996,-28.320,970.703,0.000
1737556409.671,49.805,-21.484,-28.320,970.703,0.000
1737556409.675,37.598,-19.043,-29.785,970.703,0.000
1737556409.679,27.344,-17.578,-24.902,970.703,0.000
1737556409.683,25.391,-18.555,-26.367,970.703,0.000
1737556409.687,35.645,-17.090,-24.414,970.703,0.000
1737556409.691,26.367,-22.461,-22.461,970.703,0.000
1737556409.695,21.973,-20.508,-25.391,970.703,0.000
1737556409.699,24.902,-14.648,-26.855,970.703,0.000
1737556409.703,23.926,-16.602,-22.461,970.215,0.000
1737556409.707,32.227,-15.625,-18.555,970.703,0.000
1737556409.711,45.410,-14.648,-20.508,970.703,0.000
1737556409.714,53.223,-11.719,-21.973,970.703,0.000
1737556409.718,53.711,-13.184,-23.438,970.703,0.000
1737556409.722,60.059,-12.695,-24.414,970.703,0.000
1737556409.726,75.684,-5.859,-33.203,970.703,0.000
1737556409.730,70.801,-10.742,-36.133,970.703,0.000
1737556409.734,65.430,-14.160,-30.762,970.703,0.000
1737556409.738,69.336,-8.789,-15.137,970.703,0.000
1737556409.742,90.332,-0.977,-9.766,970.703,0.000
1737556409.746,101.562,5.371,-17.090,970.703,0.000
1737556409.750,71.777,-1.465,-14.160,970.703,0.000
1737556409.753,69.824,1.465,-10.254,970.703,0.000
1737556409.757,83.008,10.254,-14.160,970.703,0.000
1737556409.761,58.594,2.441,-11.719,970.703,0.000
1737556409.765,49.805,3.418,-19.043,970.703,0.000
1737556409.769,29.785,2.930,-29.785,970.703,0.000
1737556409.773,4.883,-3.906,-25.879,970.703,0.000
1737556409.777,20.020,-0.977,-17.090,970.703,0.000
1737556409.781,27.344,5.859,-19.043,970.703,0.000
1737556409.785,-14.160,-0.977,-28.809,970.703,0.000
1737556409.789,-55.664,-14.648,-28.320,970.703,0.000
1737556409.793,11.230,5.371,-50.293,970.703,0.000
1737556409.796,0.000,9.277,0.000,0.000,0.000
1737556409.800,0.000,-7.324,0.000,0.000,0.000
1737556409.804,0.000,-9.277,0.000,0.000,0.000
1737556409.808,0.000,-21.484,0.000,0.000,0.000
1737556409.812,0.000,-17.090,0.000,0.000,0.000
1737556409.816,0.000,2.441,0.000,0.000,0.000
1737556409.820,0.000,-2.930,0.000,0.000,0.000
1737556409.824,0.000,-14.160,0.000,0.000,0.000
1737556409.828,0.000,-5.859,0.000,0.000,0.000
1737556409.832,0.000,-11.719,0.000,0.000,0.000
1737556409.835,0.000,-29.297,0.000,0.000,0.000
1737556409.839,0.000,-34.668,0.000,0.000,0.000
1737556409.843,208.008,-14.160,-42.480,-1000.000,0.000
1737556409.847,228.027,-9.277,-62.988,-1000.000,0.000
1737556409.851,195.312,-33.691,-47.363,-1000.000,0.000
1737556409.855,211.426,-40.039,-37.109,-1000.000,0.000
1737556409.859,225.098,-46.387,-29.785,-1000.000,0.000
1737556409.863,245.605,-46.387,-13.672,-1000.000,0.000
1737556409.867,286.133,-44.922,-23.438,-1000.000,0.000
1737556409.871,324.219,-47.852,-34.668,-1000.000,0.000
1737556409.875,410.156,-45.410,-33.203,-1000.000,0.000
1737556409.878,527.344,-39.062,-44.434,-1000.000,0.000
1737556409.882,655.273,-34.180,-42.969,-1000.000,0.000
1737556409.886,820.801,-30.762,-43.945,-926.270,0.000
1737556409.890,947.754,-32.227,-41.016,-1000.000,0.000
1737556409.894,970.215,-30.762,-30.273,-540.039,0.000
1737556409.898,967.285,-9.766,-25.879,891.113,0.000
1737556409.902,970.215,-6.348,-17.090,999.512,0.000
1737556409.906,969.727,-16.602,-9.766,917.480,0.000
1737556409.910,969.727,-15.137,-1.953,985.352,0.000
1737556409.914,970.215,-15.137,0.488,970.703,0.000
1737556409.918,970.215,-12.695,5.371,970.703,0.000
1737556409.921,970.215,-11.719,0.488,970.703,0.000
1737556409.925,970.215,-20.508,1.953,970.703,0.000
1737556409.929,970.215,-23.926,15.137,970.703,0.000
1737556409.933,970.215,-27.344,19.043,970.703,0.000
1737556409.937,970.703,-25.879,31.738,970.703,0.000
1737556409.941,966.797,-25.391,49.805,970.703,0.000
1737556409.945,971.680,-20.020,48.340,970.703,0.000
1737556409.949,958.984,-7.324,35.645,970.703,0.000
1737556409.953,850.098,-14.648,35.645,970.703,0.000
1737556409.957,786.621,-17.090,45.898,970.703,0.000
1737556409.961,791.992,-13.184,52.246,970.703,0.000
1737556409.964,782.227,-18.555,47.852,970.703,0.000
1737556409.968,794.434,-20.020,45.410,970.703,0.000
1737556409.972,797.852,-12.695,48.340,984.863,0.000
1737556409.976,832.520,-8.789,54.688,904.785,0.000
1737556409.980,908.691,-12.207,51.758,999.512,0.000
1737556409.984,0.000,-14.648,50.293,655.762,0.000
1737556409.988,0.000,-20.996,41.504,-770.508,0.000
1737556409.992,0.000,-23.438,27.344,-1000.000,0.000
1737556409.996,0.000,-16.113,31.250,-940.430,0.000
1737556410.000,0.000,-11.719,27.832,-1000.000,0.000
1737556410.003,0.000,-7.324,16.113,-1000.000,0.000
1737556410.007,0.000,-4.883,14.648,-1000.000,0.000
1737556410.011,0.000,-18.066,3.906,-1000.000,0.000
1737556410.015,0.000,-20.508,-4.395,-1000.000,0.000
1737556410.019,0.000,-18.555,-7.324,-1000.000,0.000
1737556410.023,0.000,-26.367,-17.578,-1000.000,0.000
1737556410.027,0.000,-31.250,-33.203,-1000.000,0.000
1737556410.031,783.203,-29.785,-48.340,-1000.000,0.000
1737556410.035,717.285,-28.809,-54.199,-1000.000,0.000
1737556410.039,700.684,-27.832,-63.477,-1000.000,0.000
1737556410.043,690.918,-26.855,-78.125,-1000.000,0.000
1737556410.046,679.688,-35.645,-82.031,-1000.000,0.000
1737556410.050,660.156,-39.551,-78.613,-1000.000,0.000
1737556410.054,611.328,-36.133,-80.078,-1000.000,0.000
1737556410.058,567.871,-38.574,-79.102,-1000.000,0.000
1737556410.062,544.922,-38.574,-78.613,-1000.000,0.000
1737556410.066,509.766,-37.109,-87.402,-1000.000,0.000
1737556410.070,459.961,-36.621,-88.379,-1000.000,0.000
1737556410.074,421.387,-36.133,-80.566,-1000.000,0.000
1737556410.078,386.719,-29.297,-70.312,-1000.000,0.000
1737556410.082,342.285,-25.391,-67.871,-1000.000,0.000
1737556410.086,313.965,-28.320,-66.895,-1000.000,0.000
1737556410.089,290.527,-28.809,-63.477,-1000.000,0.000
1737556410.093,246.094,-32.227,-62.012,-1000.000,0.000
1737556410.097,218.262,-29.785,-60.547,-1000.000,0.000
1737556410.101,198.730,-23.438,-57.129,-1000.000,0.000
1737556410.105,153.809,-37.109,-54.688,-1000.000,0.000
1737556410.109,118.652,-38.086,-58.105,-1000.000,0.000
1737556410.113,69.336,-41.504,-58.594,-1000.000,0.000
1737556410.117,38.086,-45.410,-57.129,-1000.000,0.000
1737556410.121,27.832,-40.039,-45.410,-1000.000,0.000
1737556410.125,10.742,-47.363,-37.109,-1000.000,0.000
1737556410.128,3.906,-44.922,-45.898,-1000.000,0.000
1737556410.132,-14.160,-39.062,-48.340,-1000.000,0.000
1737556410.136,-9.277,-36.133,-36.133,-1000.000,0.000
1737556410.140,12.695,-33.203,-31.738,-1000.000,0.000
1737556410.144,41.504,-23.926,-33.203,-1000.000,0.000
1737556410.148,53.223,-22.461,-41.016,-1000.000,0.000
1737556410.152,45.898,-29.297,-33.691,-1000.000,0.000
1737556410.156,65.918,-13.672,-20.508,-1000.000,0.000
1737556410.160,83.496,-10.254,-22.949,-1000.000,0.000
1737556410.164,61.035,-27.832,-19.043,-1000.000,0.000
1737556410.168,75.195,-21.973,-25.879,-1000.000,0.000
1737556410.171,115.723,-17.578,-31.250,-1000.000,0.000
1737556410.175,129.883,-15.137,-37.598,-1000.000,0.000
1737556410.179,114.746,-9.766,-38.086,-1000.000,0.000
1737556410.183,104.004,-12.695,-37.598,-1000.000,0.000
1737556410.187,104.492,-16.113,-43.457,-1000.000,0.000
1737556410.191,96.680,-22.461,-39.551,-1000.000,0.000
1737556410.195,79.102,-28.809,-31.250,-1000.000,0.000
1737556410.199,88.379,-19.043,-29.297,-1000.000,0.000
1737556410.203,104.492,-5.371,-41.016,-1000.000,0.000
1737556410.207,45.898,-16.602,-39.062,-1000.000,0.000
1737556410.210,-45.410,-27.344,-40.039,-1000.000,0.000
1737556410.214,-122.070,-33.203,-41.016,-1000.000,0.000
1737556410.218,-202.148,-35.645,0.000,-1000.000,0.000
1737556410.222,-316.895,-28.320,0.000,-1000.000,0.000
1737556410.226,-593.262,-34.180,0.000,-1000.000,0.000
1737556410.230,-921.875,-37.109,0.000,-1000.000,0.000
1737556410.234,-1000.000,-34.668,0.000,-1000.000,0.000
1737556410.238,-991.699,-49.316,0.000,-1000.000,0.000
1737556410.242,-1000.000,-67.383,0.000,-1000.000,0.000
1737556410.246,-1000.000,-70.801,0.000,-1000.000,0.000
1737556410.250,-1000.000,-72.266,0.000,-1000.000,0.000
1737556410.253,-1000.000,-79.102,0.000,-1000.000,0.000
1737556410.257,-1000.000,-83.496,0.000,-1000.000,0.000
1737556410.261,-1000.000,-80.566,0.000,-1000.000,0.000
1737556410.265,0.000,-74.707,-84.961,-1000.000,0.000
1737556410.269,0.000,-72.266,-97.168,-1000.000,0.000
1737556410.273,0.000,-64.941,-104.980,-1000.000,0.000
1737556410.277,0.000,-64.453,-100.586,-1000.000,0.000
1737556410.281,0.000,-62.500,-95.703,-1000.000,0.000
1737556410.285,0.000,-53.223,-95.703,-1000.000,0.000
1737556410.289,0.000,-53.711,-84.473,-1000.000,0.000
1737556410.293,0.000,-61.035,-61.035,-1000.000,0.000
1737556410.296,0.000,-54.688,-35.645,-1000.000,0.000
1737556410.300,0.000,-48.340,-8.301,-1000.000,0.000
1737556410.304,0.000,-42.969,7.324,-1000.000,0.000
1737556410.308,0.000,-38.086,7.812,-1000.000,0.000
1737556410.312,983.398,-34.180,0.000,-1000.000,0.000
1737556410.316,945.801,-35.156,0.000,-1000.000,0.000
1737556410.320,973.145,-36.133,0.000,-1000.000,0.000
1737556410.324,970.703,-37.598,0.000,-1000.000,0.000
1737556410.328,970.703,-50.293,0.000,-1000.000,0.000
1737556410.332,970.215,-51.758,0.000,-937.500,0.000
1737556410.336,960.938,-40.527,0.000,-1000.000,0.000
1737556410.339,981.445,-35.645,0.000,-219.238,0.000
1737556410.343,842.773,-37.598,0.000,999.512,0.000
1737556410.347,514.648,-35.645,0.000,954.102,0.000
1737556410.351,223.633,-33.203,0.000,943.359,0.000
1737556410.355,-23.926,-31.738,0.000,977.539,0.000
1737556410.359,0.000,-36.621,-2.930,970.703,0.000
1737556410.363,0.000,-45.898,-11.230,970.703,0.000
1737556410.367,0.000,-41.504,-21.484,970.703,0.000
1737556410.371,0.000,-40.039,-34.180,970.703,0.000
1737556410.375,0.000,-43.945,-39.551,970.703,0.000
1737556410.378,0.000,-42.969,-37.598,970.703,0.000
1737556410.382,0.000,-47.852,-41.504,970.703,0.000
1737556410.386,0.000,-60.547,-43.457,970.703,0.000
1737556410.390,0.000,-70.312,-43.945,970.703,0.000
1737556410.394,0.000,-70.801,-34.668,971.191,0.000
1737556410.398,0.000,-67.871,-20.996,969.238,0.000
1737556410.402,0.000,-67.383,-12.695,910.645,0.000
1737556410.406,-203.613,-69.336,-1.465,999.512,0.000
1737556410.410,-336.426,-70.312,0.488,155.762,0.000
1737556410.414,-430.664,-68.359,11.719,-1000.000,0.000
1737556410.418,-490.234,-62.012,27.832,-979.004,0.000
1737556410.421,-545.898,-54.688,32.227,-975.586,0.000
1737556410.425,-583.008,-47.363,32.715,-1000.000,0.000
1737556410.429,-607.910,-52.734,20.020,-1000.000,0.000
1737556410.433,-647.461,-58.594,4.395,-1000.000,0.000
1737556410.437,-672.852,-53.711,9.277,-1000.000,0.000
1737556410.441,-679.199,-43.457,12.695,-1000.000,0.000
1737556410.445,-666.504,-38.574,0.000,-1000.000,0.000
1737556410.449,-648.926,-42.480,-12.207,-1000.000,0.000
1737556410.453,-351.074,-42.480,-29.785,-1000.000,0.000
1737556410.457,-337.891,-37.598,-56.152,-1000.000,0.000
1737556410.461,-311.035,-35.156,-80.566,-1000.000,0.000
1737556410.464,-304.199,-41.504,-96.680,-1000.000,0.000
1737556410.468,-298.340,-43.457,-102.051,-1000.000,0.000
1737556410.472,-282.227,-33.691,-101.562,-1000.000,0.000
1737556410.476,-282.715,-33.203,-96.680,-1000.000,0.000
1737556410.480,-287.598,-41.016,-94.727,-1000.000,0.000
1737556410.484,-284.180,-41.504,-100.098,-1000.000,0.000
1737556410.488,-286.621,-35.645,-97.656,-1000.000,0.000
1737556410.492,-306.641,-36.621,-90.332,-1000.000,0.000
1737556410.496,-330.078,-48.828,-90.820,-1000.000,0.000
1737556410.500,-330.566,-41.992,-84.473,-1000.000,0.000
1737556410.503,-332.031,-35.645,-84.473,-1000.000,0.000
1737556410.507,-339.844,-41.016,-89.355,-1000.000,0.000
1737556410.511,-349.121,-42.480,-86.914,-934.082,0.000
1737556410.515,-350.098,-41.504,-81.055,-1000.000,0.000
1737556410.519,-319.824,-28.809,-70.312,-279.785,0.000
1737556410.523,-289.062,-22.461,-71.777,999.512,0.000
1737556410.527,-296.387,-32.227,-79.102,964.355,0.000
1737556410.531,-299.316,-33.203,-74.219,938.477,0.000
1737556410.535,-282.227,-29.297,-67.383,984.863,0.000
1737556410.539,-250.977,-23.926,-58.594,945.801,0.000
1737556410.542,-237.305,-22.949,-58.105,957.520,0.000
1737556410.546,0.000,-27.344,-57.129,999.512,0.000
1737556410.550,0.000,-31.738,-56.152,-184.570,0.000
1737556410.554,0.000,-33.691,-54.199,-1000.000,0.000
1737556410.558,0.000,-28.320,-42.969,-951.172,0.000
1737556410.562,0.000,-32.227,-44.434,-994.629,0.000
1737556410.566,0.000,-34.668,-41.992,-1000.000,0.000
1737556410.570,0.000,-38.086,-38.086,-1000.000,0.000
1737556410.574,0.000,-38.574,-34.180,-1000.000,0.000
1737556410.578,0.000,-28.320,-21.973,-1000.000,0.000
1737556410.582,0.000,-23.438,-18.066,-1000.000,0.000
1737556410.585,0.000,-28.320,-21.484,-1000.000,0.000
1737556410.589,0.000,-27.344,-20.020,-1000.000,0.000
1737556410.593,-46.387,-21.973,-21.973,-1000.000,0.000
1737556410.597,-33.203,-14.648,-20.508,-1000.000,0.000
1737556410.601,-28.320,-14.648,-16.602,-1000.000,0.000
1737556410.605,-43.457,-20.996,-17.578,-1000.000,0.000
1737556410.609,-61.523,-20.020,-15.625,-1000.000,0.000
1737556410.613,-68.848,-15.137,-16.113,-1000.000,0.000
1737556410.617,-62.500,-9.277,-15.625,-1000.000,0.000
1737556410.621,-69.824,-8.789,-14.160,-1000.000,0.000
1737556410.625,-103.027,-19.043,-18.066,-1000.000,0.000
1737556410.628,-122.070,-26.855,-24.902,-1000.000,0.000
1737556410.632,-124.023,-25.391,-27.344,-1000.000,0.000
1737556410.636,-113.770,-18.066,-21.484,-1000.000,0.000
1737556410.640,-106.934,-14.160,-22.949,-1000.000,0.000
1737556410.644,-116.211,-18.555,-26.367,-1000.000,0.000
1737556410.648,-120.117,-25.391,-31.738,-1000.000,0.000
1737556410.652,-117.188,-27.344,-36.621,-1000.000,0.000
1737556410.656,-108.398,-26.855,-33.203,-1000.000,0.000
1737556410.660,-91.309,-19.043,-27.832,-1000.000,0.000
1737556410.664,-88.867,-19.043,-33.203,-1000.000,0.000
1737556410.668,-79.590,-26.855,-40.527,-1000.000,0.000
1737556410.671,-62.012,-26.855,-41.992,-1000.000,0.000
1737556410.675,-41.016,-27.344,-41.992,-1000.000,0.000
1737556410.679,-12.207,-20.996,-40.039,-1000.000,0.000
1737556410.683,-7.324,-23.926,-47.852,-1000.000,0.000
1737556410.687,-7.812,-32.227,-53.711,-1000.000,0.000
1737556410.691,-9.277,-33.203,-52.734,-1000.000,0.000
1737556410.695,-5.371,-31.738,-51.758,-1000.000,0.000
1737556410.699,9.277,-19.043,-40.039,-1000.000,0.000
1737556410.703,15.137,-18.066,-40.039,-1000.000,0.000
1737556410.707,9.766,-21.484,-47.363,-1000.000,0.000
1737556410.711,8.301,-19.043,-41.992,-1000.000,0.000
1737556410.714,14.160,-18.555,-37.598,-1000.000,0.000
1737556410.718,15.625,-17.090,-37.109,-1000.000,0.000
1737556410.722,14.648,-17.090,-37.109,-1000.000,0.000
1737556410.726,19.531,-14.160,-38.574,-1000.000,0.000
1737556410.730,20.508,-15.625,-41.016,-1000.000,0.000
1737556410.734,0.000,-17.578,0.000,0.000,0.000
1737556410.738,0.000,-11.230,0.000,0.000,0.000
1737556410.742,0.000,-7.812,0.000,0.000,0.000
1737556410.746,0.000,-13.184,0.000,0.000,0.000
1737556410.750,0.000,-20.508,0.000,0.000,0.000
1737556410.753,0.000,-17.578,0.000,0.000,0.000
1737556410.757,0.000,-13.672,0.000,0.000,0.000
1737556410.761,0.000,-21.973,0.000,0.000,0.000
1737556410.765,0.000,-26.367,0.000,0.000,0.000
1737556410.769,0.000,-20.020,0.000,0.000,0.000
1737556410.773,0.000,-19.043,0.000,0.000,0.000
1737556410.777,0.000,-21.484,0.000,0.000,0.000
1737556410.781,-6.836,-17.578,-49.316,-1000.000,0.000
1737556410.785,-19.531,-15.625,-49.316,-1000.000,0.000
1737556410.789,-30.762,-16.602,-49.316,-976.074,0.000
1737556410.793,-43.457,-21.973,-42.480,-976.074,0.000
1737556410.796,-43.457,-21.973,-40.039,-1000.000,0.000
1737556410.800,-21.484,-9.277,-41.016,152.344,0.000
1737556410.804,-25.879,-8.789,-45.410,999.512,0.000
1737556410.808,-67.871,-26.855,-50.293,-373.535,0.000
1737556410.812,-76.660,-27.344,-46.875,-1000.000,0.000
1737556410.816,-54.688,-14.160,-41.504,-1000.000,0.000
1737556410.820,-20.020,-6.836,-37.598,-15.625,0.000
1737556410.824,-12.695,-9.277,-41.992,937.988,0.000
1737556410.828,-55.176,-20.996,-51.758,-549.805,0.000
1737556410.832,-71.289,-24.902,-51.270,-1000.000,0.000
1737556410.836,-53.711,-16.602,-44.922,-934.082,0.000
1737556410.839,-32.227,-12.207,-42.480,-1000.000,0.000
1737556410.843,-31.738,-14.648,-44.922,-1000.000,0.000
1737556410.847,-40.039,-12.695,-46.387,-997.070,0.000
1737556410.851,-43.457,-20.020,-55.664,-943.359,0.000
1737556410.855,-42.480,-26.367,-55.176,-1000.000,0.000
1737556410.859,-8.301,-11.230,-43.457,-157.227,0.000
1737556410.863,3.906,-2.441,-45.410,983.398,0.000
1737556410.867,-29.297,-12.207,-51.758,999.512,0.000
1737556410.871,-57.617,-20.996,-50.781,221.680,0.000
1737556410.875,-79.590,-25.391,-46.387,-1000.000,0.000
1737556410.879,-42.969,-15.625,-44.434,299.316,0.000
1737556410.882,-26.367,-8.301,-41.016,999.512,0.000
1737556410.886,-54.199,-12.695,-39.551,929.199,0.000
1737556410.890,-63.965,-16.602,-47.363,905.273,0.000
1737556410.894,-71.289,-10.742,-46.875,779.785,0.000
1737556410.898,-67.871,-6.836,-33.203,955.566,0.000
1737556410.902,-72.754,-14.160,-26.855,984.375,0.000
1737556410.906,-86.914,-16.602,-27.344,960.449,0.000
1737556410.910,-84.961,-11.719,-22.949,972.656,0.000
1737556410.914,-78.613,-12.207,-23.438,970.703,0.000
1737556410.918,-64.453,-10.742,-24.414,970.703,0.000
1737556410.921,-60.547,-7.812,-20.996,969.727,0.000
1737556410.925,-69.336,-16.602,-28.809,971.680,0.000
1737556410.929,-69.336,-17.578,-32.227,970.215,0.000
1737556410.933,-66.406,-13.672,-28.809,956.055,0.000
1737556410.937,-45.898,-10.254,-25.879,971.680,0.000
1737556410.941,-29.297,-1.465,-18.066,948.730,0.000
1737556410.945,-35.645,-2.930,-26.367,945.801,0.000
1737556410.949,-38.574,-13.672,-41.504,999.512,0.000
1737556410.953,-66.406,-24.902,-47.852,-304.199,0.000
1737556410.957,-61.035,-19.043,-42.969,-505.859,0.000
1737556410.960,-14.160,-6.348,-34.668,940.430,0.000
1737556410.964,-15.137,-5.859,-37.598,999.512,0.000
1737556410.968,-27.832,-7.812,-37.109,464.844,0.000
1737556410.972,-54.199,-15.137,-34.180,-1000.000,0.000
1737556410.976,-39.551,-14.648,-34.668,-500.000,0.000
1737556410.980,5.859,2.441,-30.273,966.309,0.000
1737556410.984,0.000,6.348,-28.809,988.770,0.000
1737556410.988,-17.578,-2.441,-32.227,923.340,0.000
1737556410.992,-26.855,-10.254,-32.715,983.398,0.000
1737556410.996,-29.785,-13.672,-31.250,974.121,0.000
1737556411.000,-28.809,-12.695,-24.902,967.773,0.000
1737556411.003,-37.109,-20.508,-27.344,920.898,0.000
1737556411.007,-34.668,-25.879,-32.715,999.512,0.000
1737556411.011,-46.387,-26.367,-34.180,221.680,0.000
1737556411.015,-58.105,-26.367,-35.645,-666.504,0.000
1737556411.019,-15.625,-20.020,-33.691,620.605,0.000
1737556411.023,-5.371,-19.043,-36.133,999.512,0.000
1737556411.027,-5.859,-17.578,-35.645,999.512,0.000
1737556411.031,41.016,-17.578,-32.227,581.543,0.000
1737556411.035,86.426,-18.066,-28.320,-562.012,0.000
1737556411.039,154.297,-18.066,-30.273,490.723,0.000
1737556411.043,194.336,-22.461,-38.574,999.512,0.000
1737556411.046,202.148,-24.414,-42.480,920.410,0.000
1737556411.050,221.191,-24.902,-42.969,974.609,0.000
1737556411.054,220.215,-26.855,-41.504,269.531,0.000
1737556411.058,245.605,-17.578,-32.715,556.641,0.000
1737556411.062,270.020,-8.301,-30.273,999.512,0.000
1737556411.066,253.906,-17.090,-35.156,931.641,0.000
1737556411.070,249.023,-15.625,-33.203,975.098,0.000
1737556411.074,248.535,-10.742,-33.691,971.680,0.000
1737556411.078,247.559,-18.555,-33.203,971.191,0.000
1737556411.082,245.605,-15.625,-35.645,910.645,0.000
1737556411.086,242.188,-10.742,-46.875,999.512,0.000
1737556411.089,223.145,-17.578,-43.457,271.484,0.000
1737556411.093,192.871,-22.461,-40.039,-1000.000,0.000
1737556411.097,221.680,-14.160,-39.062,-323.242,0.000
1737556411.101,261.230,-5.859,-34.180,992.676,0.000
1737556411.105,250.977,-6.836,-39.551,999.512,0.000
1737556411.109,216.309,-14.648,-46.875,26.855,0.000
1737556411.113,199.219,-20.508,-41.992,-1000.000,0.000
1737556411.117,223.145,-14.648,-38.086,-594.238,0.000
1737556411.121,244.141,-15.137,-41.504,824.707,0.000
1737556411.125,227.051,-22.949,-47.363,996.582,0.000
1737556411.128,185.547,-27.832,-47.852,-312.012,0.000
1737556411.132,175.293,-22.461,-44.434,-1000.000,0.000
1737556411.136,186.523,-19.043,-45.410,-953.125,0.000
1737556411.140,204.102,-13.184,-41.504,242.676,0.000
1737556411.144,206.055,-8.789,-43.457,999.512,0.000
1737556411.148,165.039,-16.602,-51.270,-110.352,0.000
1737556411.152,144.531,-19.531,-55.176,-1000.000,0.000
1737556411.156,142.578,-17.090,-53.223,-1000.000,0.000
1737556411.160,154.297,-11.719,-44.434,-113.770,0.000
1737556411.164,164.551,-4.883,-39.551,999.512,0.000
1737556411.168,119.141,-16.113,-46.387,-49.316,0.000
1737556411.171,91.309,-26.367,-49.805,-1000.000,0.000
1737556411.175,107.910,-17.578,-45.898,-1000.000,0.000
1737556411.179,127.930,-10.742,-43.457,-351.074,0.000
1737556411.183,140.625,-9.277,-41.504,999.512,0.000
