timestamps,TP9,AF7,AF8,TP10,Right AUX
1737550882.798,-21.973,-9.766,-17.090,864.746,0.000
1737550882.802,-41.504,-18.066,-11.719,-292.480,0.000
1737550882.806,-47.363,-25.391,-14.648,-1000.000,0.000
1737550882.810,-2.930,-19.531,-16.113,-125.977,0.000
1737550882.814,41.992,-2.930,-13.184,984.375,0.000
1737550882.817,56.641,0.977,-15.625,999.512,0.000
1737550882.821,18.066,-3.906,-18.066,0.977,0.000
1737550882.825,-7.812,-7.812,-19.531,-1000.000,0.000
1737550882.829,35.156,-12.207,-19.531,-427.246,0.000
1737550882.833,71.289,-14.160,-17.090,819.336,0.000
1737550882.837,62.012,-20.508,-12.207,999.512,0.000
1737550882.841,15.625,-26.855,-11.230,-16.113,0.000
1737550882.845,-12.207,-20.508,-8.789,-1000.000,0.000
1737550882.849,0.488,-11.719,-4.883,-440.430,0.000
1737550882.853,27.832,-8.789,-8.301,766.113,0.000
1737550882.856,37.109,-10.742,-8.301,999.512,0.000
1737550882.860,-8.301,-6.836,-13.184,315.430,0.000
1737550882.864,-46.875,-2.441,-23.438,-1000.000,0.000
1737550882.868,-29.297,-7.812,-26.367,-504.395,0.000
1737550882.872,2.441,-10.254,-18.555,760.254,0.000
1737550882.876,3.906,-9.277,-15.137,999.512,0.000
1737550882.880,-28.320,-20.020,-19.043,341.309,0.000
1737550882.884,-65.918,-23.438,-23.438,-1000.000,0.000
1737550882.888,-43.457,-15.137,-20.020,-599.121,0.000
1737550882.892,-4.395,-12.695,-20.508,691.895,0.000
1737550882.896,-9.277,-13.672,-20.508,999.512,0.000
1737550882.899,-27.832,-11.230,-18.066,522.461,0.000
1737550882.903,-59.082,-11.719,-19.043,-794.434,0.000
1737550882.907,-42.969,-13.184,-17.090,-902.344,0.000
1737550882.911,14.648,-1.465,-15.625,309.570,0.000
1737550882.915,19.531,-4.395,-15.625,999.512,0.000
1737550882.919,-28.320,-17.578,-18.066,537.598,0.000
1737550882.923,-58.594,-20.508,-15.625,-775.879,0.000
1737550882.927,-46.387,-19.043,-13.184,-994.141,0.000
1737550882.931,0.488,-18.555,-14.648,99.121,0.000
1737550882.935,34.180,-12.695,-19.043,999.512,0.000
1737550882.939,20.508,-10.254,-14.648,560.059,0.000
1737550882.942,-18.555,-19.043,-10.254,-743.164,0.000
1737550882.946,-33.691,-21.973,-17.090,-1000.000,0.000
1737550882.950,-1.465,-23.926,-21.484,-166.992,0.000
1737550882.954,38.574,-23.438,-15.625,984.375,0.000
1737550882.958,31.250,-7.812,-17.578,750.488,0.000
1737550882.962,-23.438,-8.789,-23.926,-510.254,0.000
1737550882.966,-36.621,-16.602,-14.648,-1000.000,0.000
1737550882.970,-12.207,-15.625,-18.066,-569.336,0.000
1737550882.974,21.484,-13.672,-27.832,678.711,0.000
1737550882.978,27.832,-9.766,-20.508,898.438,0.000
1737550882.981,-23.438,-20.020,-14.648,-340.820,0.000
1737550882.985,-35.645,-22.949,-18.066,-1000.000,0.000
1737550882.989,-14.160,-12.207,-19.043,-472.168,0.000
1737550882.993,3.906,-10.254,-26.855,751.465,0.000
1737550882.997,7.324,-12.695,-30.762,994.629,0.000
1737550883.001,-37.109,-20.020,-20.508,-168.945,0.000
1737550883.005,-54.688,-19.531,-12.695,-1000.000,0.000
1737550883.009,-20.508,-11.230,-14.160,-603.516,0.000
1737550883.013,15.137,-15.137,-17.090,583.496,0.000
1737550883.017,21.484,-16.602,-16.113,999.512,0.000
1737550883.021,-16.602,-22.461,-18.555,-39.551,0.000
1737550883.024,-47.852,-22.949,-18.555,-1000.000,0.000
1737550883.028,-34.668,-13.672,-19.531,-735.352,0.000
1737550883.032,4.883,-9.766,-22.461,432.129,0.000
1737550883.036,19.531,-10.254,-18.066,999.512,0.000
1737550883.040,-20.996,-15.625,-10.254,93.262,0.000
1737550883.044,-59.082,-22.949,-17.578,-1000.000,0.000
1737550883.048,-36.621,-25.879,-17.578,-690.430,0.000
1737550883.052,4.883,-21.973,-11.230,507.812,0.000
1737550883.056,12.207,-29.785,-16.602,999.512,0.000
1737550883.060,-20.020,-39.062,-16.602,392.578,0.000
1737550883.064,-63.965,-31.250,-21.484,-946.777,0.000
1737550883.067,-67.871,-24.414,-25.879,-848.633,0.000
1737550883.071,-23.438,-21.484,-20.020,343.262,0.000
1737550883.075,10.254,-11.719,-24.902,999.512,0.000
1737550883.079,-11.230,-13.672,-26.367,521.484,0.000
1737550883.083,-56.641,-21.973,-21.484,-811.523,0.000
1737550883.087,-41.992,-23.438,-19.531,-952.637,0.000
1737550883.091,12.695,-20.508,-14.648,226.562,0.000
1737550883.095,47.363,-24.414,-12.207,999.512,0.000
1737550883.099,37.598,-21.973,-9.766,696.777,0.000
1737550883.103,-19.043,-13.184,-17.090,-594.238,0.000
1737550883.106,-34.668,-14.160,-26.367,-1000.000,0.000
1737550883.110,-12.695,-14.648,-21.484,157.227,0.000
1737550883.114,-11.230,-16.602,-12.695,999.512,0.000
1737550883.118,-31.250,-23.438,-18.555,728.516,0.000
1737550883.122,-65.430,-21.973,-27.832,-508.789,0.000
1737550883.126,-71.289,-15.137,-24.902,-1000.000,0.000
1737550883.130,-40.039,-21.484,-15.137,-95.703,0.000
1737550883.134,-9.277,-20.508,-14.160,999.512,0.000
1737550883.138,-8.789,-8.301,-20.020,839.844,0.000
1737550883.142,-41.016,-11.230,-24.414,-341.309,0.000
1737550883.146,-46.387,-18.066,-23.438,-1000.000,0.000
1737550883.149,-17.090,-18.066,-18.066,-442.871,0.000
1737550883.153,11.719,-10.742,-15.137,811.523,0.000
1737550883.157,20.508,-7.812,-7.324,910.645,0.000
1737550883.161,-7.812,-22.461,-7.812,-344.238,0.000
1737550883.165,-27.832,-27.344,-17.090,-1000.000,0.000
1737550883.169,-14.160,-18.066,-23.438,-828.125,0.000
1737550883.173,18.066,-13.184,-18.555,286.133,0.000
1737550883.177,34.180,-11.719,-13.672,999.512,0.000
1737550883.181,-17.090,-9.766,-14.648,-155.273,0.000
1737550883.185,-60.059,-9.766,-16.113,-1000.000,0.000
1737550883.189,-42.480,-10.254,-13.184,-928.223,0.000
1737550883.192,-22.461,-3.418,-6.348,70.801,0.000
1737550883.196,-15.625,-8.789,-14.160,999.512,0.000
1737550883.200,-54.199,-19.531,-17.090,-87.402,0.000
1737550883.204,-87.891,-24.414,-15.137,-1000.000,0.000
1737550883.208,-71.777,-24.902,-22.461,-951.172,0.000
1737550883.212,-29.297,-16.113,-21.484,33.691,0.000
1737550883.216,20.020,-16.602,-21.973,999.512,0.000
1737550883.220,-12.207,-33.691,-23.926,80.078,0.000
1737550883.224,-54.199,-35.645,-13.184,-1000.000,0.000
1737550883.228,-41.016,-18.555,-7.324,-963.379,0.000
1737550883.231,-18.066,-8.301,-9.277,-40.527,0.000
1737550883.235,15.137,-6.836,-5.859,999.512,0.000
1737550883.239,-0.977,-14.648,-2.441,400.879,0.000
1737550883.243,-51.758,-24.902,-10.254,-931.641,0.000
1737550883.247,-59.082,-20.508,-13.184,-1000.000,0.000
1737550883.251,-14.160,-13.184,-19.531,26.855,0.000
1737550883.255,23.926,-14.648,-20.996,999.512,0.000
1737550883.259,-0.488,-23.438,-10.742,490.723,0.000
1737550883.263,-35.645,-22.949,-22.461,-811.035,0.000
1737550883.267,-22.949,-16.602,-21.973,-1000.000,0.000
1737550883.271,14.648,-11.230,-14.648,-137.207,0.000
1737550883.274,35.645,-5.859,-19.043,999.512,0.000
1737550883.278,1.953,-7.324,-16.602,643.066,0.000
1737550883.282,-41.504,-15.625,-14.648,-664.062,0.000
1737550883.286,-35.645,-16.113,-16.113,-1000.000,0.000
1737550883.290,2.930,-10.254,-15.625,-120.117,0.000
1737550883.294,26.855,-12.207,-12.695,999.512,0.000
1737550883.298,19.531,-6.836,-13.184,763.184,0.000
1737550883.302,-18.555,-6.836,-26.367,-467.285,0.000
1737550883.306,-30.273,-10.254,-21.973,-1000.000,0.000
1737550883.310,10.254,-11.230,-6.836,-361.816,0.000
1737550883.313,43.457,-12.695,-7.812,866.211,0.000
1737550883.317,32.227,-13.184,-14.648,956.055,0.000
1737550883.321,-5.371,-16.113,-20.996,-200.195,0.000
1737550883.325,-14.160,-18.555,-27.832,-1000.000,0.000
1737550883.329,24.902,-19.531,-24.414,-349.121,0.000
1737550883.333,59.082,-19.531,-22.949,883.789,0.000
1737550883.337,44.434,-10.742,-24.902,999.512,0.000
1737550883.341,-10.742,-16.113,-28.809,-84.473,0.000
1737550883.345,-44.922,-20.996,-27.832,-1000.000,0.000
1737550883.349,-26.367,-15.625,-17.578,-644.531,0.000
1737550883.353,-3.906,-15.137,-9.766,535.156,0.000
1737550883.356,-6.836,-20.020,-11.719,999.512,0.000
1737550883.360,-41.016,-25.391,-20.996,136.230,0.000
1737550883.364,-59.570,-20.020,-21.973,-1000.000,0.000
1737550883.368,-37.109,-19.531,-18.555,-781.250,0.000
1737550883.372,11.230,-17.090,-12.695,361.328,0.000
1737550883.376,47.852,-9.277,-13.672,999.512,0.000
1737550883.380,26.855,-8.789,-24.902,362.305,0.000
1737550883.384,-11.230,-15.625,-22.461,-970.215,0.000
1737550883.388,-11.230,-23.926,-15.137,-823.730,0.000
1737550883.392,27.344,-26.367,-17.578,352.539,0.000
1737550883.396,26.855,-22.949,-22.949,999.512,0.000
1737550883.399,-18.066,-19.043,-20.996,538.086,0.000
1737550883.403,-46.875,-25.879,-17.090,-814.941,0.000
1737550883.407,-33.203,-22.949,-15.625,-848.145,0.000
1737550883.411,-13.672,-16.602,-12.207,384.766,0.000
1737550883.415,-8.301,-24.414,-12.695,999.512,0.000
1737550883.419,-19.043,-27.832,-18.066,538.086,0.000
1737550883.423,-54.688,-22.949,-22.461,-793.945,0.000
1737550883.427,-41.504,-9.277,-15.625,-938.965,0.000
1737550883.431,15.625,-2.930,-10.742,194.336,0.000
1737550883.435,46.875,-5.859,-15.137,999.512,0.000
1737550883.438,28.809,-9.766,-12.695,586.426,0.000
1737550883.442,-28.809,-16.113,-7.812,-681.641,0.000
1737550883.446,-31.250,-25.391,-2.441,-1000.000,0.000
1737550883.450,2.441,-28.809,-2.930,-285.645,0.000
1737550883.454,21.973,-20.508,-4.883,930.176,0.000
1737550883.458,17.090,-17.090,-4.395,836.914,0.000
1737550883.462,-18.066,-21.484,-12.207,-384.766,0.000
1737550883.466,-16.602,-24.414,-15.625,-1000.000,0.000
1737550883.470,8.789,-20.996,-15.137,-430.176,0.000
1737550883.474,28.320,-24.414,-16.602,841.309,0.000
1737550883.478,22.949,-27.344,-15.137,921.875,0.000
1737550883.481,-9.766,-24.414,-16.113,-305.176,0.000
1737550883.485,-56.641,-28.320,-23.926,-1000.000,0.000
1737550883.489,-32.715,-21.973,-22.949,-424.805,0.000
1737550883.493,14.648,-14.160,-11.230,792.480,0.000
1737550883.497,-10.742,-17.578,-7.324,991.699,0.000
1737550883.501,-61.523,-23.926,-10.742,-152.344,0.000
1737550883.505,-86.426,-29.785,-15.137,-1000.000,0.000
1737550883.509,-61.523,-31.250,-17.578,-727.539,0.000
1737550883.513,-17.090,-22.949,-16.602,514.648,0.000
1737550883.517,-3.418,-15.137,-15.625,999.512,0.000
1737550883.521,-24.414,-14.648,-20.020,-246.582,0.000
1737550883.524,-29.297,-18.555,-18.066,-1000.000,0.000
1737550883.528,4.883,-26.855,-17.578,-1000.000,0.000
1737550883.532,49.316,-25.879,-28.320,-482.422,0.000
1737550883.536,69.336,-13.184,-22.461,533.691,0.000
1737550883.540,15.625,-11.230,-11.230,-271.484,0.000
1737550883.544,-28.809,-12.695,-17.578,-1000.000,0.000
1737550883.548,-25.879,-9.766,-26.367,-1000.000,0.000
1737550883.552,-43.457,-9.277,-23.926,-700.684,0.000
1737550883.556,-52.246,-11.230,-15.625,123.047,0.000
1737550883.560,-97.168,-20.996,-20.020,-424.316,0.000
1737550883.563,-130.859,-25.391,-23.926,-1000.000,0.000
1737550883.567,-110.840,-19.531,-20.996,-1000.000,0.000
1737550883.571,-93.750,-15.625,-26.855,-717.773,0.000
1737550883.575,-62.012,-15.625,-25.879,464.844,0.000
1737550883.579,-62.012,-17.578,-20.020,83.008,0.000
1737550883.583,-79.102,-29.297,-21.973,-1000.000,0.000
1737550883.587,-66.406,-34.668,-22.949,-1000.000,0.000
1737550883.591,-22.461,-23.438,-20.508,-313.965,0.000
1737550883.595,15.625,-10.254,-8.301,972.656,0.000
1737550883.599,-13.672,-10.254,-10.742,509.277,0.000
1737550883.603,-67.383,-17.090,-23.438,-826.660,0.000
1737550883.606,-72.266,-14.648,-24.902,-1000.000,0.000
1737550883.610,-51.270,-15.137,-25.879,-580.566,0.000
1737550883.614,-28.320,-15.137,-27.344,694.824,0.000
1737550883.618,-13.184,-9.277,-24.902,894.531,0.000
1737550883.622,-44.922,-13.672,-20.508,-399.902,0.000
1737550883.626,-70.801,-20.020,-17.578,-1000.000,0.000
1737550883.630,-4.395,-16.602,-13.672,-114.746,0.000
1737550883.634,43.457,-9.277,-11.719,980.957,0.000
1737550883.638,6.836,-8.301,-14.648,999.512,0.000
1737550883.642,-33.203,-21.973,-18.066,-67.871,0.000
1737550883.646,-52.246,-32.715,-28.809,-1000.000,0.000
1737550883.649,3.906,-15.625,-28.809,-94.238,0.000
1737550883.653,46.387,-3.418,-19.043,983.398,0.000
1737550883.657,27.344,-5.859,-18.066,999.512,0.000
1737550883.661,5.371,0.000,-22.949,225.586,0.000
1737550883.665,-35.156,-5.859,-27.344,-1000.000,0.000
1737550883.669,-8.789,-10.254,-23.926,-220.215,0.000
1737550883.673,30.273,-6.348,-18.555,966.797,0.000
1737550883.677,9.277,-8.789,-12.207,999.512,0.000
1737550883.681,-52.734,-15.625,-16.113,306.152,0.000
1737550883.685,-115.723,-18.555,-18.555,-1000.000,0.000
1737550883.688,-101.562,-16.602,-18.066,-419.922,0.000
1737550883.692,-67.871,-16.113,-16.113,829.102,0.000
1737550883.696,-74.219,-12.207,-10.254,999.512,0.000
1737550883.700,-88.867,-15.137,-18.555,374.512,0.000
1737550883.704,-126.465,-23.438,-26.855,-1000.000,0.000
1737550883.708,-93.750,-17.578,-17.090,-460.938,0.000
1737550883.712,-17.578,-11.719,-12.695,829.102,0.000
1737550883.716,6.348,-8.301,-21.973,999.512,0.000
1737550883.720,16.602,-5.371,-20.996,450.684,0.000
1737550883.724,7.812,-13.184,-20.508,-913.086,0.000
1737550883.728,25.391,-15.625,-26.367,-780.762,0.000
1737550883.731,62.012,-13.184,-18.555,467.285,0.000
1737550883.735,88.379,-19.043,-14.160,999.512,0.000
1737550883.739,44.922,-25.391,-21.973,349.121,0.000
1737550883.743,-9.277,-27.832,-23.438,-917.969,0.000
1737550883.747,-35.156,-28.320,-15.625,-1000.000,0.000
1737550883.751,-26.367,-24.414,-11.230,-152.832,0.000
1737550883.755,17.578,-18.555,-8.301,999.512,0.000
1737550883.759,-25.879,-27.344,-10.742,511.230,0.000
1737550883.763,-106.445,-25.879,-18.555,-803.711,0.000
1737550883.767,-111.816,-13.672,-6.836,-1000.000,0.000
1737550883.770,-56.152,-12.207,-4.883,-210.938,0.000
1737550883.774,-15.625,-9.766,-14.160,999.512,0.000
1737550883.778,-33.691,-14.160,-16.602,757.324,0.000
1737550883.782,-81.055,-20.996,-15.137,-520.020,0.000
1737550883.786,-55.176,-18.066,-9.766,-1000.000,0.000
1737550883.790,10.254,-9.277,-9.766,-481.445,0.000
1737550883.794,54.199,-10.742,-2.930,736.328,0.000
1737550883.798,62.500,-12.695,-4.395,796.875,0.000
1737550883.802,27.832,-12.207,-13.184,-479.980,0.000
1737550883.806,15.137,-12.695,-13.184,-1000.000,0.000
1737550883.810,14.160,-20.996,-9.277,-621.094,0.000
1737550883.813,37.109,-20.996,-9.277,618.164,0.000
1737550883.817,53.223,-7.812,-18.066,954.102,0.000
1737550883.821,-6.836,-15.625,-19.043,-285.645,0.000
1737550883.825,-50.293,-19.531,-10.742,-1000.000,0.000
1737550883.829,-21.973,-18.066,-8.301,-381.836,0.000
1737550883.833,12.207,-18.066,-6.836,817.871,0.000
1737550883.837,22.949,-7.324,-15.625,999.512,0.000
1737550883.841,-2.930,-5.371,-24.414,624.023,0.000
1737550883.845,-45.898,-9.766,-18.555,-452.637,0.000
1737550883.849,-50.293,-10.254,-8.301,127.930,0.000
1737550883.853,-62.500,-13.672,-3.418,999.512,0.000
1737550883.856,-88.867,-16.113,-8.789,999.512,0.000
1737550883.860,-105.469,-17.090,-19.043,647.461,0.000
1737550883.864,-146.484,-26.367,-14.160,-803.223,0.000
1737550883.868,-130.859,-19.531,-14.648,-439.453,0.000
1737550883.872,-73.730,-11.230,-20.996,910.156,0.000
1737550883.876,-58.594,-11.230,-7.324,999.512,0.000
1737550883.880,-58.594,-7.324,-3.906,721.680,0.000
1737550883.884,-77.148,-12.695,-12.207,-660.645,0.000
1737550883.888,-49.316,-17.090,-17.578,-468.262,0.000
1737550883.892,9.277,-8.301,-20.508,932.129,0.000
1737550883.895,39.062,-4.883,-20.996,975.098,0.000
1737550883.899,50.781,-8.301,-27.344,974.121,0.000
1737550883.903,17.090,-11.230,-25.391,-26.367,0.000
1737550883.907,0.977,-15.625,-21.973,-307.617,0.000
1737550883.911,26.855,-12.695,-28.320,873.535,0.000
1737550883.915,17.578,-14.648,-27.344,996.582,0.000
1737550883.919,-22.949,-20.020,-26.855,985.840,0.000
1737550883.923,-82.520,-18.555,-23.438,194.824,0.000
1737550883.927,-91.309,-16.113,-11.719,63.477,0.000
1737550883.931,-62.500,-9.277,-7.812,994.141,0.000
1737550883.935,-66.895,-9.766,-6.348,965.332,0.000
1737550883.938,-61.523,-10.742,-10.742,996.094,0.000
1737550883.942,-59.082,-13.672,-16.113,762.695,0.000
1737550883.946,-53.711,-14.160,-14.160,616.211,0.000
1737550883.950,-24.902,-12.695,-18.555,974.609,0.000
1737550883.954,-21.484,-16.113,-15.137,940.430,0.000
1737550883.958,-37.598,-18.555,-9.277,999.512,0.000
1737550883.962,-44.434,-14.160,-10.254,559.570,0.000
1737550883.966,-44.434,-14.648,-13.672,-149.902,0.000
1737550883.970,-8.789,-10.742,-17.090,598.145,0.000
1737550883.974,11.719,-4.883,-13.184,993.164,0.000
1737550883.978,20.020,-0.977,-12.695,999.512,0.000
1737550883.981,-2.930,-7.324,-14.160,249.512,0.000
1737550883.985,-45.898,-15.625,-18.555,-1000.000,0.000
1737550883.989,-25.879,-7.324,-22.461,-423.340,0.000
1737550883.993,-0.488,-8.789,-13.672,907.715,0.000
1737550883.997,-34.668,-18.066,-9.277,937.500,0.000
1737550884.001,-81.055,-17.090,-15.625,-250.000,0.000
1737550884.005,-82.031,-19.043,-24.414,-1000.000,0.000
1737550884.009,-57.617,-20.996,-24.414,-842.285,0.000
1737550884.013,-12.695,-11.230,-20.508,263.672,0.000
1737550884.017,27.832,-8.301,-22.949,999.512,0.000
1737550884.020,10.254,-20.996,-24.902,-94.727,0.000
1737550884.024,-41.504,-26.855,-27.832,-1000.000,0.000
1737550884.028,-62.500,-18.555,-27.832,-976.562,0.000
1737550884.032,-10.742,-5.859,-19.531,-57.129,0.000
1737550884.036,4.883,-9.277,-20.020,999.512,0.000
1737550884.040,-48.828,-21.973,-24.414,79.590,0.000
1737550884.044,-83.984,-28.809,-15.137,-1000.000,0.000
1737550884.048,-72.754,-25.879,-15.137,-1000.000,0.000
1737550884.052,-20.996,-15.137,-20.020,-239.258,0.000
1737550884.056,21.484,-9.766,-14.648,999.512,0.000
1737550884.060,20.996,-12.207,-11.719,414.551,0.000
1737550884.063,3.906,-19.531,-12.695,-956.055,0.000
1737550884.067,9.766,-20.996,-16.602,-986.328,0.000
1737550884.071,62.500,-18.066,-18.555,93.750,0.000
1737550884.075,89.355,-17.578,-18.066,999.512,0.000
1737550884.079,55.664,-15.137,-17.090,528.809,0.000
1737550884.083,28.809,-13.672,-14.648,-738.770,0.000
1737550884.087,10.742,-17.578,-16.113,-1000.000,0.000
1737550884.091,32.227,-19.043,-15.137,-444.336,0.000
1737550884.095,66.406,-12.207,-12.695,880.859,0.000
1737550884.099,24.902,-10.742,-24.902,623.047,0.000
1737550884.102,-43.457,-20.508,-34.180,-745.605,0.000
1737550884.106,-49.316,-19.531,-27.344,-1000.000,0.000
1737550884.110,-18.066,-13.672,-23.438,-102.539,0.000
1737550884.114,-11.230,-20.996,-13.672,993.652,0.000
1737550884.118,-19.531,-16.113,-8.789,962.402,0.000
1737550884.122,-43.945,-6.836,-15.137,-144.531,0.000
1737550884.126,-70.801,-14.648,-13.672,-1000.000,0.000
1737550884.130,-41.992,-17.578,-5.859,-66.406,0.000
1737550884.134,13.184,-7.324,-6.836,999.512,0.000
1737550884.138,10.742,-9.766,-15.137,999.512,0.000
1737550884.142,-40.527,-18.066,-22.461,0.000,0.000
1737550884.145,-72.754,-20.508,-24.414,-1000.000,0.000
1737550884.149,-12.695,-16.113,-18.066,-367.676,0.000
1737550884.153,49.316,-18.555,-20.020,833.008,0.000
1737550884.157,39.062,-20.508,-21.484,999.512,0.000
1737550884.161,4.395,-12.695,-20.508,213.867,0.000
1737550884.165,-30.762,-18.555,-18.555,-1000.000,0.000
1737550884.169,-14.648,-29.297,-16.602,-274.414,0.000
1737550884.173,23.438,-23.926,-20.996,961.426,0.000
1737550884.177,22.461,-13.672,-15.137,999.512,0.000
1737550884.181,-15.137,-11.230,-16.602,676.758,0.000
1737550884.185,-73.730,-24.414,-15.625,-580.078,0.000
1737550884.188,-42.969,-19.531,-20.020,-73.730,0.000
1737550884.192,2.441,-14.648,-27.832,999.512,0.000
1737550884.196,-10.742,-20.996,-25.879,999.512,0.000
1737550884.200,-38.086,-20.508,-24.902,544.434,0.000
1737550884.204,-93.750,-29.297,-25.879,-925.781,0.000
1737550884.208,-76.172,-32.715,-21.973,-426.270,0.000
1737550884.212,-20.508,-26.855,-17.090,933.105,0.000
1737550884.216,-28.809,-23.926,-19.043,999.512,0.000
1737550884.220,-31.738,-28.809,-23.438,837.402,0.000
1737550884.224,-39.062,-27.344,-28.320,-294.922,0.000
1737550884.227,-44.922,-17.578,-24.902,-455.078,0.000
1737550884.231,-13.184,-9.766,-16.602,716.797,0.000
1737550884.235,9.766,-11.719,-20.020,999.512,0.000
1737550884.239,-10.254,-20.996,-23.438,533.203,0.000
1737550884.243,-51.758,-17.578,-18.555,-722.656,0.000
1737550884.247,-59.570,-11.719,-16.602,-1000.000,0.000
1737550884.251,-28.320,-14.648,-19.531,-152.832,0.000
1737550884.255,12.695,-16.113,-16.113,999.512,0.000
1737550884.259,19.043,-10.742,-14.648,754.395,0.000
1737550884.263,-18.555,-13.184,-20.020,-517.090,0.000
1737550884.267,-35.645,-21.973,-18.555,-1000.000,0.000
1737550884.270,2.930,-19.043,-18.066,-26.367,0.000
1737550884.274,25.391,-14.648,-20.996,999.512,0.000
1737550884.278,-1.953,-18.555,-18.066,793.457,0.000
1737550884.282,-37.109,-22.949,-17.578,-406.738,0.000
1737550884.286,-20.508,-27.832,-23.926,-1000.000,0.000
1737550884.290,11.719,-20.996,-28.320,-225.098,0.000
1737550884.294,32.227,-7.812,-16.602,958.984,0.000
1737550884.298,38.574,-10.254,-12.207,919.922,0.000
1737550884.302,10.254,-15.625,-13.184,-229.492,0.000
1737550884.306,-24.902,-25.879,-5.371,-1000.000,0.000
1737550884.310,-5.371,-21.973,-14.160,-560.059,0.000
1737550884.313,36.621,-9.277,-20.996,659.180,0.000
1737550884.317,0.000,-13.184,-13.184,999.512,0.000
1737550884.321,-70.801,-15.625,-11.230,-57.129,0.000
1737550884.325,-109.863,-20.020,-15.137,-1000.000,0.000
1737550884.329,-99.121,-26.367,-15.137,-863.281,0.000
1737550884.333,-53.711,-24.902,-15.625,258.789,0.000
1737550884.337,-49.316,-22.949,-18.066,999.512,0.000
1737550884.341,-109.375,-23.438,-20.508,-184.570,0.000
1737550884.345,-138.672,-26.367,-19.043,-1000.000,0.000
1737550884.349,-104.004,-28.320,-21.484,-982.910,0.000
1737550884.352,-37.598,-17.090,-21.484,-101.074,0.000
1737550884.356,20.996,4.883,-18.555,999.512,0.000
1737550884.360,29.785,2.441,-17.578,15.625,0.000
1737550884.364,-20.020,-14.648,-18.555,-1000.000,0.000
1737550884.368,-45.898,-20.996,-20.508,-1000.000,0.000
1737550884.372,-5.859,-16.113,-22.461,-532.227,0.000
1737550884.376,29.785,-5.371,-23.438,828.613,0.000
1737550884.380,-16.602,-6.836,-19.043,194.824,0.000
1737550884.384,-81.055,-18.555,-19.043,-1000.000,0.000
1737550884.388,-106.934,-20.020,-17.578,-1000.000,0.000
1737550884.392,-67.383,-15.137,-12.695,-41.504,0.000
1737550884.395,-41.992,-12.207,-8.789,999.512,0.000
1737550884.399,-54.199,-15.625,-6.836,597.656,0.000
1737550884.403,-37.598,-14.648,-18.555,-731.445,0.000
1737550884.407,-25.879,-17.090,-28.320,-1000.000,0.000
1737550884.411,30.273,-13.184,-16.113,78.125,0.000
1737550884.415,110.840,-0.977,-10.254,999.512,0.000
1737550884.419,98.145,-9.277,-14.160,460.938,0.000
1737550884.423,32.227,-17.578,-14.648,-816.895,0.000
1737550884.427,-2.441,-16.113,-15.137,-1000.000,0.000
1737550884.431,-14.160,-16.602,-19.531,-569.824,0.000
1737550884.434,-15.137,-10.742,-19.043,715.820,0.000
1737550884.438,-31.738,-9.766,-15.137,779.785,0.000
1737550884.442,-87.891,-15.137,-14.160,-573.730,0.000
1737550884.446,-90.332,-15.137,-9.766,-1000.000,0.000
1737550884.450,-28.809,-18.066,-8.789,-77.637,0.000
1737550884.454,16.602,-20.996,-14.160,968.750,0.000
1737550884.458,46.387,-3.906,-17.578,999.512,0.000
1737550884.462,20.996,-0.488,-22.461,5.371,0.000
1737550884.466,-20.996,-11.230,-20.508,-1000.000,0.000
1737550884.470,27.832,-4.883,-10.254,-70.312,0.000
1737550884.474,53.223,-3.906,-5.371,999.512,0.000
1737550884.477,23.438,-3.906,-9.277,980.469,0.000
1737550884.481,-17.090,-6.348,-13.672,-85.938,0.000
1737550884.485,-55.176,-13.672,-15.625,-1000.000,0.000
1737550884.489,-45.410,-13.672,-15.625,-686.035,0.000
1737550884.493,-5.859,-9.766,-15.625,503.906,0.000
1737550884.497,4.883,-7.324,-11.230,999.512,0.000
1737550884.501,-44.434,-15.137,-10.254,-147.949,0.000
1737550884.505,-90.332,-22.949,-18.066,-1000.000,0.000
1737550884.509,-58.594,-24.414,-20.996,-737.793,0.000
1737550884.513,5.859,-21.973,-17.090,385.742,0.000
1737550884.517,23.438,-21.973,-13.184,999.512,0.000
1737550884.520,-11.719,-21.973,-22.461,274.902,0.000
1737550884.524,-33.203,-22.949,-23.926,-1000.000,0.000
1737550884.528,-15.625,-20.996,-14.648,-748.535,0.000
1737550884.532,34.668,-13.672,-17.090,482.422,0.000
1737550884.536,37.598,-20.996,-22.461,999.512,0.000
1737550884.540,-39.551,-31.250,-28.320,24.414,0.000
1737550884.544,-90.820,-26.855,-26.855,-1000.000,0.000
1737550884.548,-93.750,-20.996,-25.879,-1000.000,0.000
1737550884.552,-66.895,-20.996,-22.461,-196.777,0.000
1737550884.556,-12.207,-21.484,-12.207,999.512,0.000
1737550884.559,-35.156,-23.926,-13.184,273.438,0.000
1737550884.563,-84.961,-30.273,-18.066,-997.070,0.000
1737550884.567,-72.754,-27.344,-20.508,-1000.000,0.000
1737550884.571,-48.828,-30.762,-19.531,-656.250,0.000
1737550884.575,-32.227,-27.344,-20.508,694.824,0.000
1737550884.579,-64.941,-11.719,-22.461,348.145,0.000
1737550884.583,-105.957,-13.672,-25.879,-989.746,0.000
1737550884.587,-108.398,-14.648,-24.414,-1000.000,0.000
1737550884.591,-83.008,-13.672,-20.996,-605.957,0.000
1737550884.595,-36.621,-14.648,-22.461,686.523,0.000
1737550884.599,-24.902,-12.695,-23.438,729.492,0.000
1737550884.602,-49.316,-12.695,-25.391,-621.582,0.000
1737550884.606,-44.922,-19.043,-26.367,-1000.000,0.000
1737550884.610,-20.996,-25.391,-23.438,-785.156,0.000
1737550884.614,13.672,-19.531,-17.578,473.145,0.000
1737550884.618,13.672,-14.160,-15.625,747.070,0.000
1737550884.622,-41.504,-28.320,-20.020,-634.766,0.000
1737550884.626,-34.668,-38.574,-19.531,-1000.000,0.000
1737550884.630,-18.555,-21.484,-24.902,-856.445,0.000
1737550884.634,-10.742,-6.348,-29.297,217.773,0.000
1737550884.638,25.879,-7.812,-17.090,998.535,0.000
1737550884.642,10.742,-14.648,-13.672,-197.266,0.000
1737550884.645,-17.090,-15.137,-19.043,-1000.000,0.000
1737550884.649,3.418,-12.695,-21.973,-697.754,0.000
1737550884.653,54.199,-20.508,-19.531,486.328,0.000
1737550884.657,75.195,-20.020,-10.254,999.512,0.000
1737550884.661,12.207,-20.020,-13.184,-140.625,0.000
1737550884.665,-50.293,-23.926,-15.625,-1000.000,0.000
1737550884.669,-51.270,-20.020,-15.625,-822.754,0.000
1737550884.673,-52.734,-19.043,-16.602,259.277,0.000
1737550884.677,-56.152,-19.531,-13.672,999.512,0.000
1737550884.681,-87.402,-30.762,-16.602,158.691,0.000
1737550884.684,-104.004,-29.785,-18.066,-1000.000,0.000
1737550884.688,-76.172,-12.695,-16.602,-752.930,0.000
1737550884.692,-45.898,-9.766,-17.090,420.898,0.000
1737550884.696,-12.207,-17.090,-17.090,999.512,0.000
1737550884.700,-36.133,-20.020,-13.672,345.703,0.000
1737550884.704,-71.289,-20.020,-10.742,-972.168,0.000
1737550884.708,-42.969,-20.508,-11.230,-862.305,0.000
1737550884.712,1.465,-17.578,-11.719,285.645,0.000
1737550884.716,26.367,-15.625,-13.184,999.512,0.000
1737550884.720,2.930,-21.973,-14.648,465.332,0.000
1737550884.724,-52.246,-29.785,-19.531,-868.652,0.000
1737550884.727,-43.945,-29.297,-22.949,-954.102,0.000
1737550884.731,28.809,-22.461,-21.484,223.145,0.000
1737550884.735,58.105,-22.949,-14.648,999.512,0.000
1737550884.739,19.043,-16.113,-12.207,760.742,0.000
1737550884.743,-43.945,-11.230,-15.137,-484.375,0.000
1737550884.747,-72.754,-18.066,-20.996,-1000.000,0.000
1737550884.751,-34.668,-11.719,-19.531,244.629,0.000
1737550884.755,-1.465,-3.418,-15.137,999.512,0.000
1737550884.759,-18.555,-5.859,-13.184,999.512,0.000
1737550884.763,-59.570,-13.184,-14.160,-64.941,0.000
1737550884.767,-55.176,-11.230,-10.742,-894.531,0.000
1737550884.770,16.113,-4.883,-8.789,434.570,0.000
1737550884.774,48.340,-11.719,-7.324,999.512,0.000
1737550884.778,46.387,-11.230,-6.348,999.512,0.000
1737550884.782,26.367,-5.859,-7.812,172.852,0.000
1737550884.786,-19.043,-9.766,-8.789,-1000.000,0.000
1737550884.790,13.184,-8.301,-15.137,82.520,0.000
1737550884.794,80.078,-8.301,-17.578,999.512,0.000
1737550884.798,68.848,-9.277,-11.719,999.512,0.000
1737550884.802,20.508,-7.812,-9.277,382.812,0.000
1737550884.806,-23.926,-11.719,-14.648,-946.777,0.000
1737550884.809,-10.254,-12.695,-18.066,-51.758,0.000
1737550884.813,10.254,-10.254,-20.996,999.512,0.000
1737550884.817,-13.672,-9.277,-27.832,999.512,0.000
1737550884.821,-45.898,-18.066,-30.273,407.715,0.000
1737550884.825,-78.125,-23.926,-18.066,-1000.000,0.000
1737550884.829,-55.664,-19.531,-6.836,-235.840,0.000
1737550884.833,3.906,-14.648,-6.348,986.328,0.000
1737550884.837,16.602,-13.184,-12.207,999.512,0.000
1737550884.841,-3.418,-26.855,-14.160,443.359,0.000
1737550884.845,-16.602,-34.180,-20.508,-966.797,0.000
1737550884.849,-15.137,-20.996,-23.926,-514.160,0.000
1737550884.852,-6.836,-11.719,-14.160,801.270,0.000
1737550884.856,-9.277,-10.742,-8.301,999.512,0.000
1737550884.860,-46.387,-12.695,-13.672,481.934,0.000
1737550884.864,-98.633,-19.043,-24.414,-887.207,0.000
1737550884.868,-98.633,-19.531,-32.227,-726.074,0.000
1737550884.872,-74.219,-13.184,-20.996,548.340,0.000
1737550884.876,-66.406,-10.254,-8.789,999.512,0.000
1737550884.880,-84.473,-11.719,-10.254,592.773,0.000
1737550884.884,-117.188,-21.973,-10.742,-742.188,0.000
1737550884.888,-68.359,-24.414,-9.766,-871.094,0.000
1737550884.891,-7.812,-10.254,-19.043,371.094,0.000
1737550884.895,-16.113,-5.371,-22.949,999.512,0.000
1737550884.899,-64.453,-18.066,-20.020,345.215,0.000
1737550884.903,-104.004,-27.832,-23.438,-914.551,0.000
1737550884.907,-143.066,-24.414,-26.367,-1000.000,0.000
1737550884.911,-111.328,-20.020,-19.531,-211.914,0.000
1737550884.915,-18.066,-13.184,-12.207,982.910,0.000
1737550884.919,-3.418,-9.277,-14.648,821.777,0.000
1737550884.923,-9.277,-13.184,-19.043,-462.402,0.000
1737550884.927,24.414,-12.207,-20.996,-1000.000,0.000
1737550884.931,98.145,-6.348,-11.719,148.438,0.000
1737550884.934,142.578,-13.184,-6.836,999.512,0.000
1737550884.938,150.879,-18.066,-12.695,813.965,0.000
1737550884.942,101.562,-13.672,-13.184,-347.168,0.000
1737550884.946,31.738,-12.207,-19.043,-1000.000,0.000
1737550884.950,18.555,-4.883,-19.531,-342.285,0.000
1737550884.954,30.762,-6.836,-15.137,857.910,0.000
1737550884.958,6.836,-10.742,-14.160,967.773,0.000
1737550884.962,-71.777,-8.301,-14.648,-196.289,0.000
1737550884.966,-116.699,-11.230,-20.508,-1000.000,0.000
1737550884.970,-109.863,-12.207,-23.926,-513.184,0.000
1737550884.974,-89.355,-10.254,-18.555,687.012,0.000
1737550884.977,-88.867,-10.254,-19.043,999.512,0.000
1737550884.981,-128.418,-25.879,-22.949,-45.898,0.000
1737550884.985,-146.484,-29.297,-21.484,-1000.000,0.000
1737550884.989,-103.027,-14.648,-20.508,-517.578,0.000
1737550884.993,-54.688,-19.531,-15.137,709.961,0.000
1737550884.997,-26.855,-25.391,-13.672,999.512,0.000
1737550885.001,-39.062,-19.531,-15.137,108.887,0.000
1737550885.005,-49.316,-18.555,-19.043,-1000.000,0.000
1737550885.009,-4.395,-19.043,-27.344,-773.438,0.000
1737550885.013,45.898,-15.137,-34.180,375.488,0.000
1737550885.016,59.082,-14.160,-23.438,999.512,0.000
1737550885.020,21.484,-13.672,-18.555,245.605,0.000
1737550885.024,-19.043,-23.926,-28.809,-1000.000,0.000
1737550885.028,-27.832,-27.344,-33.203,-907.715,0.000
1737550885.032,-8.789,-17.090,-24.414,183.105,0.000
1737550885.036,-8.789,-17.578,-19.043,999.512,0.000
1737550885.040,-58.105,-22.949,-20.020,257.812,0.000
1737550885.044,-105.469,-24.902,-23.438,-990.723,0.000
1737550885.048,-88.379,-22.461,-27.344,-1000.000,0.000
1737550885.052,-50.781,-20.996,-26.855,-201.660,0.000
1737550885.056,-18.555,-14.648,-24.414,999.512,0.000
1737550885.059,-31.250,-15.625,-20.508,505.859,0.000
1737550885.063,-73.730,-27.344,-25.391,-893.066,0.000
1737550885.067,-79.102,-18.066,-22.461,-967.285,0.000
1737550885.071,-31.738,-17.578,-19.531,169.434,0.000
1737550885.075,13.672,-25.391,-27.832,999.512,0.000
1737550885.079,-23.926,-18.066,-30.273,601.562,0.000
1737550885.083,-78.613,-16.113,-29.785,-630.371,0.000
1737550885.087,-73.730,-20.996,-30.762,-1000.000,0.000
1737550885.091,-35.645,-23.926,-24.902,-380.859,0.000
1737550885.095,0.977,-16.113,-18.066,874.023,0.000
1737550885.099,-2.441,-11.230,-18.066,900.391,0.000
1737550885.102,-44.922,-18.066,-20.996,-300.781,0.000
1737550885.106,-68.848,-26.855,-24.902,-1000.000,0.000
1737550885.110,-26.367,-28.320,-29.785,-497.070,0.000
1737550885.114,26.367,-20.996,-23.926,750.000,0.000
1737550885.118,22.461,-14.648,-15.625,999.512,0.000
1737550885.122,-31.738,-15.137,-20.508,-158.691,0.000
1737550885.126,-61.523,-21.484,-20.508,-1000.000,0.000
1737550885.130,-27.832,-20.020,-15.137,-258.789,0.000
1737550885.134,2.930,-12.695,-14.648,928.711,0.000
1737550885.138,-4.883,-11.230,-16.602,999.512,0.000
1737550885.141,-45.898,-21.484,-25.879,41.992,0.000
1737550885.145,-65.430,-31.738,-27.344,-1000.000,0.000
1737550885.149,-38.086,-27.832,-20.508,-538.574,0.000
1737550885.153,-8.301,-16.113,-13.184,683.594,0.000
1737550885.157,6.348,-11.719,-7.324,999.512,0.000
1737550885.161,-26.855,-13.672,-11.230,202.637,0.000
1737550885.165,-67.383,-10.254,-20.508,-1000.000,0.000
1737550885.169,-46.387,-4.883,-24.414,-649.902,0.000
1737550885.173,-11.719,-5.859,-20.508,545.898,0.000
1737550885.177,-10.742,-10.254,-19.043,999.512,0.000
1737550885.181,-46.875,-14.648,-26.855,221.680,0.000
1737550885.184,-80.566,-19.043,-25.879,-1000.000,0.000
1737550885.188,-62.500,-13.672,-16.113,-780.762,0.000
1737550885.192,-20.996,-5.859,-14.648,388.184,0.000
1737550885.196,-5.859,-17.090,-13.672,999.512,0.000
1737550885.200,-29.297,-20.996,-16.113,469.238,0.000
1737550885.204,-67.383,-13.184,-22.461,-887.207,0.000
1737550885.208,-59.570,-14.648,-21.484,-875.000,0.000
1737550885.212,-19.043,-17.090,-27.344,342.285,0.000
1737550885.216,-12.207,-21.484,-36.133,999.512,0.000
1737550885.220,-26.367,-21.484,-30.762,675.781,0.000
1737550885.224,-49.805,-17.578,-26.367,-619.629,0.000
1737550885.227,-53.223,-15.625,-24.902,-943.848,0.000
1737550885.231,-8.789,-15.137,-20.996,306.152,0.000
1737550885.235,18.066,-13.672,-24.902,999.512,0.000
1737550885.239,11.719,-23.438,-23.926,854.004,0.000
1737550885.243,-25.879,-23.438,-20.020,-321.777,0.000
1737550885.247,-49.805,-13.672,-26.855,-1000.000,0.000
1737550885.251,-4.883,-13.672,-22.949,190.918,0.000
1737550885.255,27.344,-16.113,-17.090,999.512,0.000
1737550885.259,11.719,-12.695,-18.066,972.168,0.000
1737550885.263,-30.273,-17.090,-24.902,-65.430,0.000
1737550885.266,-45.410,-21.973,-33.203,-1000.000,0.000
1737550885.270,2.930,-12.695,-27.832,25.391,0.000
1737550885.274,14.648,-14.648,-20.020,999.512,0.000
1737550885.278,-25.879,-20.996,-19.531,968.262,0.000
1737550885.282,-78.613,-17.090,-25.391,-90.820,0.000
1737550885.286,-111.328,-15.137,-24.414,-1000.000,0.000
1737550885.290,-78.125,-20.020,-15.137,-102.539,0.000
1737550885.294,-30.273,-27.344,-14.160,969.238,0.000
1737550885.298,-37.598,-21.973,-14.160,999.512,0.000
1737550885.302,-76.660,-11.719,-11.719,255.371,0.000
1737550885.306,-100.098,-15.137,-16.113,-1000.000,0.000
1737550885.309,-65.918,-18.555,-23.438,-332.031,0.000
1737550885.313,-15.137,-9.277,-18.555,893.066,0.000
1737550885.317,9.277,-8.301,-16.602,999.512,0.000
1737550885.321,-17.578,-18.066,-22.949,215.332,0.000
1737550885.325,-57.129,-22.461,-19.043,-1000.000,0.000
1737550885.329,-31.250,-16.113,-17.090,-481.445,0.000
1737550885.333,14.160,-7.812,-23.926,771.973,0.000
1737550885.337,16.113,-12.207,-25.879,999.512,0.000
1737550885.341,-20.020,-20.508,-15.625,387.695,0.000
1737550885.345,-61.035,-18.066,-16.113,-1000.000,0.000
1737550885.348,-41.016,-16.113,-19.043,-528.320,0.000
1737550885.352,8.301,-16.113,-16.602,784.180,0.000
1737550885.356,8.301,-7.812,-14.648,999.512,0.000
1737550885.360,-29.297,-7.324,-8.789,530.273,0.000
1737550885.364,-71.289,-14.648,-9.766,-784.668,0.000
1737550885.368,-66.406,-16.602,-21.973,-880.371,0.000
1737550885.372,-24.902,-17.090,-20.996,336.914,0.000
1737550885.376,-5.371,-16.113,-9.277,999.512,0.000
1737550885.380,-26.855,-17.578,-7.812,553.711,0.000
1737550885.384,-68.848,-20.508,-20.508,-792.480,0.000
1737550885.388,-65.430,-25.879,-26.855,-901.855,0.000
1737550885.391,-9.766,-27.832,-11.719,335.449,0.000
1737550885.395,5.371,-13.184,-5.371,999.512,0.000
1737550885.399,-19.043,-6.836,-7.812,663.086,0.000
1737550885.403,-54.199,-18.066,-12.207,-567.871,0.000
1737550885.407,-64.941,-25.391,-18.555,-1000.000,0.000
1737550885.411,-15.625,-24.902,-16.113,-124.512,0.000
1737550885.415,25.391,-17.578,-13.184,999.512,0.000
1737550885.419,7.324,-13.672,-15.625,684.570,0.000
1737550885.423,-31.738,-18.066,-19.531,-588.867,0.000
1737550885.427,-45.898,-19.531,-28.809,-1000.000,0.000
1737550885.431,-32.715,-24.414,-27.344,-259.277,0.000
1737550885.434,-4.883,-17.578,-15.137,930.176,0.000
1737550885.438,0.000,-6.836,-13.672,871.094,0.000
1737550885.442,-24.414,-13.672,-21.973,-327.148,0.000
1737550885.446,-43.457,-20.508,-20.996,-1000.000,0.000
1737550885.450,-38.086,-18.066,-17.090,-404.297,0.000
1737550885.454,-11.719,-10.254,-20.020,806.641,0.000
1737550885.458,-8.789,-7.324,-20.508,951.660,0.000
1737550885.462,-41.992,-15.137,-17.090,-237.793,0.000
1737550885.466,-65.430,-23.438,-22.461,-1000.000,0.000
1737550885.470,-47.363,-31.250,-24.902,-709.473,0.000
1737550885.473,-18.555,-20.996,-21.973,453.613,0.000
1737550885.477,-10.742,-17.090,-19.531,999.512,0.000
1737550885.481,-42.969,-27.344,-17.090,-56.152,0.000
1737550885.485,-62.500,-27.832,-18.066,-1000.000,0.000
1737550885.489,-39.551,-22.461,-11.719,-757.324,0.000
1737550885.493,0.488,-17.578,-7.324,403.320,0.000
1737550885.497,18.555,-19.043,-14.160,999.512,0.000
1737550885.501,-26.367,-22.949,-19.043,46.387,0.000
1737550885.505,-70.312,-23.438,-26.855,-1000.000,0.000
1737550885.509,-58.594,-20.020,-26.855,-897.461,0.000
1737550885.513,-20.996,-15.625,-13.672,170.898,0.000
1737550885.516,-10.254,-13.184,-13.672,999.512,0.000
1737550885.520,-47.363,-17.578,-19.531,180.664,0.000
1737550885.524,-70.312,-20.508,-22.949,-1000.000,0.000
1737550885.528,-69.336,-23.926,-24.902,-911.621,0.000
1737550885.532,-43.945,-27.832,-27.344,158.203,0.000
1737550885.536,-26.367,-20.508,-24.902,999.512,0.000
1737550885.540,-43.945,-13.672,-14.160,499.512,0.000
1737550885.544,-72.266,-22.461,-13.184,-813.965,0.000
1737550885.548,-79.102,-30.273,-21.484,-1000.000,0.000
1737550885.552,-41.504,-32.715,-24.902,23.926,0.000
1737550885.556,-5.371,-27.832,-20.020,999.512,0.000
1737550885.559,-18.555,-20.996,-17.578,501.465,0.000
1737550885.563,-47.363,-25.391,-24.902,-708.984,0.000
1737550885.567,-64.941,-28.809,-27.832,-1000.000,0.000
1737550885.571,-40.527,-30.273,-23.926,-323.242,0.000
1737550885.575,1.953,-28.809,-22.949,945.312,0.000
1737550885.579,-10.254,-20.508,-16.602,748.047,0.000
1737550885.583,-46.387,-20.996,-15.625,-526.855,0.000
1737550885.587,-49.316,-23.438,-20.996,-1000.000,0.000
1737550885.591,-28.320,-25.391,-23.438,-317.383,0.000
1737550885.595,1.465,-27.832,-19.531,885.254,0.000
1737550885.598,12.207,-22.949,-15.137,879.883,0.000
1737550885.602,-29.785,-23.438,-15.625,-336.426,0.000
1737550885.606,-61.035,-30.273,-31.250,-1000.000,0.000
1737550885.610,-33.203,-25.391,-34.668,-552.734,0.000
1737550885.614,9.766,-13.672,-24.902,630.371,0.000
1737550885.618,24.902,-15.137,-21.973,977.051,0.000
1737550885.622,-11.719,-18.555,-18.066,-187.988,0.000
1737550885.626,-32.227,-15.137,-20.020,-1000.000,0.000
1737550885.630,-17.090,-13.184,-21.973,-629.395,0.000
1737550885.634,-0.488,-15.625,-18.555,586.914,0.000
1737550885.638,5.859,-14.160,-14.160,999.512,0.000
1737550885.641,-36.621,-16.602,-14.648,-122.070,0.000
1737550885.645,-59.570,-18.066,-15.625,-1000.000,0.000
1737550885.649,-31.738,-22.949,-14.648,-735.840,0.000
1737550885.653,-3.418,-30.762,-15.625,415.527,0.000
1737550885.657,8.789,-21.484,-19.043,999.512,0.000
1737550885.661,-27.344,-18.555,-20.996,94.238,0.000
1737550885.665,-66.895,-19.531,-17.578,-1000.000,0.000
1737550885.669,-41.504,-17.578,-20.508,-672.363,0.000
1737550885.673,-1.953,-13.672,-23.926,505.371,0.000
1737550885.677,20.020,-8.301,-12.695,999.512,0.000
1737550885.681,2.441,-9.766,-6.348,438.477,0.000
1737550885.684,-49.805,-16.113,-12.695,-903.809,0.000
1737550885.688,-58.105,-21.484,-23.926,-843.750,0.000
1737550885.692,-8.789,-28.809,-26.367,360.352,0.000
1737550885.696,17.090,-25.879,-20.996,999.512,0.000
1737550885.700,-11.230,-19.043,-18.555,534.180,0.000
1737550885.704,-56.152,-22.461,-23.926,-803.223,0.000
1737550885.708,-49.316,-18.066,-28.809,-906.738,0.000
1737550885.712,-4.395,-14.648,-32.227,300.781,0.000
1737550885.716,12.207,-12.695,-20.020,999.512,0.000
1737550885.720,-10.254,-13.672,-11.719,663.086,0.000
1737550885.723,-55.664,-19.531,-11.719,-631.348,0.000
1737550885.727,-67.383,-32.227,-13.672,-966.309,0.000
1737550885.731,-27.344,-23.438,-14.160,253.418,0.000
1737550885.735,1.465,-4.395,-13.184,999.512,0.000
1737550885.739,-7.812,-10.742,-20.020,731.445,0.000
1737550885.743,-48.340,-18.066,-19.043,-482.422,0.000
1737550885.747,-75.195,-20.996,-13.672,-1000.000,0.000
1737550885.751,-27.832,-21.484,-17.578,-6.836,0.000
1737550885.755,13.184,-17.090,-22.461,999.512,0.000
1737550885.759,0.000,-14.648,-21.973,895.996,0.000
1737550885.763,-51.758,-18.555,-19.531,-256.348,0.000
1737550885.766,-76.172,-20.020,-13.672,-1000.000,0.000
1737550885.770,-24.902,-20.508,-7.324,-41.992,0.000
1737550885.774,19.531,-8.789,-5.859,999.512,0.000
1737550885.778,9.277,-4.883,-14.648,947.754,0.000
1737550885.782,-34.180,-16.113,-22.461,-139.648,0.000
1737550885.786,-52.734,-18.555,-18.555,-1000.000,0.000
1737550885.790,-18.066,-13.672,-15.625,-309.082,0.000
1737550885.794,5.371,-18.066,-23.926,898.926,0.000
1737550885.798,6.836,-17.578,-25.391,999.512,0.000
1737550885.802,-23.438,-16.602,-22.461,-37.109,0.000
1737550885.805,-63.477,-27.344,-23.926,-1000.000,0.000
1737550885.809,-53.711,-25.391,-29.297,-779.785,0.000
1737550885.813,-18.555,-20.508,-30.762,321.777,0.000
1737550885.817,4.395,-16.602,-19.531,999.512,0.000
1737550885.821,-20.996,-15.625,-20.996,171.875,0.000
1737550885.825,-56.641,-23.438,-29.297,-1000.000,0.000
1737550885.829,-43.945,-18.066,-24.902,-788.574,0.000
1737550885.833,0.977,-9.277,-20.020,365.723,0.000
1737550885.837,15.137,-12.207,-21.973,999.512,0.000
1737550885.841,-4.395,-13.184,-15.625,459.961,0.000
1737550885.845,-40.527,-22.949,-16.602,-897.461,0.000
1737550885.848,-42.969,-22.461,-19.043,-817.871,0.000
1737550885.852,5.371,-12.695,-9.766,399.414,0.000
1737550885.856,30.273,-12.207,-7.324,999.512,0.000
1737550885.860,6.348,-12.207,-8.789,463.867,0.000
1737550885.864,-29.297,-16.602,-10.742,-882.324,0.000
1737550885.868,-6.348,-18.066,-16.602,-893.066,0.000
1737550885.872,41.992,-13.672,-20.996,298.828,0.000
1737550885.876,56.152,-13.672,-29.785,999.512,0.000
1737550885.880,41.992,-15.625,-27.344,513.184,0.000
1737550885.884,-1.953,-26.855,-14.648,-791.016,0.000
1737550885.888,-21.484,-29.785,-17.090,-1000.000,0.000
1737550885.891,15.137,-8.301,-14.648,80.566,0.000
1737550885.895,35.156,-1.465,-15.625,999.512,0.000
1737550885.899,-6.836,-13.184,-26.367,641.602,0.000
1737550885.903,-52.246,-17.090,-22.461,-630.859,0.000
1737550885.907,-61.035,-12.695,-16.602,-1000.000,0.000
1737550885.911,-20.020,-8.301,-19.043,-138.184,0.000
1737550885.915,10.254,-9.766,-22.949,999.512,0.000
1737550885.919,-16.602,-17.090,-22.461,734.863,0.000
1737550885.923,-48.340,-21.484,-13.672,-519.531,0.000
1737550885.927,-54.688,-32.227,-11.719,-1000.000,0.000
1737550885.930,-18.555,-29.297,-10.742,-102.539,0.000
1737550885.934,13.672,-11.719,-11.230,999.512,0.000
1737550885.938,3.906,-6.348,-13.672,932.617,0.000
1737550885.942,-28.809,-8.301,-18.066,-177.246,0.000
1737550885.946,-43.457,-16.113,-20.508,-1000.000,0.000
1737550885.950,-11.230,-18.555,-20.996,-625.000,0.000
1737550885.954,26.855,-11.230,-23.926,623.047,0.000
1737550885.958,29.785,-8.301,-22.949,999.512,0.000
1737550885.962,-17.090,-15.625,-28.809,-132.324,0.000
1737550885.966,-39.551,-24.902,-28.809,-1000.000,0.000
1737550885.970,-27.344,-25.391,-21.973,-773.926,0.000
1737550885.973,2.441,-20.508,-15.625,375.000,0.000
1737550885.977,22.461,-14.160,-11.719,999.512,0.000
1737550885.981,-31.250,-16.113,-10.742,49.316,0.000
1737550885.985,-87.891,-29.785,-13.184,-1000.000,0.000
1737550885.989,-83.008,-26.855,-20.508,-735.840,0.000
1737550885.993,-39.551,-21.973,-19.043,407.227,0.000
1737550885.997,-9.277,-18.555,-8.301,999.512,0.000
1737550886.001,-19.531,-18.555,-3.418,275.879,0.000
1737550886.005,-50.293,-31.738,-2.930,-1000.000,0.000
1737550886.009,-44.922,-38.574,-2.930,-775.391,0.000
1737550886.013,-5.371,-30.762,-4.395,385.254,0.000
1737550886.016,9.766,-16.602,-10.742,999.512,0.000
1737550886.020,-16.602,-16.602,-16.602,389.648,0.000
1737550886.024,-49.805,-22.949,-15.137,-905.273,0.000
1737550886.028,-38.086,-17.578,-18.066,-993.164,0.000
1737550886.032,-0.488,-16.113,-23.438,61.523,0.000
1737550886.036,29.785,-19.043,-20.508,999.512,0.000
1737550886.040,0.977,-16.602,-15.625,551.758,0.000
1737550886.044,-46.875,-21.973,-26.367,-770.508,0.000
1737550886.048,-40.527,-31.250,-26.855,-1000.000,0.000
1737550886.052,4.883,-18.555,-10.254,25.391,0.000
1737550886.055,23.926,-2.930,-4.395,999.512,0.000
1737550886.059,-5.371,-5.371,-7.324,607.422,0.000
1737550886.063,-39.062,-15.137,-8.301,-666.992,0.000
1737550886.067,-35.645,-22.949,-8.789,-1000.000,0.000
1737550886.071,6.836,-16.602,-14.160,-159.668,0.000
1737550886.075,40.527,-7.324,-22.949,986.328,0.000
1737550886.079,34.668,-9.277,-20.508,869.629,0.000
1737550886.083,-11.230,-21.484,-19.531,-314.941,0.000
1737550886.087,-49.316,-25.879,-28.809,-1000.000,0.000
1737550886.091,-12.207,-20.508,-18.066,-247.070,0.000
1737550886.095,29.297,-20.020,-10.254,940.918,0.000
1737550886.098,10.742,-14.648,-12.207,958.496,0.000
1737550886.102,-39.062,-19.043,-19.531,-166.992,0.000
1737550886.106,-60.059,-36.133,-27.832,-1000.000,0.000
1737550886.110,-27.832,-43.457,-15.625,-451.660,0.000
1737550886.114,3.418,-35.156,-4.883,783.203,0.000
1737550886.118,1.465,-19.043,-7.324,999.512,0.000
1737550886.122,-62.012,-14.160,-15.625,-29.785,0.000
1737550886.126,-100.586,-23.438,-27.832,-1000.000,0.000
1737550886.130,-61.523,-24.902,-21.484,-467.773,0.000
1737550886.134,-23.438,-9.277,-11.230,763.184,0.000
1737550886.138,-21.973,-7.812,-15.137,999.512,0.000
1737550886.141,-62.012,-20.020,-17.578,128.906,0.000
1737550886.145,-88.867,-24.414,-18.066,-1000.000,0.000
1737550886.149,-52.734,-25.391,-24.902,-493.652,0.000
1737550886.153,-12.207,-29.297,-15.137,729.980,0.000
1737550886.157,-3.418,-23.926,-2.441,999.512,0.000
1737550886.161,-32.715,-15.625,-8.789,225.586,0.000
1737550886.165,-77.148,-25.879,-21.484,-1000.000,0.000
1737550886.169,-62.500,-27.344,-15.137,-800.293,0.000
1737550886.173,-12.207,-12.695,-4.395,356.934,0.000
1737550886.177,18.066,-11.230,-14.648,999.512,0.000
1737550886.180,-2.441,-22.461,-27.832,344.238,0.000
1737550886.184,-43.945,-36.621,-25.391,-957.031,0.000
1737550886.188,-46.875,-39.551,-20.996,-958.984,0.000
1737550886.192,-15.625,-26.367,-21.973,144.531,0.000
1737550886.196,4.883,-14.160,-21.484,999.512,0.000
1737550886.200,-24.414,-18.066,-23.438,508.789,0.000
1737550886.204,-61.523,-18.066,-24.414,-812.012,0.000
1737550886.208,-58.105,-14.160,-15.625,-1000.000,0.000
1737550886.212,-14.648,-7.812,-8.301,92.773,0.000
1737550886.216,20.020,-0.977,-9.277,999.512,0.000
1737550886.220,0.488,-11.719,-18.555,663.574,0.000
1737550886.223,-38.574,-20.020,-24.414,-606.445,0.000
1737550886.227,-35.645,-15.137,-14.160,-1000.000,0.000
1737550886.231,9.277,-18.066,-16.602,-27.344,0.000
1737550886.235,45.898,-16.113,-26.855,999.512,0.000
1737550886.239,23.438,-11.719,-15.625,728.027,0.000
1737550886.243,-21.973,-18.555,-10.742,-499.512,0.000
1737550886.247,-33.203,-20.020,-14.648,-1000.000,0.000
1737550886.251,-7.324,-16.602,-10.254,-383.789,0.000
1737550886.255,23.438,-20.996,-8.301,855.957,0.000
1737550886.259,14.160,-17.578,-9.766,861.816,0.000
1737550886.262,-32.227,-20.508,-17.578,-369.141,0.000
1737550886.266,-40.039,-19.043,-23.438,-1000.000,0.000
1737550886.270,-4.395,-7.812,-17.090,-351.074,0.000
1737550886.274,21.973,-9.766,-15.625,858.398,0.000
1737550886.278,14.160,-20.020,-16.113,999.512,0.000
1737550886.282,-36.133,-20.996,-10.742,-102.051,0.000
1737550886.286,-68.359,-16.602,-19.043,-1000.000,0.000
1737550886.290,-41.016,-14.160,-17.578,-553.711,0.000
1737550886.294,0.977,-23.438,-17.090,619.629,0.000
1737550886.298,8.301,-28.809,-24.414,999.512,0.000
1737550886.302,-30.273,-19.531,-25.879,-35.645,0.000
1737550886.305,-55.176,-12.695,-20.020,-1000.000,0.000
1737550886.309,-44.434,-13.184,-18.066,-709.961,0.000
1737550886.313,-8.301,-18.555,-17.090,428.223,0.000
1737550886.317,18.066,-21.973,-15.137,999.512,0.000
1737550886.321,-28.320,-23.926,-15.137,147.949,0.000
1737550886.325,-62.012,-28.809,-17.578,-1000.000,0.000
1737550886.329,-41.504,-21.973,-16.113,-833.496,0.000
1737550886.333,-6.348,-11.719,-14.648,298.828,0.000
1737550886.337,13.672,-13.184,-23.438,999.512,0.000
1737550886.341,-3.906,-14.648,-33.203,271.484,0.000
1737550886.345,-38.086,-24.902,-33.203,-1000.000,0.000
1737550886.348,-29.297,-24.902,-26.855,-929.688,0.000
1737550886.352,-8.301,-18.066,-19.043,165.527,0.000
1737550886.356,-23.926,-16.602,-13.184,999.512,0.000
1737550886.360,-47.852,-15.137,-14.160,443.359,0.000
1737550886.364,-77.148,-20.996,-17.578,-855.469,0.000
1737550886.368,-68.359,-24.902,-21.973,-1000.000,0.000
1737550886.372,-36.621,-16.602,-26.367,-70.801,0.000
1737550886.376,-12.695,-8.789,-23.926,999.512,0.000
1737550886.380,-26.855,-3.906,-12.695,606.445,0.000
1737550886.384,-62.988,-6.348,-13.672,-693.848,0.000
1737550886.387,-63.477,-15.625,-23.438,-1000.000,0.000
1737550886.391,-17.578,-11.230,-16.602,-169.922,0.000
1737550886.395,17.578,-12.207,-18.066,999.512,0.000
1737550886.399,-4.883,-24.902,-23.438,727.051,0.000
1737550886.403,-46.875,-20.996,-10.742,-542.969,0.000
1737550886.407,-49.316,-8.789,-11.719,-1000.000,0.000
1737550886.411,-5.371,-9.277,-17.578,-289.551,0.000
1737550886.415,27.832,-7.324,-14.648,921.875,0.000
1737550886.419,9.766,-3.418,-27.832,836.914,0.000
1737550886.423,-36.621,-5.859,-37.109,-390.137,0.000
1737550886.427,-62.012,-7.324,-31.738,-1000.000,0.000
1737550886.430,-34.668,-3.418,-33.203,-375.000,0.000
1737550886.434,0.488,-11.230,-42.480,828.125,0.000
1737550886.438,-2.930,-16.113,-44.922,943.359,0.000
1737550886.442,-42.480,-9.277,-42.480,-237.305,0.000
1737550886.446,-62.500,-17.090,-40.527,-1000.000,0.000
1737550886.450,-29.297,-16.602,-28.320,-629.395,0.000
1737550886.454,13.672,-4.883,-20.020,588.379,0.000
1737550886.458,7.812,-9.766,-29.785,999.512,0.000
1737550886.462,-42.480,-14.648,-33.203,-46.875,0.000
1737550886.466,-66.895,-9.277,-20.508,-1000.000,0.000
1737550886.470,-51.758,-9.277,-16.602,-641.602,0.000
1737550886.473,-16.602,-6.348,-17.578,539.551,0.000
1737550886.477,9.766,1.465,-19.531,999.512,0.000
1737550886.481,-22.461,-7.324,-29.785,213.867,0.000
1737550886.485,-62.500,-21.973,-35.645,-1000.000,0.000
1737550886.489,-45.898,-15.625,-21.973,-846.680,0.000
1737550886.493,-8.789,-7.324,-12.695,279.785,0.000
1737550886.497,1.465,-11.230,-20.020,999.512,0.000
1737550886.501,-30.762,-14.160,-22.461,174.805,0.000
1737550886.505,-58.594,-11.719,-21.973,-1000.000,0.000
1737550886.509,-41.504,-20.020,-21.973,-931.641,0.000
1737550886.512,0.488,-15.137,-26.367,116.699,0.000
1737550886.516,29.297,-2.441,-23.926,999.512,0.000
1737550886.520,16.113,-5.859,-25.391,440.430,0.000
1737550886.524,-25.879,-9.277,-24.902,-861.328,0.000
1737550886.528,-40.039,-15.137,-17.578,-1000.000,0.000
1737550886.532,-3.906,-11.719,-20.508,-23.926,0.000
1737550886.536,29.297,-6.348,-20.020,999.512,0.000
1737550886.540,7.812,-12.207,-19.531,546.875,0.000
1737550886.544,-46.875,-23.926,-23.926,-758.301,0.000
1737550886.548,-58.105,-26.367,-27.344,-1000.000,0.000
1737550886.552,-28.320,-20.508,-28.320,-70.312,0.000
1737550886.555,2.930,-9.277,-25.879,999.512,0.000
1737550886.559,3.906,-11.230,-20.508,776.855,0.000
1737550886.563,-28.320,-24.414,-26.855,-461.426,0.000
1737550886.567,-31.738,-20.996,-25.879,-1000.000,0.000
1737550886.571,1.953,-17.578,-21.973,-17.090,0.000
1737550886.575,36.133,-16.602,-21.484,999.512,0.000
1737550886.579,29.297,-12.207,-9.766,813.477,0.000
1737550886.583,-26.855,-29.785,-10.742,-399.414,0.000
1737550886.587,-47.852,-28.809,-22.461,-1000.000,0.000
1737550886.591,-13.672,-14.160,-18.555,-182.129,0.000
1737550886.595,15.137,-20.020,-8.789,932.129,0.000
1737550886.598,20.508,-14.648,-9.766,916.504,0.000
1737550886.602,-3.418,-13.672,-13.672,-227.539,0.000
1737550886.606,-16.113,-17.578,-11.230,-1000.000,0.000
1737550886.610,6.348,-11.230,-6.836,-421.875,0.000
1737550886.614,28.320,1.465,-4.395,794.922,0.000
1737550886.618,27.344,3.906,-10.254,999.512,0.000
1737550886.622,-20.508,-5.859,-20.508,-31.738,0.000
1737550886.626,-58.594,-9.766,-20.996,-1000.000,0.000
1737550886.630,-33.203,-9.766,-15.625,-584.961,0.000
1737550886.634,9.277,-14.160,-15.137,617.676,0.000
1737550886.637,17.090,-17.578,-19.043,999.512,0.000
1737550886.641,-23.926,-16.113,-9.277,158.691,0.000
1737550886.645,-50.781,-19.531,-9.277,-1000.000,0.000
1737550886.649,-38.574,-19.531,-22.461,-708.984,0.000
1737550886.653,-14.648,-18.066,-17.578,479.980,0.000
1737550886.657,0.000,-13.672,-9.277,999.512,0.000
1737550886.661,-27.344,-11.719,-11.230,413.086,0.000
1737550886.665,-66.406,-20.508,-18.555,-926.270,0.000
1737550886.669,-45.898,-20.508,-20.020,-836.426,0.000
1737550886.673,-7.812,-15.137,-17.090,368.652,0.000
1737550886.677,0.488,-20.508,-15.625,999.512,0.000
1737550886.680,-21.973,-24.902,-21.973,511.230,0.000
1737550886.684,-52.734,-20.996,-20.508,-834.473,0.000
1737550886.688,-37.109,-21.484,-21.484,-895.508,0.000
1737550886.692,5.859,-13.184,-27.344,322.266,0.000
1737550886.696,12.695,-6.836,-20.020,999.512,0.000
1737550886.700,-9.766,-16.602,-17.578,687.012,0.000
1737550886.704,-50.293,-19.043,-20.996,-635.254,0.000
1737550886.708,-54.688,-10.254,-23.926,-858.398,0.000
1737550886.712,-11.719,-16.602,-21.973,396.484,0.000
1737550886.716,4.395,-20.508,-19.531,999.512,0.000
1737550886.719,-16.602,-20.508,-19.043,595.703,0.000
1737550886.723,-60.547,-32.715,-22.949,-655.762,0.000
1737550886.727,-74.219,-31.738,-35.156,-1000.000,0.000
1737550886.731,-45.410,-22.461,-30.762,-138.184,0.000
1737550886.735,-0.977,-15.137,-17.578,999.512,0.000
1737550886.739,1.953,-14.648,-25.879,858.887,0.000
1737550886.743,-43.457,-23.438,-31.250,-322.266,0.000
1737550886.747,-59.082,-31.250,-25.879,-1000.000,0.000
1737550886.751,-16.602,-29.297,-23.438,-218.750,0.000
1737550886.755,17.090,-23.438,-25.879,961.426,0.000
1737550886.759,0.488,-31.738,-30.273,938.477,0.000
1737550886.762,-37.109,-30.762,-21.484,-195.312,0.000
1737550886.766,-64.453,-18.555,-14.648,-1000.000,0.000
1737550886.770,-41.992,-15.137,-23.926,-418.457,0.000
1737550886.774,5.371,-10.742,-27.344,793.457,0.000
1737550886.778,6.836,-16.602,-18.555,999.512,0.000
1737550886.782,-31.250,-27.344,-19.531,18.555,0.000
1737550886.786,-61.035,-27.832,-33.203,-1000.000,0.000
1737550886.790,-42.480,-25.391,-31.250,-485.840,0.000
1737550886.794,-3.906,-21.973,-9.277,765.137,0.000
1737550886.798,-2.441,-18.555,-8.301,999.512,0.000
1737550886.802,-32.227,-16.602,-15.625,128.906,0.000
1737550886.805,-63.965,-20.996,-17.578,-1000.000,0.000
1737550886.809,-57.129,-26.367,-26.367,-756.348,0.000
1737550886.813,-10.254,-20.996,-27.832,416.016,0.000
1737550886.817,14.648,-11.719,-20.508,999.512,0.000
1737550886.821,-20.996,-19.043,-21.973,244.141,0.000
1737550886.825,-62.988,-27.832,-27.344,-1000.000,0.000
1737550886.829,-42.969,-21.484,-23.438,-850.098,0.000
1737550886.833,-5.859,-13.184,-12.695,285.645,0.000
1737550886.837,6.836,-8.789,-3.906,999.512,0.000
1737550886.841,-33.691,-17.578,-10.742,370.117,0.000
1737550886.844,-83.984,-30.273,-24.414,-931.641,0.000
1737550886.848,-68.848,-27.344,-29.785,-986.328,0.000
1737550886.852,-34.180,-21.484,-26.855,85.449,0.000
1737550886.856,-15.625,-25.879,-18.066,999.512,0.000
1737550886.860,-36.133,-19.531,-20.020,452.148,0.000
1737550886.864,-71.777,-17.578,-27.832,-844.727,0.000
1737550886.868,-62.012,-21.973,-33.691,-1000.000,0.000
1737550886.872,-13.672,-19.043,-24.414,-133.301,0.000
1737550886.876,37.109,-19.531,-13.672,999.512,0.000
1737550886.880,17.578,-18.555,-14.160,733.887,0.000
1737550886.884,-36.133,-23.926,-21.484,-534.180,0.000
1737550886.887,-37.598,-36.133,-37.598,-1000.000,0.000
1737550886.891,-4.395,-20.508,-34.180,-217.773,0.000
1737550886.895,23.438,0.977,-24.902,982.422,0.000
1737550886.899,8.789,-2.930,-25.879,801.758,0.000
1737550886.903,-35.645,-11.230,-33.691,-420.410,0.000
1737550886.907,-45.410,-17.090,-37.109,-1000.000,0.000
1737550886.911,-19.531,-25.391,-24.414,-509.277,0.000
1737550886.915,11.719,-26.367,-16.113,741.211,0.000
1737550886.919,14.160,-18.066,-8.789,957.031,0.000
1737550886.923,-20.020,-15.137,-7.324,-242.676,0.000
1737550886.927,-44.434,-14.648,-21.484,-1000.000,0.000
1737550886.930,-26.367,-13.184,-24.902,-527.344,0.000
1737550886.934,7.324,-14.648,-30.273,690.430,0.000
1737550886.938,8.789,-10.254,-27.344,999.512,0.000
1737550886.942,-38.086,-7.324,-15.625,-4.395,0.000
1737550886.946,-45.898,-8.301,-20.996,-1000.000,0.000
1737550886.950,-34.668,-14.648,-28.320,-628.418,0.000
1737550886.954,-34.180,-13.184,-14.160,562.012,0.000
1737550886.958,-22.461,-14.648,0.488,999.512,0.000
1737550886.962,-60.059,-26.855,-5.371,119.629,0.000
1737550886.966,-95.215,-26.855,-10.254,-1000.000,0.000
1737550886.969,-72.754,-27.832,-17.578,-850.098,0.000
1737550886.973,-31.250,-20.996,-20.020,284.668,0.000
1737550886.977,-15.137,-14.648,-11.230,999.512,0.000
1737550886.981,-46.875,-30.273,-10.742,172.363,0.000
1737550886.985,-71.777,-35.645,-12.207,-1000.000,0.000
1737550886.989,-43.457,-26.367,-19.531,-756.836,0.000
1737550886.993,-6.348,-19.531,-26.855,412.109,0.000
1737550886.997,5.371,-23.438,-13.672,999.512,0.000
1737550887.001,-19.043,-30.762,-3.418,293.945,0.000
1737550887.005,-41.016,-31.250,-9.766,-1000.000,0.000
1737550887.009,-24.414,-21.973,-14.648,-878.418,0.000
1737550887.012,7.812,-13.672,-21.484,259.766,0.000
1737550887.016,22.949,-16.602,-23.438,999.512,0.000
1737550887.020,6.348,-25.391,-20.020,480.957,0.000
1737550887.024,-38.086,-30.273,-30.273,-808.105,0.000
1737550887.028,-60.059,-23.926,-32.227,-1000.000,0.000
1737550887.032,-31.250,-15.625,-28.320,20.020,0.000
1737550887.036,2.930,-8.789,-17.090,999.512,0.000
1737550887.040,-8.789,-15.137,-8.301,723.145,0.000
1737550887.044,-40.039,-23.926,-13.184,-524.902,0.000
1737550887.048,-46.387,-27.344,-15.137,-1000.000,0.000
1737550887.052,-25.879,-18.066,-18.066,-37.109,0.000
1737550887.055,6.836,-11.230,-22.461,999.512,0.000
1737550887.059,4.395,-14.648,-22.949,898.438,0.000
1737550887.063,-38.086,-28.809,-31.250,-234.375,0.000
1737550887.067,-61.523,-26.367,-29.785,-1000.000,0.000
1737550887.071,-20.996,-13.672,-17.578,-103.027,0.000
1737550887.075,21.484,-17.090,-11.719,994.141,0.000
1737550887.079,14.160,-12.207,-11.719,970.703,0.000
1737550887.083,-23.438,-5.859,-16.113,-69.336,0.000
1737550887.087,-54.199,-15.137,-22.461,-1000.000,0.000
1737550887.091,-41.992,-24.414,-24.902,-517.090,0.000
1737550887.094,-0.488,-24.414,-23.926,695.312,0.000
1737550887.098,4.883,-21.484,-22.461,999.512,0.000
1737550887.102,-34.180,-15.625,-18.066,-21.484,0.000
1737550887.106,-63.477,-18.555,-20.996,-1000.000,0.000
1737550887.110,-35.645,-16.602,-16.602,-410.156,0.000
1737550887.114,2.441,-12.695,-11.230,786.621,0.000
1737550887.118,6.348,-19.531,-11.230,999.512,0.000
1737550887.122,-26.855,-16.602,-8.301,182.129,0.000
1737550887.126,-69.824,-9.766,-14.160,-1000.000,0.000
1737550887.130,-50.781,-14.648,-16.113,-571.777,0.000
1737550887.134,-13.184,-14.160,-8.789,638.184,0.000
1737550887.137,-11.230,-10.742,-17.578,999.512,0.000
1737550887.141,-31.250,-16.602,-19.531,396.484,0.000
1737550887.145,-60.547,-25.879,-7.324,-960.449,0.000
1737550887.149,-39.062,-23.926,-5.859,-696.777,0.000
1737550887.153,8.789,-20.996,-16.602,560.059,0.000
1737550887.157,17.578,-20.996,-22.949,999.512,0.000
1737550887.161,-3.906,-16.602,-18.066,441.895,0.000
1737550887.165,-40.527,-21.973,-21.973,-889.160,0.000
1737550887.169,-32.715,-31.250,-22.949,-865.234,0.000
1737550887.173,11.230,-24.902,-20.508,333.984,0.000
1737550887.176,13.184,-7.812,-24.902,999.512,0.000
1737550887.180,-15.137,-10.254,-23.926,634.766,0.000
1737550887.184,-49.316,-18.066,-18.066,-663.086,0.000
1737550887.188,-55.664,-19.043,-10.742,-987.305,0.000
1737550887.192,-22.461,-16.113,-7.324,214.355,0.000
1737550887.196,4.395,-11.230,-8.301,999.512,0.000
1737550887.200,-6.348,-12.207,-8.789,796.875,0.000
1737550887.204,-49.805,-24.902,-14.648,-372.559,0.000
1737550887.208,-70.312,-30.273,-26.367,-1000.000,0.000
1737550887.212,-36.621,-18.555,-25.879,-29.785,0.000
1737550887.216,-2.441,-12.207,-24.414,999.512,0.000
1737550887.219,-0.977,-12.695,-26.367,882.324,0.000
1737550887.223,-32.715,-22.949,-27.344,-273.438,0.000
1737550887.227,-45.898,-18.555,-24.414,-1000.000,0.000
1737550887.231,-7.324,-12.695,-19.043,-48.828,0.000
1737550887.235,12.695,-24.902,-15.137,988.770,0.000
1737550887.239,-1.953,-27.832,-16.113,991.699,0.000
1737550887.243,-38.574,-20.996,-18.555,-43.945,0.000
1737550887.247,-58.105,-18.066,-18.066,-1000.000,0.000
1737550887.251,-46.875,-13.672,-17.578,-331.543,0.000
1737550887.255,-24.902,-11.719,-20.020,894.531,0.000
1737550887.259,-16.113,-16.113,-25.879,978.516,0.000
1737550887.262,-45.898,-24.414,-27.344,-126.953,0.000
1737550887.266,-59.570,-28.809,-28.320,-1000.000,0.000
1737550887.270,-18.555,-20.020,-25.391,-358.887,0.000
1737550887.274,10.742,-24.414,-26.855,837.891,0.000
1737550887.278,5.859,-23.438,-23.926,999.512,0.000
1737550887.282,-25.391,-9.766,-20.508,144.531,0.000
1737550887.286,-71.289,-20.020,-22.949,-1000.000,0.000
1737550887.290,-61.523,-26.855,-21.484,-721.191,0.000
1737550887.294,-20.996,-15.137,-19.531,472.168,0.000
1737550887.298,-9.277,-7.812,-20.508,999.512,0.000
1737550887.301,-42.969,-18.066,-28.320,173.828,0.000
1737550887.305,-79.590,-27.832,-26.855,-1000.000,0.000
1737550887.309,-51.758,-12.695,-17.578,-747.559,0.000
1737550887.313,8.301,-5.371,-14.160,428.711,0.000
1737550887.317,21.484,-17.578,-17.578,999.512,0.000
1737550887.321,-14.648,-13.672,-24.414,529.785,0.000
1737550887.325,-71.289,-16.602,-29.785,-821.777,0.000
1737550887.329,-75.195,-20.020,-16.602,-833.496,0.000
1737550887.333,-24.902,-18.555,-18.066,428.223,0.000
1737550887.337,-4.883,-20.020,-35.645,999.512,0.000
1737550887.341,-30.273,-11.719,-23.926,588.867,0.000
1737550887.344,-63.965,-11.719,-16.602,-692.383,0.000
1737550887.348,-60.059,-18.066,-16.602,-992.676,0.000
1737550887.352,-19.043,-18.555,-10.742,165.527,0.000
1737550887.356,-1.465,-11.719,-15.625,999.512,0.000
1737550887.360,-31.738,-12.695,-21.484,664.062,0.000
1737550887.364,-62.500,-21.973,-20.508,-571.777,0.000
1737550887.368,-58.594,-22.949,-16.602,-1000.000,0.000
1737550887.372,-25.879,-22.461,-16.602,-56.641,0.000
1737550887.376,10.742,-18.555,-20.020,999.512,0.000
1737550887.380,10.742,-15.137,-17.578,827.148,0.000
1737550887.384,-24.414,-19.531,-13.672,-356.445,0.000
1737550887.387,-37.598,-23.926,-15.137,-1000.000,0.000
1737550887.391,13.672,-21.484,-17.578,-117.676,0.000
1737550887.395,47.363,-8.789,-16.602,999.512,0.000
1737550887.399,20.508,-11.719,-11.719,860.352,0.000
1737550887.403,-23.438,-23.438,-20.996,-286.133,0.000
1737550887.407,-42.480,-19.043,-31.250,-1000.000,0.000
1737550887.411,-15.625,-20.020,-30.273,-398.926,0.000
1737550887.415,8.301,-23.926,-21.484,838.379,0.000
1737550887.419,8.301,-10.254,-6.836,983.887,0.000
1737550887.423,-40.039,-9.766,-10.742,-152.832,0.000
1737550887.426,-75.195,-23.926,-18.555,-1000.000,0.000
1737550887.430,-50.781,-20.020,-18.555,-573.242,0.000
1737550887.434,-5.371,-9.277,-17.578,650.391,0.000
1737550887.438,5.859,-9.766,-19.043,999.512,0.000
1737550887.442,-24.902,-16.113,-22.461,-28.809,0.000
1737550887.446,-52.246,-15.625,-23.438,-1000.000,0.000
1737550887.450,-35.645,-9.766,-22.949,-561.523,0.000
1737550887.454,6.836,-11.230,-14.160,652.832,0.000
1737550887.458,16.602,-13.184,-11.719,999.512,0.000
1737550887.462,-15.625,-20.996,-14.648,210.938,0.000
1737550887.466,-44.922,-22.461,-21.973,-1000.000,0.000
1737550887.469,-29.297,-8.301,-26.367,-731.445,0.000
1737550887.473,3.906,-3.906,-22.461,449.219,0.000
1737550887.477,15.625,-11.230,-18.555,999.512,0.000
1737550887.481,-14.648,-21.973,-18.555,401.367,0.000
1737550887.485,-46.875,-26.367,-13.184,-909.668,0.000
1737550887.489,-32.227,-18.555,-18.555,-892.578,0.000
1737550887.493,10.254,-11.719,-28.809,278.809,0.000
1737550887.497,22.949,-17.578,-25.391,999.512,0.000
1737550887.501,0.977,-25.391,-16.113,467.285,0.000
1737550887.505,-34.180,-25.879,-15.625,-834.961,0.000
1737550887.509,-49.316,-23.926,-24.414,-964.355,0.000
1737550887.512,-24.902,-11.719,-22.461,183.594,0.000
1737550887.516,-11.230,-10.742,-17.090,999.512,0.000
1737550887.520,-43.945,-21.973,-20.996,575.684,0.000
1737550887.524,-80.078,-17.090,-22.949,-680.664,0.000
1737550887.528,-72.266,-15.137,-27.832,-1000.000,0.000
1737550887.532,-26.367,-16.113,-24.902,-81.543,0.000
1737550887.536,9.766,-8.301,-17.090,999.512,0.000
1737550887.540,-10.742,-14.160,-17.578,690.430,0.000
1737550887.544,-33.203,-24.414,-20.508,-557.617,0.000
1737550887.548,-33.691,-24.902,-24.902,-1000.000,0.000
1737550887.551,-19.043,-21.973,-22.461,-169.434,0.000
1737550887.555,14.160,-10.742,-15.137,999.512,0.000
1737550887.559,10.254,-6.348,-10.742,817.383,0.000
1737550887.563,-29.785,-20.996,-17.090,-373.047,0.000
1737550887.567,-62.012,-26.367,-26.367,-1000.000,0.000
1737550887.571,-47.852,-14.160,-27.344,-453.613,0.000
1737550887.575,-2.441,-5.371,-14.648,785.645,0.000
1737550887.579,4.395,-10.742,-6.348,954.590,0.000
1737550887.583,-45.410,-24.902,-14.648,-223.145,0.000
1737550887.587,-63.477,-30.273,-18.555,-1000.000,0.000
1737550887.591,-43.945,-24.414,-20.020,-558.594,0.000
1737550887.594,-6.836,-16.602,-18.066,651.855,0.000
1737550887.598,8.789,-11.230,-18.555,999.512,0.000
1737550887.602,-23.438,-20.020,-22.461,-35.156,0.000
1737550887.606,-54.688,-30.762,-29.297,-1000.000,0.000
1737550887.610,-38.574,-19.531,-30.762,-742.188,0.000
1737550887.614,0.000,-10.742,-18.066,392.578,0.000
1737550887.618,24.414,-14.648,-19.531,999.512,0.000
1737550887.622,-0.488,-16.113,-23.926,230.469,0.000
1737550887.626,-48.828,-20.020,-20.508,-1000.000,0.000
1737550887.630,-42.480,-31.738,-21.973,-811.035,0.000
1737550887.633,-12.207,-32.715,-23.438,364.258,0.000
1737550887.637,1.465,-25.391,-20.020,999.512,0.000
1737550887.641,-27.344,-26.367,-20.020,140.625,0.000
1737550887.645,-51.270,-34.668,-26.367,-1000.000,0.000
1737550887.649,-30.762,-36.133,-25.391,-928.711,0.000
1737550887.653,-4.883,-21.973,-24.414,109.375,0.000
1737550887.657,23.438,-7.812,-14.648,999.512,0.000
1737550887.661,5.371,-9.766,-11.719,419.434,0.000
1737550887.665,-43.945,-18.555,-23.438,-898.438,0.000
1737550887.669,-40.039,-17.578,-19.531,-984.863,0.000
1737550887.673,-0.977,-25.391,-11.230,96.680,0.000
1737550887.676,22.949,-27.344,-10.742,999.512,0.000
1737550887.680,-4.395,-16.602,-14.648,557.129,0.000
1737550887.684,-39.062,-19.043,-19.531,-737.793,0.000
1737550887.688,-39.551,-17.578,-26.855,-1000.000,0.000
1737550887.692,-8.301,-1.953,-26.855,-47.363,0.000
1737550887.696,16.602,1.465,-19.531,999.512,0.000
1737550887.700,-7.324,-10.742,-17.578,647.949,0.000
1737550887.704,-51.270,-24.902,-28.809,-617.676,0.000
1737550887.708,-64.453,-32.715,-33.691,-1000.000,0.000
1737550887.712,-37.598,-26.367,-25.391,-314.941,0.000
1737550887.716,-1.953,-22.461,-25.879,906.738,0.000
1737550887.719,-15.625,-29.297,-25.879,860.352,0.000
1737550887.723,-74.707,-25.391,-19.531,-360.840,0.000
1737550887.727,-98.145,-21.973,-20.996,-1000.000,0.000
1737550887.731,-54.688,-17.090,-14.160,-369.141,0.000
1737550887.735,-11.719,-9.766,-9.277,839.355,0.000
1737550887.739,-8.301,-18.066,-12.207,987.305,0.000
1737550887.743,-41.504,-24.902,-17.578,-148.438,0.000
1737550887.747,-64.453,-20.508,-20.020,-1000.000,0.000
1737550887.751,-30.273,-17.578,-19.043,-666.504,0.000
1737550887.755,15.625,-21.484,-13.672,520.020,0.000
1737550887.758,25.391,-20.508,-14.160,999.512,0.000
1737550887.762,-13.184,-7.324,-25.391,19.043,0.000
1737550887.766,-37.109,-8.301,-27.344,-1000.000,0.000
1737550887.770,-6.348,-12.695,-12.695,-605.957,0.000
1737550887.774,25.391,-6.348,-5.859,614.258,0.000
1737550887.778,32.715,-5.859,-11.719,999.512,0.000
1737550887.782,-5.859,-14.648,-22.461,74.707,0.000
1737550887.786,-43.457,-20.508,-22.949,-1000.000,0.000
1737550887.790,-23.926,-35.156,-11.719,-781.738,0.000
1737550887.794,3.418,-34.668,-15.137,348.145,0.000
1737550887.798,14.160,-10.742,-13.672,999.512,0.000
1737550887.801,-23.926,-7.812,-7.812,210.449,0.000
1737550887.805,-71.289,-18.066,-14.648,-1000.000,0.000
1737550887.809,-59.570,-16.602,-13.184,-931.641,0.000
1737550887.813,-11.230,-12.207,-10.254,152.344,0.000
1737550887.817,19.531,-8.789,-18.555,999.512,0.000
1737550887.821,-1.953,-8.789,-24.414,407.227,0.000
1737550887.825,-37.598,-28.809,-32.227,-888.672,0.000
1737550887.829,-37.598,-37.598,-36.133,-994.629,0.000
1737550887.833,3.906,-23.438,-28.809,98.633,0.000
1737550887.837,28.809,-14.648,-19.043,999.512,0.000
1737550887.841,-0.488,-15.137,-7.812,529.785,0.000
1737550887.844,-51.270,-21.973,-8.301,-781.250,0.000
1737550887.848,-66.406,-26.855,-14.648,-1000.000,0.000
1737550887.852,-32.227,-18.555,-12.207,60.547,0.000
1737550887.856,-5.859,-17.090,-12.207,999.512,0.000
1737550887.860,-27.344,-29.785,-21.484,618.652,0.000
1737550887.864,-72.754,-43.457,-24.414,-630.371,0.000
1737550887.868,-78.613,-36.133,-21.973,-1000.000,0.000
1737550887.872,-26.367,-20.996,-20.996,-269.531,0.000
1737550887.876,17.578,-14.648,-24.414,924.316,0.000
1737550887.880,10.254,-7.812,-24.414,903.809,0.000
1737550887.883,-37.109,-16.113,-19.043,-266.602,0.000
1737550887.887,-62.988,-30.273,-14.648,-1000.000,0.000
1737550887.891,-22.949,-29.297,-11.230,-406.738,0.000
1737550887.895,10.742,-14.648,-13.672,838.379,0.000
1737550887.899,-0.488,-15.137,-18.555,962.891,0.000
1737550887.903,-45.410,-32.227,-14.648,-189.941,0.000
1737550887.907,-78.125,-29.297,-16.602,-1000.000,0.000
1737550887.911,-57.617,-20.996,-16.113,-456.543,0.000
1737550887.915,-27.832,-17.578,-17.578,798.828,0.000
1737550887.919,-28.809,-12.207,-27.344,990.723,0.000
1737550887.923,-62.988,-18.066,-23.926,-171.875,0.000
1737550887.926,-81.543,-21.484,-14.160,-1000.000,0.000
1737550887.930,-47.852,-15.625,-16.113,-595.215,0.000
1737550887.934,-6.348,-13.184,-21.484,573.730,0.000
1737550887.938,-0.488,-18.066,-19.043,999.512,0.000
1737550887.942,-38.086,-22.461,-16.602,104.004,0.000
1737550887.946,-68.359,-23.438,-19.043,-1000.000,0.000
1737550887.950,-50.293,-22.949,-19.043,-780.762,0.000
1737550887.954,-9.277,-23.926,-13.184,371.582,0.000
1737550887.958,11.719,-23.926,-15.137,999.512,0.000
1737550887.962,-29.785,-19.531,-30.273,229.492,0.000
1737550887.966,-69.336,-22.461,-30.273,-1000.000,0.000
1737550887.969,-49.805,-18.066,-20.996,-822.754,0.000
1737550887.973,-6.836,-7.324,-14.160,337.891,0.000
1737550887.977,5.859,-10.742,-7.812,999.512,0.000
1737550887.981,-25.391,-19.043,-17.090,219.727,0.000
1737550887.985,-55.664,-25.879,-23.438,-1000.000,0.000
1737550887.989,-47.363,-28.809,-20.020,-971.680,0.000
1737550887.993,-20.996,-28.320,-17.578,46.387,0.000
1737550887.997,-5.371,-28.320,-22.949,999.512,0.000
1737550888.001,-28.320,-17.090,-29.297,462.891,0.000
1737550888.005,-67.383,-16.602,-35.156,-837.402,0.000
1737550888.008,-72.266,-24.902,-27.832,-1000.000,0.000
1737550888.012,-38.086,-19.043,-17.090,-62.988,0.000
1737550888.016,7.812,-16.113,-15.137,999.512,0.000
1737550888.020,3.906,-19.531,-20.020,700.195,0.000
1737550888.024,-27.832,-22.461,-25.879,-559.570,0.000
1737550888.028,-34.180,-25.879,-30.762,-1000.000,0.000
1737550888.032,-15.137,-20.020,-31.738,-88.867,0.000
1737550888.036,8.301,-18.555,-20.996,999.512,0.000
1737550888.040,-14.160,-23.438,-14.648,785.156,0.000
1737550888.044,-74.219,-17.578,-17.090,-406.250,0.000
1737550888.048,-97.656,-10.742,-15.137,-1000.000,0.000
1737550888.051,-71.777,-10.254,-12.695,-479.492,0.000
1737550888.055,-30.762,-17.578,-16.602,757.324,0.000
1737550888.059,-18.555,-24.414,-21.484,954.590,0.000
1737550888.063,-55.176,-19.531,-23.438,-246.582,0.000
1737550888.067,-72.754,-11.719,-23.926,-1000.000,0.000
1737550888.071,-45.410,-10.742,-20.996,-467.773,0.000
1737550888.075,-5.859,-10.742,-22.461,727.539,0.000
1737550888.079,0.000,-18.066,-26.367,993.164,0.000
1737550888.083,-37.598,-21.973,-22.949,-152.832,0.000
1737550888.087,-49.316,-17.090,-18.555,-1000.000,0.000
1737550888.090,-23.438,-17.090,-17.090,-610.352,0.000
1737550888.094,8.301,-18.555,-12.207,573.730,0.000
1737550888.098,13.672,-15.625,-4.395,999.512,0.000
1737550888.102,-27.344,-14.160,-13.184,76.172,0.000
1737550888.106,-62.988,-23.926,-23.438,-1000.000,0.000
1737550888.110,-45.410,-25.391,-18.555,-740.723,0.000
1737550888.114,-4.395,-15.137,-19.043,430.664,0.000
1737550888.118,17.578,-23.438,-29.297,999.512,0.000
1737550888.122,-19.043,-28.809,-27.832,136.230,0.000
1737550888.126,-65.918,-23.926,-22.461,-1000.000,0.000
1737550888.130,-58.594,-24.902,-20.020,-913.574,0.000
1737550888.133,-24.902,-22.949,-21.484,159.180,0.000
1737550888.137,-1.953,-20.020,-21.973,999.512,0.000
1737550888.141,-22.461,-20.508,-15.625,340.820,0.000
1737550888.145,-73.730,-27.344,-13.672,-955.078,0.000
1737550888.149,-92.285,-32.227,-19.531,-957.520,0.000
1737550888.153,-53.223,-22.949,-27.832,142.578,0.000
1737550888.157,-17.578,-22.461,-28.809,999.512,0.000
1737550888.161,-37.598,-22.949,-17.090,562.012,0.000
1737550888.165,-80.078,-17.578,-13.184,-716.797,0.000
1737550888.169,-79.102,-23.926,-19.531,-1000.000,0.000
1737550888.173,-32.227,-23.438,-22.461,-90.820,0.000
1737550888.176,15.625,-18.066,-18.555,999.512,0.000
1737550888.180,17.090,-13.672,-14.160,625.000,0.000
1737550888.184,-25.391,-16.113,-8.301,-647.461,0.000
1737550888.188,-37.109,-27.344,-13.672,-1000.000,0.000
1737550888.192,-10.742,-23.926,-22.949,-258.301,0.000
1737550888.196,16.602,-9.277,-20.508,979.004,0.000
1737550888.200,9.277,-16.602,-21.484,738.770,0.000
1737550888.204,-35.645,-27.344,-29.297,-558.594,0.000
1737550888.208,-51.758,-16.602,-27.344,-1000.000,0.000
1737550888.212,-26.367,-11.230,-27.832,-199.219,0.000
1737550888.215,-0.977,-7.324,-23.438,921.387,0.000
1737550888.219,-9.766,-6.348,-14.160,830.566,0.000
1737550888.223,-48.340,-16.113,-14.648,-375.977,0.000
1737550888.227,-63.965,-19.043,-16.602,-1000.000,0.000
1737550888.231,-42.969,-15.625,-12.695,-517.090,0.000
1737550888.235,-4.883,-7.324,-12.207,710.938,0.000
1737550888.239,7.324,-8.789,-15.137,998.047,0.000
1737550888.243,-37.109,-26.367,-15.137,-167.969,0.000
1737550888.247,-62.500,-25.391,-18.066,-1000.000,0.000
1737550888.251,-28.809,-12.695,-20.020,-577.637,0.000
1737550888.255,-1.465,-7.324,-19.043,636.230,0.000
1737550888.258,-21.973,-9.766,-22.949,999.512,0.000
1737550888.262,-64.453,-16.602,-33.203,13.184,0.000
1737550888.266,-81.543,-23.926,-32.715,-1000.000,0.000
1737550888.270,-66.895,-23.438,-20.020,-749.512,0.000
1737550888.274,-21.484,-13.672,-13.184,401.367,0.000
1737550888.278,4.883,-10.742,-15.625,999.512,0.000
1737550888.282,-32.715,-26.367,-16.113,204.102,0.000
1737550888.286,-66.895,-24.414,-19.531,-1000.000,0.000
1737550888.290,-48.828,-10.254,-20.996,-812.500,0.000
1737550888.294,-23.926,-18.066,-14.160,330.566,0.000
1737550888.298,-8.789,-19.043,-9.766,999.512,0.000
1737550888.301,-13.184,-16.602,-14.648,389.648,0.000
1737550888.305,-60.059,-23.926,-26.367,-920.410,0.000
1737550888.309,-75.684,-21.973,-24.414,-921.875,0.000
1737550888.313,-29.297,-17.090,-19.531,233.887,0.000
1737550888.317,0.977,-22.461,-15.625,999.512,0.000
1737550888.321,-12.207,-20.508,-11.719,527.832,0.000
1737550888.325,-43.945,-20.508,-14.648,-772.461,0.000
1737550888.329,-44.434,-22.461,-16.113,-970.215,0.000
1737550888.333,-13.184,-20.508,-23.438,117.676,0.000
1737550888.337,-5.371,-19.043,-31.250,999.512,0.000
1737550888.340,-34.668,-26.367,-28.809,565.430,0.000
1737550888.344,-65.918,-30.762,-24.902,-745.605,0.000
1737550888.348,-63.477,-19.043,-19.531,-1000.000,0.000
1737550888.352,-30.273,-13.184,-15.137,39.551,0.000
1737550888.356,2.930,-16.602,-9.766,999.512,0.000
1737550888.360,-17.578,-20.996,-8.301,755.859,0.000
1737550888.364,-69.824,-29.785,-10.254,-479.004,0.000
1737550888.368,-85.938,-22.461,-13.672,-1000.000,0.000
1737550888.372,-42.969,-7.812,-20.020,12.695,0.000
1737550888.376,-8.789,-14.648,-26.367,999.512,0.000
1737550888.380,-16.113,-16.602,-31.250,893.555,0.000
1737550888.383,-41.504,-15.625,-28.320,-218.262,0.000
1737550888.387,-56.152,-19.531,-19.043,-1000.000,0.000
1737550888.391,-25.391,-15.137,-11.230,-350.098,0.000
1737550888.395,12.207,-6.348,-7.812,870.605,0.000
1737550888.399,20.996,-3.906,-10.254,985.352,0.000
1737550888.403,-3.418,-11.719,-8.301,-144.043,0.000
1737550888.407,-17.090,-24.414,-11.230,-1000.000,0.000
1737550888.411,6.836,-17.090,-17.090,-512.207,0.000
1737550888.415,30.273,-1.953,-17.578,702.637,0.000
1737550888.419,25.879,-0.488,-21.973,999.512,0.000
1737550888.423,-36.621,-8.789,-23.926,7.812,0.000
1737550888.426,-78.613,-17.578,-21.484,-1000.000,0.000
1737550888.430,-61.035,-22.949,-20.508,-708.984,0.000
1737550888.434,-39.551,-24.414,-15.137,447.754,0.000
1737550888.438,-25.391,-22.949,-12.695,999.512,0.000
1737550888.442,-39.062,-24.414,-15.625,325.684,0.000
1737550888.446,-68.359,-15.137,-19.531,-957.520,0.000
1737550888.450,-64.453,-8.301,-23.438,-828.613,0.000
1737550888.454,-25.391,-8.301,-20.996,351.562,0.000
1737550888.458,-4.883,-14.160,-15.137,999.512,0.000
1737550888.462,-34.668,-22.461,-17.090,237.793,0.000
1737550888.465,-64.941,-24.902,-28.809,-1000.000,0.000
1737550888.469,-50.781,-31.738,-45.410,-892.578,0.000
1737550888.473,-7.324,-25.391,-38.574,230.469,0.000
1737550888.477,36.133,-22.949,-13.184,999.512,0.000
1737550888.481,21.484,-32.715,-7.324,412.598,0.000
1737550888.485,-48.340,-24.414,-18.555,-901.367,0.000
1737550888.489,-60.547,-13.672,-26.367,-938.477,0.000
1737550888.493,-20.996,-12.207,-23.926,172.363,0.000
1737550888.497,-0.977,-17.090,-18.066,999.512,0.000
1737550888.501,-31.738,-24.414,-18.066,567.871,0.000
1737550888.505,-76.660,-34.180,-25.879,-737.305,0.000
1737550888.508,-75.195,-29.785,-29.785,-1000.000,0.000
1737550888.512,-36.133,-18.066,-26.367,66.895,0.000
1737550888.516,-5.859,-20.508,-27.344,999.512,0.000
1737550888.520,-18.066,-26.855,-31.738,721.191,0.000
1737550888.524,-63.477,-28.320,-24.902,-496.094,0.000
1737550888.528,-71.289,-20.020,-17.090,-1000.000,0.000
1737550888.532,-36.133,-21.973,-14.160,-237.793,0.000
1737550888.536,-4.883,-22.461,-11.230,936.035,0.000
1737550888.540,-10.254,-11.230,-13.184,868.652,0.000
1737550888.544,-40.527,-14.160,-20.508,-316.406,0.000
1737550888.547,-44.922,-19.531,-32.227,-1000.000,0.000
1737550888.551,-7.812,-20.508,-28.809,-513.672,0.000
1737550888.555,32.227,-25.879,-17.090,738.281,0.000
1737550888.559,32.715,-17.090,-17.578,952.637,0.000
1737550888.563,-14.648,-14.160,-17.578,-253.418,0.000
1737550888.567,-40.527,-17.090,-14.160,-1000.000,0.000
1737550888.571,-21.973,-11.719,-21.973,-747.559,0.000
1737550888.575,5.859,-14.160,-25.391,448.242,0.000
1737550888.579,12.207,-20.508,-24.902,999.512,0.000
1737550888.583,-32.715,-20.020,-26.367,-179.688,0.000
1737550888.587,-70.312,-15.625,-23.438,-1000.000,0.000
1737550888.590,-57.617,-16.602,-18.555,-776.367,0.000
1737550888.594,-27.832,-21.484,-19.043,345.703,0.000
1737550888.598,-7.812,-20.020,-20.996,999.512,0.000
1737550888.602,-37.598,-18.066,-22.461,82.031,0.000
1737550888.606,-69.824,-21.484,-25.879,-1000.000,0.000
1737550888.610,-46.875,-20.508,-19.043,-954.590,0.000
1737550888.614,-7.324,-16.113,-15.625,64.941,0.000
1737550888.618,14.648,-18.555,-20.996,999.512,0.000
1737550888.622,-27.344,-25.391,-24.414,167.480,0.000
1737550888.626,-84.473,-20.996,-29.785,-1000.000,0.000
1737550888.630,-83.008,-15.625,-29.297,-840.332,0.000
1737550888.633,-51.758,-13.184,-28.320,267.090,0.000
1737550888.637,-33.691,-7.812,-14.160,999.512,0.000
1737550888.641,-57.617,-7.812,-8.789,356.934,0.000
1737550888.645,-78.125,-12.207,-22.949,-954.590,0.000
1737550888.649,-58.105,-17.578,-21.973,-928.711,0.000
1737550888.653,-24.902,-24.414,-7.812,54.199,0.000
1737550888.657,16.113,-21.973,0.000,999.512,0.000
1737550888.661,-1.953,-25.879,0.000,477.051,0.000
1737550888.665,-55.664,-33.203,-7.812,-827.637,0.000
1737550888.669,-68.359,-33.203,-20.020,-1000.000,0.000
1737550888.672,-41.504,-31.250,-12.207,-315.918,0.000
1737550888.676,-2.930,-22.461,-6.348,968.262,0.000
1737550888.680,-22.949,-14.648,-17.578,608.887,0.000
1737550888.684,-75.195,-17.090,-17.090,-722.656,0.000
1737550888.688,-77.148,-21.973,-12.695,-1000.000,0.000
1737550888.692,-39.551,-16.113,-17.090,-475.586,0.000
1737550888.696,-3.418,-9.766,-18.555,777.832,0.000
1737550888.700,-13.184,-16.602,-11.230,764.648,0.000
1737550888.704,-59.570,-23.438,-19.043,-526.367,0.000
1737550888.708,-70.801,-27.832,-27.832,-1000.000,0.000
1737550888.712,-37.109,-21.973,-18.066,-666.504,0.000
1737550888.715,2.441,-23.926,-26.367,589.844,0.000
1737550888.719,-3.906,-32.227,-31.738,865.723,0.000
1737550888.723,-37.109,-14.648,-16.113,-404.785,0.000
1737550888.727,-46.875,-8.789,-17.090,-1000.000,0.000
1737550888.731,-31.250,-16.602,-23.926,-713.379,0.000
1737550888.735,-7.324,-12.695,-23.438,483.887,0.000
1737550888.739,-9.766,-18.066,-21.484,999.512,0.000
1737550888.743,-67.383,-24.902,-22.461,-190.430,0.000
1737550888.747,-102.051,-22.949,-20.996,-1000.000,0.000
1737550888.751,-67.383,-21.484,-20.020,-651.855,0.000
1737550888.755,-20.020,-27.344,-22.461,542.969,0.000
1737550888.758,-0.488,-28.320,-22.949,999.512,0.000
1737550888.762,-22.461,-21.484,-18.555,-19.531,0.000
1737550888.766,-42.969,-17.090,-15.625,-1000.000,0.000
1737550888.770,-14.648,-16.113,-17.090,-711.426,0.000
1737550888.774,33.203,-22.461,-14.648,456.055,0.000
1737550888.778,48.340,-25.391,-15.137,999.512,0.000
1737550888.782,-4.395,-23.926,-20.020,89.355,0.000
1737550888.786,-46.387,-22.949,-13.184,-1000.000,0.000
1737550888.790,-29.297,-23.438,-9.766,-855.957,0.000
1737550888.794,1.465,-17.578,-15.137,235.840,0.000
1737550888.797,12.695,-8.789,-20.996,999.512,0.000
1737550888.801,-24.902,-11.719,-23.926,432.617,0.000
1737550888.805,-71.777,-18.066,-25.879,-908.691,0.000
1737550888.809,-70.312,-15.137,-22.461,-884.277,0.000
1737550888.813,-24.414,-10.254,-9.766,303.711,0.000
1737550888.817,7.812,-10.742,-14.648,999.512,0.000
1737550888.821,-5.859,-15.625,-23.926,650.879,0.000
1737550888.825,-47.852,-36.621,-26.367,-614.746,0.000
1737550888.829,-53.711,-41.016,-26.855,-1000.000,0.000
1737550888.833,-12.695,-20.996,-20.020,82.031,0.000
1737550888.837,7.812,-14.160,-10.254,999.512,0.000
1737550888.840,-9.766,-17.578,-11.719,752.441,0.000
1737550888.844,-42.480,-16.113,-16.113,-497.070,0.000
1737550888.848,-54.688,-16.113,-10.254,-1000.000,0.000
1737550888.852,-23.926,-17.578,-15.625,146.973,0.000
1737550888.856,-3.906,-18.555,-22.461,999.512,0.000
1737550888.860,-16.113,-22.461,-16.602,811.035,0.000
1737550888.864,-42.969,-24.414,-15.137,-356.445,0.000
1737550888.868,-59.570,-20.020,-18.555,-1000.000,0.000
1737550888.872,-27.832,-20.020,-19.043,-5.371,0.000
1737550888.876,14.160,-12.695,-11.719,999.512,0.000
1737550888.879,12.207,-8.301,-7.812,959.961,0.000
1737550888.883,-24.414,-15.625,-16.602,-116.211,0.000
1737550888.887,-48.340,-14.648,-20.020,-1000.000,0.000
1737550888.891,-13.184,-11.230,-15.137,-281.250,0.000
1737550888.895,20.996,-8.789,-7.812,880.371,0.000
1737550888.899,16.113,-7.812,-8.301,999.512,0.000
1737550888.903,-34.668,-23.926,-16.113,121.582,0.000
1737550888.907,-74.707,-35.156,-16.602,-1000.000,0.000
1737550888.911,-40.039,-19.531,-20.508,-344.238,0.000
1737550888.915,2.441,-9.766,-26.855,873.047,0.000
1737550888.919,1.953,-11.719,-28.320,999.512,0.000
1737550888.922,-24.414,-13.184,-25.391,279.785,0.000
1737550888.926,-62.988,-13.184,-14.648,-1000.000,0.000
1737550888.930,-50.293,-13.672,-11.719,-512.695,0.000
1737550888.934,8.301,-13.672,-13.672,749.512,0.000
1737550888.938,4.395,-8.301,-12.695,999.512,0.000
1737550888.942,-37.598,-7.812,-14.160,542.969,0.000
1737550888.946,-57.617,-7.324,-15.137,-793.945,0.000
1737550888.950,-40.527,-12.207,-17.090,-727.051,0.000
1737550888.954,-6.348,-17.090,-20.508,534.180,0.000
1737550888.958,-1.953,-18.555,-24.414,999.512,0.000
1737550888.962,-28.320,-26.367,-32.227,526.367,0.000
1737550888.965,-65.430,-30.762,-33.691,-812.500,0.000
1737550888.969,-60.059,-42.480,-20.020,-870.117,0.000
1737550888.973,-5.859,-40.039,-14.648,368.652,0.000
1737550888.977,22.461,-15.625,-11.719,999.512,0.000
1737550888.981,11.719,-10.254,-7.324,684.570,0.000
1737550888.985,-22.461,-16.602,-14.160,-580.566,0.000
1737550888.989,-28.320,-17.578,-23.926,-958.984,0.000
1737550888.993,18.066,-16.602,-24.902,248.535,0.000
1737550888.997,39.062,-25.391,-27.344,999.512,0.000
1737550889.001,23.926,-18.555,-26.855,805.176,0.000
1737550889.004,-7.324,-6.836,-19.043,-352.051,0.000
1737550889.008,-35.645,-15.137,-13.184,-1000.000,0.000
1737550889.012,-12.207,-20.996,-12.207,-76.172,0.000
1737550889.016,17.578,-19.043,-12.207,999.512,0.000
1737550889.020,-5.371,-15.625,-9.277,746.094,0.000
1737550889.024,-54.199,-24.902,-16.113,-469.727,0.000
1737550889.028,-65.430,-35.645,-19.531,-1000.000,0.000
1737550889.032,-40.527,-27.832,-18.066,-275.879,0.000
1737550889.036,-16.113,-27.832,-16.602,911.621,0.000
1737550889.040,-11.230,-27.344,-10.254,924.805,0.000
1737550889.044,-50.293,-12.695,-13.672,-241.699,0.000
1737550889.047,-71.289,-6.836,-19.531,-1000.000,0.000
1737550889.051,-31.250,-4.395,-15.625,-286.133,0.000
1737550889.055,11.719,-4.395,-18.066,906.738,0.000
1737550889.059,21.484,-8.301,-20.996,999.512,0.000
1737550889.063,-19.043,-12.695,-27.344,-86.426,0.000
1737550889.067,-50.293,-20.508,-37.109,-1000.000,0.000
1737550889.071,-32.227,-23.926,-33.691,-637.695,0.000
1737550889.075,-0.488,-21.484,-31.250,549.805,0.000
1737550889.079,5.859,-18.066,-30.762,999.512,0.000
1737550889.083,-42.969,-19.531,-37.109,19.043,0.000
1737550889.087,-80.566,-14.648,-28.809,-1000.000,0.000
1737550889.090,-60.059,-8.789,-11.230,-657.227,0.000
1737550889.094,-16.113,-9.277,-17.090,520.020,0.000
1737550889.098,-7.812,-8.789,-21.484,999.512,0.000
1737550889.102,-53.711,-13.184,-22.949,100.098,0.000
1737550889.106,-87.891,-25.879,-27.832,-1000.000,0.000
1737550889.110,-67.871,-31.250,-30.762,-890.137,0.000
1737550889.114,-16.602,-20.996,-40.039,177.246,0.000
1737550889.118,-10.742,-10.254,-30.762,999.512,0.000
1737550889.122,-51.758,-8.301,-9.277,341.309,0.000
1737550889.126,-80.566,-9.277,-12.207,-968.750,0.000
1737550889.129,-61.035,-9.277,-14.648,-920.410,0.000
1737550889.133,-8.789,-4.395,-13.672,205.566,0.000
1737550889.137,30.273,1.465,-17.578,999.512,0.000
1737550889.141,18.555,-10.254,-16.113,517.578,0.000
1737550889.145,-23.438,-13.672,-11.719,-747.559,0.000
1737550889.149,-32.227,-2.930,-18.555,-1000.000,0.000
1737550889.153,0.977,-9.766,-29.297,-197.266,0.000
1737550889.157,26.367,-10.742,-32.227,999.512,0.000
1737550889.161,4.883,-8.301,-35.645,605.957,0.000
1737550889.165,-37.109,-12.207,-28.809,-715.332,0.000
1737550889.169,-46.875,-7.812,-12.207,-1000.000,0.000
1737550889.172,-14.648,-1.465,-7.324,-122.070,0.000
1737550889.176,3.906,-2.930,-12.207,999.512,0.000
1737550889.180,-9.766,-11.230,-22.461,737.305,0.000
1737550889.184,-36.621,-20.508,-27.344,-488.281,0.000
1737550889.188,-43.945,-21.484,-26.367,-1000.000,0.000
1737550889.192,-12.207,-12.695,-26.855,-303.223,0.000
1737550889.196,15.625,-11.719,-20.996,935.059,0.000
1737550889.200,6.348,-11.230,-15.137,840.332,0.000
1737550889.204,-41.992,-12.695,-20.020,-370.117,0.000
1737550889.208,-66.406,-17.578,-20.020,-1000.000,0.000
1737550889.211,-32.227,-17.090,-17.578,-417.969,0.000
1737550889.215,2.930,-11.719,-20.020,782.715,0.000
1737550889.219,12.695,-13.184,-15.625,999.512,0.000
1737550889.223,-21.973,-30.762,-16.602,-81.543,0.000
1737550889.227,-41.504,-30.762,-14.648,-1000.000,0.000
1737550889.231,-12.207,-10.742,-12.695,-468.750,0.000
1737550889.235,4.395,-8.789,-18.555,703.613,0.000
1737550889.239,13.672,-9.277,-28.809,999.512,0.000
1737550889.243,-13.184,-26.855,-30.762,123.535,0.000
1737550889.247,-46.387,-30.762,-17.578,-1000.000,0.000
1737550889.251,-28.809,-12.695,-16.113,-715.332,0.000
1737550889.254,0.977,-11.719,-18.555,458.008,0.000
1737550889.258,11.230,-8.789,-16.113,999.512,0.000
1737550889.262,-35.156,-15.137,-17.578,279.297,0.000
1737550889.266,-80.078,-23.438,-25.391,-1000.000,0.000
1737550889.270,-64.941,-22.949,-26.855,-759.766,0.000
1737550889.274,-37.109,-18.066,-25.391,437.988,0.000
1737550889.278,-17.090,-10.742,-22.461,999.512,0.000
1737550889.282,-31.738,-17.090,-21.484,458.496,0.000
1737550889.286,-73.242,-26.855,-31.738,-875.000,0.000
1737550889.290,-65.918,-22.949,-38.574,-823.730,0.000
1737550889.294,-15.625,-9.766,-19.531,384.277,0.000
1737550889.297,-0.977,-17.090,-13.672,999.512,0.000
1737550889.301,-22.461,-29.785,-20.020,559.570,0.000
1737550889.305,-44.434,-23.438,-20.508,-757.324,0.000
1737550889.309,-48.828,-15.625,-21.484,-958.984,0.000
1737550889.313,-19.043,-12.695,-8.789,246.094,0.000
1737550889.317,6.836,-21.484,-13.672,999.512,0.000
1737550889.321,-18.066,-29.297,-27.832,766.602,0.000
1737550889.325,-73.730,-22.461,-34.180,-446.289,0.000
1737550889.329,-91.797,-18.066,-37.598,-1000.000,0.000
1737550889.333,-44.922,-16.602,-25.391,130.859,0.000
1737550889.336,-27.344,-21.973,-16.602,999.512,0.000
1737550889.340,-41.504,-17.578,-13.184,790.039,0.000
1737550889.344,-55.664,-20.020,-19.043,-337.891,0.000
1737550889.348,-55.664,-31.250,-23.926,-1000.000,0.000
1737550889.352,-7.812,-21.484,-18.066,-43.945,0.000
1737550889.356,18.066,-8.789,-17.578,999.512,0.000
1737550889.360,12.207,-7.812,-24.414,899.902,0.000
1737550889.364,-14.648,-9.277,-26.367,-222.656,0.000
1737550889.368,-44.434,-8.301,-10.254,-1000.000,0.000
1737550889.372,-24.902,-13.672,-7.812,-243.164,0.000
1737550889.376,6.348,-18.066,-13.184,894.531,0.000
1737550889.379,3.906,-17.578,-13.672,999.512,0.000
1737550889.383,-40.527,-30.762,-18.555,34.668,0.000
1737550889.387,-75.195,-35.156,-26.367,-1000.000,0.000
1737550889.391,-62.012,-23.926,-26.855,-517.090,0.000
1737550889.395,-35.645,-13.672,-23.926,699.707,0.000
1737550889.399,-15.625,-7.812,-29.297,999.512,0.000
1737550889.403,-36.621,-10.254,-29.297,211.914,0.000
1737550889.407,-72.266,-27.344,-23.438,-1000.000,0.000
1737550889.411,-57.617,-36.133,-14.648,-551.270,0.000
1737550889.415,-16.113,-18.555,-16.602,700.195,0.000
1737550889.419,-7.324,-7.324,-29.785,999.512,0.000
1737550889.422,-39.551,-7.812,-36.621,190.918,0.000
1737550889.426,-49.316,-12.207,-28.809,-1000.000,0.000
1737550889.430,-35.156,-16.602,-26.855,-755.859,0.000
1737550889.434,-17.090,-14.160,-27.344,406.738,0.000
1737550889.438,2.930,-16.602,-14.160,999.512,0.000
1737550889.442,-22.461,-22.949,-4.883,315.918,0.000
1737550889.446,-71.777,-30.762,-12.695,-983.887,0.000
1737550889.450,-68.848,-41.016,-7.812,-869.141,0.000
1737550889.454,-32.227,-36.133,-1.953,270.996,0.000
1737550889.458,-28.809,-27.344,-14.160,999.512,0.000
1737550889.461,-45.898,-26.367,-19.531,491.699,0.000
1737550889.465,-71.289,-27.832,-9.766,-794.434,0.000
1737550889.469,-77.148,-31.250,-8.789,-1000.000,0.000
1737550889.473,-40.039,-24.902,-20.020,92.773,0.000
1737550889.477,-10.254,-21.973,-19.043,999.512,0.000
1737550889.481,-32.227,-23.438,-7.812,446.289,0.000
1737550889.485,-68.848,-39.062,-4.395,-818.848,0.000
1737550889.489,-72.266,-46.875,-12.207,-1000.000,0.000
1737550889.493,-41.992,-34.180,-17.090,-495.605,0.000
1737550889.497,-17.578,-27.832,-8.301,776.855,0.000
1737550889.501,-33.203,-18.555,-2.930,726.074,0.000
1737550889.504,-66.895,-19.531,-11.230,-591.797,0.000
1737550889.508,-64.941,-21.484,-19.531,-1000.000,0.000
1737550889.512,-31.250,-18.066,-18.066,-461.914,0.000
1737550889.516,7.324,-21.484,-10.742,795.410,0.000
1737550889.520,14.648,-24.902,-2.930,832.031,0.000
1737550889.524,-24.902,-17.578,-8.789,-443.848,0.000
1737550889.528,-42.480,-14.160,-12.695,-1000.000,0.000
1737550889.532,-25.391,-21.484,-9.277,-802.246,0.000
1737550889.536,7.324,-17.578,-3.906,390.137,0.000
1737550889.540,18.066,-13.672,0.977,862.305,0.000
1737550889.544,-24.414,-21.973,-7.812,-437.988,0.000
1737550889.547,-40.039,-23.438,-12.695,-1000.000,0.000
1737550889.551,-20.996,-25.391,-11.719,-901.855,0.000
1737550889.555,6.348,-30.273,-18.555,222.656,0.000
1737550889.559,20.508,-24.414,-26.855,906.250,0.000
1737550889.563,-20.508,-14.160,-23.926,-389.160,0.000
1737550889.567,-40.527,-8.789,-15.137,-1000.000,0.000
1737550889.571,-38.086,-20.996,-13.184,-971.191,0.000
1737550889.575,-11.719,-27.832,-7.324,-112.305,0.000
1737550889.579,16.113,-14.160,3.906,860.840,0.000
1737550889.583,-30.273,-16.602,0.000,-195.312,0.000
1737550889.586,-66.895,-25.879,-7.812,-1000.000,0.000
1737550889.590,-64.453,-15.137,-18.555,-995.605,0.000
1737550889.594,-35.156,-5.859,-21.484,-69.824,0.000
1737550889.598,-3.418,-11.230,-11.719,999.512,0.000
1737550889.602,-51.270,-21.484,-13.672,-68.359,0.000
1737550889.606,-86.426,-23.438,-22.949,-1000.000,0.000
1737550889.610,-67.871,-20.508,-25.879,-1000.000,0.000
1737550889.614,-39.551,-11.230,-19.531,-379.395,0.000
1737550889.618,-18.066,-11.719,-9.766,999.512,0.000
1737550889.622,-37.109,-25.879,-9.766,285.645,0.000
1737550889.626,-78.613,-26.367,-19.043,-1000.000,0.000
1737550889.629,-77.148,-20.996,-29.297,-1000.000,0.000
1737550889.633,-42.480,-18.555,-27.344,-59.082,0.000
1737550889.637,-19.531,-13.672,-19.531,999.512,0.000
1737550889.641,-33.203,-28.809,-17.090,543.457,0.000
1737550889.645,-73.242,-32.227,-23.438,-768.555,0.000
1737550889.649,-69.824,-20.996,-19.531,-1000.000,0.000
1737550889.653,-32.227,-13.672,-15.137,19.043,0.000
1737550889.657,-16.602,-7.324,-17.090,999.512,0.000
1737550889.661,-19.043,-13.184,-19.531,874.512,0.000
1737550889.665,-52.246,-19.043,-25.879,-283.203,0.000
1737550889.668,-66.406,-19.531,-28.809,-1000.000,0.000
1737550889.672,-23.438,-16.602,-25.391,-43.457,0.000
1737550889.676,10.742,-15.137,-21.484,999.512,0.000
1737550889.680,11.719,-25.391,-31.738,847.656,0.000
1737550889.684,-7.812,-29.297,-37.109,-310.547,0.000
1737550889.688,-29.785,-24.902,-20.020,-1000.000,0.000
1737550889.692,-1.465,-18.555,-13.184,-200.195,0.000
1737550889.696,24.902,-8.301,-19.531,928.223,0.000
1737550889.700,7.812,-7.324,-18.555,990.723,0.000
1737550889.704,-32.227,-8.301,-9.277,-83.496,0.000
1737550889.708,-52.734,-3.418,-5.859,-1000.000,0.000
1737550889.711,-22.461,-11.719,-11.230,-285.645,0.000
1737550889.715,7.812,-21.484,-20.508,869.629,0.000
1737550889.719,18.066,-8.789,-28.320,999.512,0.000
1737550889.723,-14.160,-22.461,-24.414,38.086,0.000
1737550889.727,-43.945,-36.621,-18.066,-1000.000,0.000
1737550889.731,-3.418,-17.090,-12.695,-551.270,0.000
1737550889.735,31.250,-4.883,-15.137,664.062,0.000
1737550889.739,18.555,-6.348,-22.949,999.512,0.000
1737550889.743,-24.902,-17.090,-23.926,189.453,0.000
1737550889.747,-80.566,-19.531,-20.508,-1000.000,0.000
1737550889.751,-70.312,-21.484,-20.996,-537.598,0.000
1737550889.754,-39.551,-22.949,-29.785,713.379,0.000
1737550889.758,-39.062,-17.578,-23.438,999.512,0.000
1737550889.762,-71.289,-16.602,-11.230,295.410,0.000
1737550889.766,-113.281,-20.020,-17.090,-1000.000,0.000
1737550889.770,-87.402,-20.020,-26.855,-733.887,0.000
1737550889.774,-29.297,-20.508,-30.273,482.422,0.000
1737550889.778,-14.648,-20.020,-26.855,999.512,0.000
1737550889.782,-33.203,-16.113,-23.438,591.309,0.000
1737550889.786,-60.547,-29.297,-25.391,-717.285,0.000
1737550889.790,-70.312,-33.203,-32.227,-903.809,0.000
1737550889.793,-29.785,-20.996,-29.785,336.426,0.000
1737550889.797,-1.953,-14.160,-25.391,999.512,0.000
1737550889.801,-16.113,-12.695,-11.719,814.941,0.000
1737550889.805,-49.805,-23.438,-8.301,-373.047,0.000
1737550889.809,-65.430,-26.855,-22.461,-993.652,0.000
1737550889.813,-18.555,-16.602,-20.996,228.516,0.000
1737550889.817,19.531,-20.996,-12.207,999.512,0.000
1737550889.821,6.836,-23.926,-10.742,902.344,0.000
1737550889.825,-24.902,-26.367,-18.555,-176.758,0.000
1737550889.829,-45.410,-25.391,-30.762,-1000.000,0.000
1737550889.833,-21.484,-22.461,-31.738,131.836,0.000
1737550889.836,4.883,-28.320,-24.902,999.512,0.000
1737550889.840,-18.555,-22.461,-14.160,999.512,0.000
1737550889.844,-65.918,-16.113,0.000,72.266,0.000
1737550889.848,-87.891,-19.531,-4.395,-929.688,0.000
1737550889.852,-48.340,-11.719,-10.254,205.566,0.000
1737550889.856,-15.625,-5.859,-12.695,999.512,0.000
1737550889.860,-15.625,-10.254,-15.625,999.512,0.000
1737550889.864,-41.504,-14.648,-20.020,202.148,0.000
1737550889.868,-70.801,-23.438,-21.973,-1000.000,0.000
1737550889.872,-23.926,-26.367,-22.461,-130.859,0.000
1737550889.876,15.137,-17.578,-26.367,991.699,0.000
1737550889.879,-2.441,-12.207,-25.391,999.512,0.000
1737550889.883,-19.043,-3.418,-12.207,267.578,0.000
1737550889.887,-46.387,4.883,-10.254,-1000.000,0.000
1737550889.891,-34.180,2.930,-17.578,-387.207,0.000
1737550889.895,1.953,-0.977,-16.113,841.309,0.000
1737550889.899,2.930,3.906,-17.578,999.512,0.000
1737550889.903,-33.203,-10.742,-20.020,335.938,0.000
1737550889.907,-64.941,-24.414,-19.043,-1000.000,0.000
1737550889.911,-44.434,-11.230,-25.879,-644.043,0.000
1737550889.915,-3.418,-8.301,-24.414,599.121,0.000
1737550889.918,8.301,-14.648,-28.320,999.512,0.000
1737550889.922,-11.230,-18.066,-31.738,442.871,0.000
1737550889.926,-44.922,-18.555,-20.996,-892.090,0.000
1737550889.930,-38.086,-17.090,-17.578,-840.332,0.000
1737550889.934,10.254,-16.602,-16.602,389.160,0.000
1737550889.938,32.227,-19.043,-15.625,999.512,0.000
1737550889.942,6.348,-20.996,-14.160,429.688,0.000
1737550889.946,-60.547,-21.973,-14.648,-862.305,0.000
1737550889.950,-83.984,-15.137,-24.902,-930.176,0.000
1737550889.954,-24.902,-10.742,-32.715,231.445,0.000
1737550889.958,15.625,-19.043,-35.645,999.512,0.000
1737550889.961,2.930,-16.602,-26.855,709.473,0.000
1737550889.965,-41.992,-20.996,-18.066,-529.297,0.000
1737550889.969,-48.828,-24.902,-19.531,-1000.000,0.000
1737550889.973,-2.441,-8.301,-23.438,161.133,0.000
1737550889.977,22.461,-5.859,-17.578,999.512,0.000
1737550889.981,12.207,-13.672,-9.766,778.809,0.000
1737550889.985,-18.066,-19.531,-16.113,-454.590,0.000
1737550889.989,-20.508,-14.160,-16.113,-1000.000,0.000
1737550889.993,11.719,-9.766,-15.625,150.879,0.000
1737550889.997,16.602,-21.973,-25.879,999.512,0.000
1737550890.001,-0.977,-24.414,-26.855,833.008,0.000
1737550890.004,-47.363,-23.438,-21.973,-312.500,0.000
1737550890.008,-71.289,-27.344,-15.625,-1000.000,0.000
1737550890.012,-44.434,-25.879,-12.695,-212.891,0.000
1737550890.016,-12.207,-13.672,-12.695,929.688,0.000
1737550890.020,-14.648,-9.766,-11.719,969.727,0.000
1737550890.024,-56.641,-22.461,-24.414,-134.277,0.000
1737550890.028,-67.383,-27.344,-22.461,-1000.000,0.000
1737550890.032,-28.809,-14.648,-7.812,-354.492,0.000
1737550890.036,13.184,0.000,-8.301,878.906,0.000
1737550890.040,22.949,-2.441,-27.832,999.512,0.000
1737550890.043,-8.789,-14.648,-26.855,-80.566,0.000
1737550890.047,-35.156,-20.020,-2.930,-1000.000,0.000
1737550890.051,-28.809,-15.625,1.465,-664.062,0.000
1737550890.055,-2.441,-15.625,-4.395,505.859,0.000
1737550890.059,11.719,-25.391,-8.789,999.512,0.000
1737550890.063,-33.691,-25.879,-14.648,37.109,0.000
1737550890.067,-76.660,-12.207,-25.879,-1000.000,0.000
1737550890.071,-66.895,-4.395,-31.250,-754.883,0.000
1737550890.075,-33.203,-9.766,-11.719,384.277,0.000
1737550890.079,-5.859,-15.137,-12.207,999.512,0.000
1737550890.083,-25.879,-9.277,-18.555,203.125,0.000
1737550890.086,-57.129,-15.625,-8.301,-991.211,0.000
1737550890.090,-41.016,-21.484,-9.277,-993.164,0.000
1737550890.094,-3.906,-27.832,-3.906,-16.602,0.000
1737550890.098,16.113,-30.273,-8.789,999.512,0.000
1737550890.102,-21.484,-18.066,-22.461,202.637,0.000
1737550890.106,-59.570,-19.043,-29.297,-1000.000,0.000
1737550890.110,-42.480,-18.555,-23.926,-996.582,0.000
1737550890.114,0.488,-7.812,-16.113,-91.309,0.000
1737550890.118,37.598,-11.230,-23.926,999.512,0.000
1737550890.122,10.254,-14.160,-24.414,371.094,0.000
1737550890.125,-35.645,-9.766,-12.695,-925.293,0.000
1737550890.129,-35.156,-8.301,-5.371,-1000.000,0.000
1737550890.133,-13.672,-16.113,-10.742,-331.543,0.000
1737550890.137,6.836,-14.648,-16.113,924.316,0.000
1737550890.141,-10.742,-3.906,-22.949,449.219,0.000
1737550890.145,-55.176,-5.371,-32.227,-874.023,0.000
1737550890.149,-72.754,-11.719,-24.902,-1000.000,0.000
1737550890.153,-52.246,-18.555,-14.160,-631.348,0.000
1737550890.157,-18.066,-16.602,-19.531,674.316,0.000
1737550890.161,-17.090,-14.648,-13.184,597.656,0.000
1737550890.165,-43.945,-18.066,-1.465,-771.973,0.000
1737550890.168,-53.711,-21.973,-10.742,-1000.000,0.000
1737550890.172,-30.762,-21.484,-15.625,-815.430,0.000
1737550890.176,15.137,-2.441,-4.395,392.578,0.000
1737550890.180,28.809,-1.465,-8.301,800.293,0.000
1737550890.184,-20.996,-13.184,-15.625,-552.734,0.000
1737550890.188,-43.457,-13.672,-21.973,-1000.000,0.000
1737550890.192,-19.043,-16.113,-29.297,-872.559,0.000
1737550890.196,8.789,-14.648,-19.043,197.266,0.000
1737550890.200,14.648,-10.742,-5.371,902.344,0.000
1737550890.204,-21.484,-20.996,-4.883,-306.152,0.000
1737550890.208,-44.434,-39.551,-7.812,-1000.000,0.000
1737550890.211,-57.617,-33.691,-9.766,-946.777,0.000
1737550890.215,-35.645,-14.648,-12.207,66.406,0.000
1737550890.219,0.000,-6.836,-21.484,996.582,0.000
1737550890.223,-41.016,-11.230,-21.484,-161.133,0.000
1737550890.227,-62.988,-13.184,-13.184,-1000.000,0.000
1737550890.231,-43.457,-19.043,-21.484,-917.969,0.000
1737550890.235,-9.766,-21.484,-10.254,109.863,0.000
1737550890.239,18.066,-27.344,3.906,999.512,0.000
1737550890.243,-19.531,-25.391,1.465,58.594,0.000
1737550890.247,-53.223,-11.230,-9.766,-1000.000,0.000
1737550890.250,-34.668,-5.371,-15.137,-764.648,0.000
1737550890.254,-7.812,-5.859,-18.066,352.051,0.000
1737550890.258,11.230,-7.812,-24.902,999.512,0.000
1737550890.262,-19.043,-17.578,-28.320,429.688,0.000
1737550890.266,-63.477,-29.785,-21.484,-930.176,0.000
1737550890.270,-45.410,-19.043,-9.277,-782.715,0.000
1737550890.274,-4.395,-4.883,-3.418,447.266,0.000
1737550890.278,13.184,-4.395,-3.418,999.512,0.000
1737550890.282,-11.230,-7.812,-12.695,466.309,0.000
1737550890.286,-63.965,-14.160,-13.184,-834.473,0.000
1737550890.290,-77.637,-16.602,-9.766,-945.801,0.000
1737550890.293,-34.668,-16.602,-14.648,233.398,0.000
1737550890.297,5.371,-7.324,-13.184,999.512,0.000
1737550890.301,-14.160,-8.301,-23.438,836.426,0.000
1737550890.305,-57.617,-23.926,-31.250,-350.098,0.000
1737550890.309,-62.500,-19.531,-21.973,-1000.000,0.000
1737550890.313,-20.020,-5.371,-15.625,229.004,0.000
1737550890.317,6.348,-0.488,-5.371,999.512,0.000
1737550890.321,-1.953,0.488,-9.277,999.512,0.000
1737550890.325,-20.508,-9.277,-22.949,191.895,0.000
1737550890.329,-31.738,-17.090,-15.137,-758.789,0.000
1737550890.333,0.000,-14.648,-7.812,277.832,0.000
1737550890.336,29.297,-9.766,-12.695,999.512,0.000
1737550890.340,31.738,-9.277,-25.879,983.887,0.000
1737550890.344,2.441,-16.602,-29.297,23.438,0.000
1737550890.348,-31.250,-25.879,-26.367,-1000.000,0.000
1737550890.352,-2.930,-24.902,-30.273,-99.609,0.000
1737550890.356,24.902,-9.766,-24.414,976.074,0.000
1737550890.360,7.812,-0.488,-15.137,999.512,0.000
1737550890.364,-19.531,-10.254,-9.766,209.961,0.000
1737550890.368,-64.941,-27.344,-15.137,-1000.000,0.000
1737550890.372,-72.754,-25.879,-25.391,-498.535,0.000
1737550890.375,-39.062,-30.273,-29.297,751.465,0.000
1737550890.379,-28.809,-45.410,-23.926,999.512,0.000
1737550890.383,-57.129,-31.250,-21.484,128.906,0.000
1737550890.387,-87.891,-17.578,-32.227,-1000.000,0.000
1737550890.391,-65.430,-19.043,-28.809,-596.680,0.000
1737550890.395,-14.160,-17.578,-14.648,625.977,0.000
1737550890.399,13.672,-16.113,-7.324,999.512,0.000
1737550890.403,-30.762,-18.066,-7.324,149.902,0.000
1737550890.407,-73.730,-27.344,-14.160,-1000.000,0.000
1737550890.411,-52.734,-33.203,-11.719,-716.309,0.000
1737550890.415,-17.090,-18.066,-15.137,468.750,0.000
1737550890.418,2.441,-8.789,-26.367,999.512,0.000
1737550890.422,-27.344,-9.766,-21.973,289.551,0.000
1737550890.426,-57.617,-21.484,-15.625,-1000.000,0.000
1737550890.430,-49.316,-16.602,-17.090,-833.496,0.000
1737550890.434,-22.461,-16.113,-23.926,336.914,0.000
1737550890.438,-10.254,-34.668,-24.414,999.512,0.000
1737550890.442,-44.434,-28.320,-20.020,402.832,0.000
1737550890.446,-82.520,-16.602,-18.066,-866.699,0.000
1737550890.450,-75.684,-22.461,-18.555,-1000.000,0.000
1737550890.454,-43.457,-28.809,-16.602,-67.871,0.000
1737550890.458,-10.742,-20.020,-12.695,999.512,0.000
1737550890.461,-17.090,-14.648,-10.742,580.078,0.000
1737550890.465,-47.852,-15.625,-17.090,-718.750,0.000
1737550890.469,-41.992,-12.207,-19.531,-1000.000,0.000
1737550890.473,-4.395,-9.766,-19.531,-338.867,0.000
1737550890.477,36.621,-17.578,-20.996,894.531,0.000
1737550890.481,17.578,-21.973,-13.672,707.520,0.000
1737550890.485,-30.273,-17.578,-11.719,-583.496,0.000
1737550890.489,-39.551,-15.137,-11.719,-1000.000,0.000
1737550890.493,-20.508,-22.461,-16.113,-506.836,0.000
1737550890.497,20.996,-29.297,-19.531,771.973,0.000
1737550890.500,26.855,-17.578,-15.625,746.094,0.000
1737550890.504,-28.320,-20.508,-16.113,-558.105,0.000
1737550890.508,-53.711,-28.809,-22.949,-1000.000,0.000
1737550890.512,-29.785,-19.043,-36.133,-579.590,0.000
1737550890.516,0.000,-13.184,-33.691,654.785,0.000
1737550890.520,2.930,-15.625,-18.555,959.473,0.000
1737550890.524,-37.598,-13.672,-19.531,-229.004,0.000
1737550890.528,-70.312,-22.949,-32.227,-1000.000,0.000
1737550890.532,-51.270,-28.809,-40.527,-717.285,0.000
1737550890.536,-13.672,-15.137,-21.484,445.312,0.000
1737550890.540,-2.441,-12.207,-4.395,999.512,0.000
1737550890.543,-44.434,-26.367,-6.836,-123.047,0.000
1737550890.547,-73.242,-35.645,-24.902,-1000.000,0.000
1737550890.551,-43.457,-20.996,-31.250,-592.285,0.000
1737550890.555,-7.812,-8.789,-16.113,603.516,0.000
1737550890.559,7.812,-13.672,-12.207,999.512,0.000
1737550890.563,-21.973,-19.043,-19.531,-80.566,0.000
1737550890.567,-55.176,-25.391,-24.902,-1000.000,0.000
1737550890.571,-30.762,-21.973,-20.996,-889.648,0.000
1737550890.575,6.348,-11.719,-17.578,138.672,0.000
1737550890.579,20.020,-8.789,-20.508,999.512,0.000
1737550890.583,-17.578,-16.602,-20.020,194.824,0.000
1737550890.586,-60.547,-21.484,-15.625,-1000.000,0.000
1737550890.590,-42.480,-16.602,-7.324,-855.957,0.000
1737550890.594,-21.484,-8.301,-5.371,230.957,0.000
1737550890.598,-29.785,-7.324,-1.465,999.512,0.000
1737550890.602,-53.711,-7.812,-7.812,387.695,0.000
1737550890.606,-91.309,-12.695,-20.020,-855.469,0.000
1737550890.610,-88.379,-20.020,-23.926,-1000.000,0.000
1737550890.614,-47.852,-20.996,-18.555,-458.008,0.000
1737550890.618,-6.348,-23.926,-23.926,846.680,0.000
1737550890.622,-8.789,-26.855,-28.320,498.047,0.000
1737550890.625,-54.688,-26.855,-20.996,-845.703,0.000
1737550890.629,-54.199,-20.996,-18.555,-1000.000,0.000
1737550890.633,-17.578,-13.672,-18.555,-389.160,0.000
1737550890.637,11.719,-9.766,-25.391,881.836,0.000
1737550890.641,2.930,-17.578,-26.855,629.883,0.000
1737550890.645,-33.691,-23.438,-19.043,-695.801,0.000
1737550890.649,-36.621,-21.484,-20.996,-1000.000,0.000
1737550890.653,-13.184,-13.184,-25.879,-566.406,0.000
1737550890.657,18.066,-8.301,-19.531,664.062,0.000
1737550890.661,29.785,-4.883,-15.625,817.871,0.000
1737550890.665,-9.766,-8.301,-21.973,-459.473,0.000
1737550890.668,-28.320,-17.090,-20.996,-1000.000,0.000
1737550890.672,3.906,-16.602,-15.137,-659.180,0.000
1737550890.676,32.227,-13.672,-11.230,569.336,0.000
1737550890.680,28.320,-12.695,-16.113,901.855,0.000
1737550890.684,-20.020,-15.137,-22.949,-338.867,0.000
1737550890.688,-44.434,-23.926,-22.949,-1000.000,0.000
1737550890.692,-20.020,-25.391,-22.949,-616.211,0.000
1737550890.696,20.996,-8.789,-21.973,608.398,0.000
1737550890.700,22.949,-6.348,-16.602,999.512,0.000
1737550890.704,-30.273,-14.160,-12.695,-178.223,0.000
1737550890.707,-56.641,-19.531,-17.578,-1000.000,0.000
1737550890.711,-34.668,-20.020,-21.973,-782.715,0.000
1737550890.715,8.301,-12.695,-22.949,350.098,0.000
1737550890.719,28.320,-8.301,-24.902,999.512,0.000
1737550890.723,-0.977,-14.160,-25.391,13.184,0.000
1737550890.727,-26.855,-16.602,-20.996,-1000.000,0.000
1737550890.731,-34.668,-19.043,-20.996,-821.289,0.000
1737550890.735,-5.859,-22.949,-27.832,288.574,0.000
1737550890.739,23.926,-7.324,-31.250,999.512,0.000
1737550890.743,-11.230,-1.953,-25.391,480.957,0.000
1737550890.747,-59.082,-19.531,-24.902,-835.938,0.000
1737550890.750,-45.410,-17.090,-24.902,-893.555,0.000
1737550890.754,5.859,-6.836,-19.531,290.039,0.000
1737550890.758,31.250,-5.859,-16.113,999.512,0.000
1737550890.762,-0.977,-16.113,-28.320,369.629,0.000
1737550890.766,-49.805,-26.855,-34.180,-906.250,0.000
1737550890.770,-56.152,-33.203,-26.855,-1000.000,0.000
1737550890.774,-16.602,-28.809,-15.137,22.949,0.000
1737550890.778,20.020,-9.766,-5.859,999.512,0.000
1737550890.782,3.418,-10.254,-16.113,611.328,0.000
1737550890.786,-41.016,-20.996,-25.879,-653.320,0.000
1737550890.790,-54.688,-26.367,-29.785,-1000.000,0.000
1737550890.793,-24.414,-27.832,-25.391,-90.332,0.000
1737550890.797,0.000,-20.508,-14.648,999.512,0.000
1737550890.801,-9.766,-14.160,-18.066,702.637,0.000
1737550890.805,-55.664,-26.367,-24.414,-544.434,0.000
1737550890.809,-72.266,-30.762,-28.809,-1000.000,0.000
1737550890.813,-41.016,-17.090,-23.438,-259.277,0.000
1737550890.817,-7.324,-7.324,-10.742,946.777,0.000
1737550890.821,-3.418,-12.207,-10.254,808.105,0.000
1737550890.825,-50.293,-23.438,-22.949,-398.926,0.000
1737550890.829,-84.473,-23.438,-24.902,-1000.000,0.000
1737550890.832,-43.457,-18.555,-14.160,-354.980,0.000
1737550890.836,4.883,-16.602,-15.137,902.344,0.000
1737550890.840,-7.812,-21.484,-14.160,870.117,0.000
1737550890.844,-50.781,-20.020,-8.789,-329.590,0.000
1737550890.848,-63.965,-12.695,-13.184,-1000.000,0.000
1737550890.852,-38.086,-14.160,-18.555,-678.223,0.000
1737550890.856,1.953,-14.160,-20.508,506.348,0.000
1737550890.860,13.672,-10.742,-18.066,999.512,0.000
1737550890.864,-27.832,-14.648,-24.414,-147.461,0.000
1737550890.868,-54.688,-17.578,-22.461,-1000.000,0.000
1737550890.872,-36.621,-17.090,-7.812,-626.953,0.000
1737550890.875,-6.348,-21.973,-3.418,534.180,0.000
1737550890.879,5.371,-22.461,-7.812,999.512,0.000
1737550890.883,-28.809,-21.973,-20.508,6.348,0.000
1737550890.887,-52.246,-18.555,-26.855,-1000.000,0.000
1737550890.891,-26.367,-16.113,-23.438,-725.586,0.000
1737550890.895,9.766,-15.137,-23.926,410.645,0.000
1737550890.899,11.230,-14.160,-29.785,999.512,0.000
1737550890.903,-26.367,-18.066,-21.973,178.711,0.000
1737550890.907,-53.223,-17.090,-11.230,-1000.000,0.000
1737550890.911,-44.434,-22.949,-15.625,-878.418,0.000
1737550890.915,-5.371,-29.297,-6.836,241.699,0.000
1737550890.918,25.879,-14.160,0.488,999.512,0.000
1737550890.922,-8.301,0.488,0.488,434.082,0.000
1737550890.926,-53.223,-2.441,-2.441,-848.633,0.000
1737550890.930,-52.246,-6.836,-15.625,-959.473,0.000
1737550890.934,-18.555,-3.906,-19.531,125.977,0.000
1737550890.938,5.859,0.000,-18.555,999.512,0.000
1737550890.942,-10.254,-8.301,-15.137,573.242,0.000
1737550890.946,-57.617,-18.555,-17.578,-739.258,0.000
1737550890.950,-63.477,-13.672,-19.043,-976.562,0.000
1737550890.954,-20.508,-2.930,-8.789,128.906,0.000
1737550890.957,13.184,-1.465,-7.812,999.512,0.000
1737550890.961,11.719,-8.301,-12.207,639.160,0.000
1737550890.965,-20.020,-16.602,-26.855,-603.027,0.000
1737550890.969,-23.438,-19.043,-32.227,-1000.000,0.000
1737550890.973,4.883,-7.812,-17.578,-58.105,0.000
1737550890.977,16.602,-9.277,-5.371,999.512,0.000
1737550890.981,4.395,-18.555,-1.465,879.395,0.000
1737550890.985,-46.875,-13.184,-2.930,-251.465,0.000
1737550890.989,-81.543,-10.254,-9.277,-1000.000,0.000
1737550890.993,-25.391,-5.859,-17.090,-52.734,0.000
1737550890.997,27.344,-11.719,-21.484,996.094,0.000
1737550891.000,17.090,-16.602,-14.160,947.266,0.000
1737550891.004,-18.066,-15.625,-4.883,-93.750,0.000
1737550891.008,-40.039,-20.996,-11.719,-1000.000,0.000
1737550891.012,0.488,-17.090,-13.672,-382.812,0.000
1737550891.016,34.180,-10.742,-9.277,796.387,0.000
1737550891.020,10.742,-10.742,-18.555,999.512,0.000
1737550891.024,-29.297,-14.160,-26.855,226.562,0.000
1737550891.028,-70.801,-23.926,-20.996,-1000.000,0.000
1737550891.032,-61.035,-30.762,-24.902,-506.348,0.000
1737550891.036,-10.742,-13.184,-23.438,748.535,0.000
1737550891.040,9.277,-4.395,-22.461,999.512,0.000
1737550891.043,-32.715,-14.160,-19.531,267.090,0.000
1737550891.047,-73.730,-20.020,-13.184,-1000.000,0.000
1737550891.051,-51.758,-21.973,-6.348,-627.441,0.000
1737550891.055,0.000,-12.207,-11.230,590.332,0.000
1737550891.059,23.926,-11.719,-14.648,999.512,0.000
1737550891.063,-13.184,-23.438,-10.254,348.145,0.000
1737550891.067,-72.754,-32.227,-13.672,-975.586,0.000
1737550891.071,-44.434,-39.062,-21.484,-780.762,0.000
1737550891.075,-3.906,-21.484,-33.203,420.410,0.000
1737550891.079,7.324,-8.789,-23.926,999.512,0.000
1737550891.082,-8.301,-11.719,-15.137,539.062,0.000
1737550891.086,-49.805,-13.672,-6.836,-770.996,0.000
1737550891.090,-47.363,-21.973,5.371,-814.941,0.000
1737550891.094,-0.488,-16.602,2.441,429.199,0.000
1737550891.098,10.254,-6.836,-7.324,999.512,0.000
1737550891.102,-15.137,-13.672,-15.625,665.527,0.000
1737550891.106,-42.969,-20.508,-18.555,-604.980,0.000
1737550891.110,-56.641,-10.742,-17.578,-911.133,0.000
1737550891.114,-26.855,-2.441,-19.531,328.125,0.000
1737550891.118,-20.020,-4.395,-23.926,999.512,0.000
1737550891.122,-31.250,-10.742,-24.902,850.586,0.000
1737550891.125,-59.082,-21.484,-15.137,-322.754,0.000
1737550891.129,-81.055,-20.996,-6.348,-979.492,0.000
1737550891.133,-33.691,-10.742,-9.277,236.328,0.000
1737550891.137,-4.395,-9.766,-10.742,999.512,0.000
1737550891.141,-10.742,-17.578,-12.207,916.504,0.000
1737550891.145,-30.273,-20.508,-19.043,-130.859,0.000
1737550891.149,-86.914,-14.648,-19.531,-1000.000,0.000
1737550891.153,-68.359,-20.508,-23.926,-8.301,0.000
1737550891.157,10.742,-17.578,-25.391,999.512,0.000
1737550891.161,11.719,-15.625,-16.602,946.289,0.000
1737550891.164,-41.992,-16.602,-22.461,-110.840,0.000
1737550891.168,-49.805,-5.859,-13.184,-1000.000,0.000
1737550891.172,-10.742,-13.184,7.812,-247.070,0.000
1737550891.176,-5.859,-23.926,0.488,897.461,0.000
1737550891.180,-13.184,-16.602,-18.066,999.512,0.000
1737550891.184,-44.434,-6.836,-14.648,204.590,0.000
1737550891.188,-53.223,-15.137,-21.484,-1000.000,0.000
1737550891.192,3.906,-22.461,-28.320,-123.047,0.000
1737550891.196,35.156,-18.555,-20.020,997.070,0.000
1737550891.200,39.062,-15.137,-19.531,999.512,0.000
1737550891.204,19.531,-24.414,-25.879,581.543,0.000
1737550891.207,-25.391,-26.367,-30.273,-520.508,0.000
1737550891.211,8.789,-19.531,-28.809,48.340,0.000
1737550891.215,64.453,-27.344,-21.484,999.512,0.000
1737550891.219,52.246,-33.691,-11.230,997.559,0.000
1737550891.223,15.137,-20.996,-12.207,782.715,0.000
1737550891.227,-6.836,-11.719,-18.555,-153.809,0.000
1737550891.231,15.137,-17.090,-15.625,149.902,0.000
1737550891.235,52.734,-12.695,-15.137,999.512,0.000
1737550891.239,24.902,-4.395,-11.230,986.328,0.000
1737550891.243,11.719,-7.812,-10.742,847.656,0.000
1737550891.247,0.000,-18.555,-31.738,-208.008,0.000
1737550891.250,-20.996,-20.020,-24.414,-108.398,0.000
1737550891.254,-6.836,-24.414,-2.441,949.219,0.000
1737550891.258,3.418,-32.715,-12.207,988.770,0.000
1737550891.262,7.324,-13.672,-12.695,909.668,0.000
1737550891.266,-31.250,-5.371,-7.324,58.105,0.000
1737550891.270,-36.621,-13.184,-12.207,10.254,0.000
1737550891.274,3.418,-8.789,-8.789,938.965,0.000
1737550891.278,-1.465,-7.812,-6.348,968.750,0.000
1737550891.282,-7.812,-9.277,-16.113,999.512,0.000
1737550891.286,-27.832,-22.949,-23.926,293.457,0.000
1737550891.289,-51.270,-22.461,-15.137,-37.598,0.000
1737550891.293,-10.742,-7.812,-13.184,833.008,0.000
1737550891.297,23.438,-8.301,-12.207,987.305,0.000
1737550891.301,24.414,-8.789,-3.906,969.727,0.000
1737550891.305,1.953,-8.301,-11.230,117.676,0.000
1737550891.309,-37.598,-11.719,-20.996,-875.977,0.000
1737550891.313,3.418,-11.230,-9.277,66.406,0.000
1737550891.317,18.555,-13.184,-2.441,999.512,0.000
1737550891.321,-25.391,-27.832,-18.066,877.930,0.000
1737550891.325,-62.988,-37.598,-13.184,-222.168,0.000
1737550891.329,-87.402,-27.832,-10.742,-1000.000,0.000
1737550891.332,-63.477,-10.742,-24.902,-520.508,0.000
1737550891.336,-18.555,-4.395,-28.809,640.137,0.000
1737550891.340,-14.160,-9.766,-39.551,942.383,0.000
1737550891.344,-51.758,-11.230,-39.551,-249.512,0.000
1737550891.348,-74.707,-6.348,-33.691,-1000.000,0.000
1737550891.352,-59.082,-7.812,-32.227,-825.195,0.000
1737550891.356,-23.926,-3.418,-24.414,322.754,0.000
1737550891.360,-10.742,-1.465,-24.902,948.730,0.000
1737550891.364,-47.363,-16.602,-23.926,-282.227,0.000
1737550891.368,-57.617,-25.391,-22.949,-1000.000,0.000
1737550891.372,-28.320,-11.719,-26.367,-874.512,0.000
1737550891.375,1.953,-7.324,-22.461,130.859,0.000
1737550891.379,26.855,-4.883,-23.926,869.629,0.000
1737550891.383,-1.465,-5.859,-23.926,-282.715,0.000
1737550891.387,-36.621,-10.254,-20.020,-1000.000,0.000
1737550891.391,-36.133,-7.324,-19.531,-1000.000,0.000
1737550891.395,-15.137,-8.789,-23.438,-246.094,0.000
1737550891.399,0.000,-13.672,-23.438,983.398,0.000
1737550891.403,-47.852,-16.602,-18.066,0.000,0.000
1737550891.407,-88.379,-9.277,-20.996,-1000.000,0.000
1737550891.411,-86.914,-11.230,-25.391,-1000.000,0.000
1737550891.414,-66.895,-9.766,-15.625,-569.824,0.000
1737550891.418,-29.297,-0.977,-12.207,721.680,0.000
1737550891.422,-31.250,-3.906,-23.926,232.422,0.000
1737550891.426,-65.918,-10.254,-22.949,-1000.000,0.000
1737550891.430,-77.637,-12.695,-19.531,-1000.000,0.000
1737550891.434,-63.477,-17.578,-21.484,-474.121,0.000
1737550891.438,-18.555,-15.625,-14.648,788.086,0.000
1737550891.442,-4.883,-20.508,-15.137,609.375,0.000
1737550891.446,-52.246,-26.367,-20.020,-724.609,0.000
1737550891.450,-76.172,-20.020,-16.602,-1000.000,0.000
1737550891.454,-39.551,-10.254,-10.254,-514.648,0.000
1737550891.457,10.742,-7.812,-14.648,748.535,0.000
1737550891.461,0.000,-6.348,-29.297,723.145,0.000
1737550891.465,-60.547,-6.836,-27.832,-599.609,0.000
1737550891.469,-68.848,-12.207,-10.254,-1000.000,0.000
1737550891.473,-41.016,-20.020,-5.859,-426.758,0.000
1737550891.477,-17.578,-16.602,-5.371,807.617,0.000
1737550891.481,-28.809,-12.207,-7.324,770.020,0.000
1737550891.485,-75.195,-26.367,-8.301,-518.066,0.000
1737550891.489,-63.965,-23.438,-13.672,-1000.000,0.000
1737550891.493,-33.691,-8.789,-23.438,-616.699,0.000
1737550891.496,-4.883,-9.766,-24.902,535.645,0.000
1737550891.500,22.949,-11.230,-20.020,854.980,0.000
1737550891.504,-24.902,-18.555,-24.902,-399.902,0.000
1737550891.508,-39.551,-33.691,-31.738,-1000.000,0.000
1737550891.512,-44.922,-22.461,-21.484,-805.176,0.000
1737550891.516,-39.551,-10.254,-9.277,305.664,0.000
1737550891.520,18.066,-4.883,-2.441,999.512,0.000
1737550891.524,-4.395,-8.301,-5.859,-197.754,0.000
1737550891.528,-31.738,-11.719,-8.789,-1000.000,0.000
1737550891.532,-13.184,-10.742,-17.578,-889.160,0.000
1737550891.536,23.926,-12.207,-20.020,189.453,0.000
1737550891.539,43.945,-13.672,-8.789,999.512,0.000
1737550891.543,-7.812,-15.625,-10.254,-151.855,0.000
1737550891.547,-38.086,-25.879,-21.484,-1000.000,0.000
1737550891.551,-26.855,-23.926,-25.391,-909.668,0.000
1737550891.555,8.301,-10.254,-15.625,-23.438,0.000
1737550891.559,43.457,-3.906,-6.348,999.512,0.000
1737550891.563,6.836,-10.254,-8.301,163.086,0.000
1737550891.567,-48.828,-24.902,-15.137,-1000.000,0.000
1737550891.571,-29.297,-24.414,-17.578,-975.586,0.000
1737550891.575,1.953,-20.508,-13.672,-314.453,0.000
1737550891.579,18.555,-22.949,-11.230,741.211,0.000
1737550891.582,-19.043,-19.043,-16.113,118.164,0.000
1737550891.586,-69.336,-18.555,-13.184,-1000.000,0.000
1737550891.590,-65.430,-17.578,-3.418,-998.047,0.000
1737550891.594,-37.598,-24.902,-15.137,-242.188,0.000
1737550891.598,-21.973,-27.832,-25.391,975.586,0.000
1737550891.602,-54.688,-10.742,-24.414,310.547,0.000
1737550891.606,-79.102,-18.555,-28.809,-988.281,0.000
1737550891.610,-75.195,-30.762,-18.555,-1000.000,0.000
1737550891.614,-85.938,-21.973,-2.441,-691.406,0.000
1737550891.618,-59.082,-20.996,-7.812,319.336,0.000
1737550891.621,-37.598,-22.949,-14.160,126.465,0.000
1737550891.625,-75.684,-20.508,-12.207,-933.105,0.000
1737550891.629,-57.129,-14.160,-11.719,-1000.000,0.000
1737550891.633,-28.809,-12.207,-17.578,-679.199,0.000
1737550891.637,6.348,-14.160,-29.297,454.102,0.000
1737550891.641,16.113,-18.555,-25.391,290.039,0.000
1737550891.645,-27.344,-28.320,-9.277,-880.371,0.000
1737550891.649,-22.461,-24.414,0.488,-1000.000,0.000
1737550891.653,2.441,-15.137,1.465,-788.086,0.000
1737550891.657,21.973,-14.648,-8.789,253.906,0.000
1737550891.661,22.949,-16.602,-18.066,727.051,0.000
