timestamps,TP9,AF7,AF8,TP10,Right AUX
1737553107.372,-24.414,-18.555,-13.672,965.332,0.000
1737553107.376,-32.227,-23.438,-15.625,209.473,0.000
1737553107.380,-56.152,-31.738,-15.137,-1000.000,0.000
1737553107.384,-44.434,-28.320,-10.742,-488.281,0.000
1737553107.388,8.301,-20.508,-9.277,879.883,0.000
1737553107.392,11.230,-7.324,-18.066,979.004,0.000
1737553107.396,-36.621,-2.930,-24.902,-484.863,0.000
1737553107.400,-52.734,-24.414,-20.996,-1000.000,0.000
1737553107.404,-44.922,-40.527,-18.555,-928.711,0.000
1737553107.407,-37.598,-20.996,-14.160,-1000.000,0.000
1737553107.411,-35.156,-7.812,-8.301,-1000.000,0.000
1737553107.415,-31.738,-6.348,-12.207,-1000.000,0.000
1737553107.419,-28.809,-4.395,-11.230,-1000.000,0.000
1737553107.423,-38.086,-15.625,-11.230,-1000.000,0.000
1737553107.427,-42.480,-20.020,-15.625,-1000.000,0.000
1737553107.431,-35.645,-14.160,-15.625,-1000.000,0.000
1737553107.435,-29.297,-11.719,-16.113,-939.941,0.000
1737553107.439,-20.996,-23.926,-19.043,-1000.000,0.000
1737553107.443,-1.465,-28.809,-20.508,-760.742,0.000
1737553107.447,8.789,-8.301,-16.602,671.875,0.000
1737553107.450,-7.324,-0.977,-8.789,999.512,0.000
1737553107.454,-0.488,-0.488,-11.719,903.320,0.000
1737553107.458,7.812,-4.883,-16.113,984.863,0.000
1737553107.462,-15.137,-10.742,-12.695,977.539,0.000
1737553107.466,-11.719,-15.625,-12.207,950.684,0.000
1737553107.470,-7.324,-24.414,-19.043,937.012,0.000
1737553107.474,-16.113,-20.508,-21.973,999.512,0.000
1737553107.478,-18.066,-14.648,-20.996,-81.543,0.000
1737553107.482,-29.297,-22.461,-21.484,-919.922,0.000
1737553107.486,-4.883,-15.625,-13.672,504.395,0.000
1737553107.489,-3.906,-14.160,-7.324,999.512,0.000
1737553107.493,-23.926,-12.695,-7.812,756.348,0.000
1737553107.497,-46.875,-14.160,-15.625,-611.328,0.000
1737553107.501,-50.781,-23.438,-22.461,-1000.000,0.000
1737553107.505,-56.641,-25.391,-18.555,-926.758,0.000
1737553107.509,-50.781,-22.461,-17.090,-1000.000,0.000
1737553107.513,-35.645,-20.508,-15.137,-1000.000,0.000
1737553107.517,-24.902,-15.625,-11.719,-1000.000,0.000
1737553107.521,-31.250,-12.695,-15.625,-1000.000,0.000
1737553107.525,-47.363,-9.766,-19.531,-1000.000,0.000
1737553107.529,-41.504,-17.578,-22.949,-1000.000,0.000
1737553107.532,-17.578,-24.902,-23.438,-1000.000,0.000
1737553107.536,0.977,-16.602,-20.508,-974.609,0.000
1737553107.540,-13.672,-14.160,-24.902,-979.492,0.000
1737553107.544,-17.578,-7.324,-21.484,-1000.000,0.000
1737553107.548,6.348,0.488,-18.066,118.164,0.000
1737553107.552,-0.488,-2.930,-19.531,999.512,0.000
1737553107.556,-37.598,-9.277,-20.996,-356.934,0.000
1737553107.560,-38.574,-16.113,-22.461,-1000.000,0.000
1737553107.564,-16.113,-28.809,-21.973,-931.152,0.000
1737553107.568,5.371,-25.879,-22.461,231.934,0.000
1737553107.572,23.926,-0.488,-21.973,999.512,0.000
1737553107.575,-0.977,4.395,-25.391,226.562,0.000
1737553107.579,-47.852,-11.719,-23.926,-1000.000,0.000
1737553107.583,-50.293,-15.625,-17.578,-898.438,0.000
1737553107.587,-27.344,-6.836,-18.555,496.582,0.000
1737553107.591,-5.371,0.000,-15.137,999.512,0.000
1737553107.595,-16.602,-2.930,-8.789,538.086,0.000
1737553107.599,-47.363,-16.602,-9.766,-880.371,0.000
1737553107.603,-50.293,-29.297,-17.090,-774.414,0.000
1737553107.607,-10.742,-22.461,-21.973,687.012,0.000
1737553107.611,-10.742,-12.207,-24.414,999.512,0.000
1737553107.614,-27.832,-8.789,-22.949,745.117,0.000
1737553107.618,-34.180,-15.137,-18.066,-753.906,0.000
1737553107.622,-29.297,-18.066,-18.555,-806.641,0.000
1737553107.626,-13.184,-13.672,-18.555,696.289,0.000
1737553107.630,-24.902,-18.555,-16.113,999.512,0.000
1737553107.634,-30.762,-24.414,-22.949,704.102,0.000
1737553107.638,-50.781,-24.902,-20.996,-636.719,0.000
1737553107.642,-44.922,-16.602,-11.230,-1000.000,0.000
1737553107.646,-29.297,-12.695,-8.301,-969.727,0.000
1737553107.650,-3.418,-28.809,-18.555,204.102,0.000
1737553107.654,-0.977,-41.504,-28.320,650.879,0.000
1737553107.657,-38.086,-33.691,-24.902,-830.566,0.000
1737553107.661,-50.293,-26.367,-21.484,-1000.000,0.000
1737553107.665,-41.992,-25.879,-36.133,-936.035,0.000
1737553107.669,-50.293,-16.113,-34.180,-1000.000,0.000
1737553107.673,-52.246,-12.695,-21.973,-1000.000,0.000
1737553107.677,-35.645,-15.137,-21.484,-943.359,0.000
1737553107.681,-16.602,-18.555,-19.531,-1000.000,0.000
1737553107.685,-17.090,-20.020,-24.414,-672.363,0.000
1737553107.689,-19.043,-19.043,-19.531,753.906,0.000
1737553107.693,-25.879,-19.531,-6.348,999.512,0.000
1737553107.697,-59.082,-18.066,-18.555,-355.957,0.000
1737553107.700,-76.172,-1.465,-24.902,-1000.000,0.000
1737553107.704,-73.730,-9.766,-18.555,-584.961,0.000
1737553107.708,-72.754,-3.418,-10.254,822.266,0.000
1737553107.712,-93.750,5.371,-5.371,892.578,0.000
1737553107.716,-156.250,-16.602,-14.160,-689.941,0.000
1737553107.720,-199.707,0.488,-17.578,-1000.000,0.000
1737553107.724,-253.906,9.766,-13.184,-926.758,0.000
1737553107.728,-300.781,-12.207,-14.160,-1000.000,0.000
1737553107.732,-327.148,0.488,-35.645,-1000.000,0.000
1737553107.736,-371.582,16.113,-34.668,-1000.000,0.000
1737553107.739,-385.254,0.488,-20.508,-1000.000,0.000
1737553107.743,-372.559,3.418,-24.902,-1000.000,0.000
1737553107.747,-375.977,1.953,-20.020,-1000.000,0.000
1737553107.751,-378.906,5.859,-21.484,-1000.000,0.000
1737553107.755,-358.887,16.113,-26.855,-1000.000,0.000
1737553107.759,-360.840,17.578,-25.391,-1000.000,0.000
1737553107.763,-375.488,18.066,-17.578,-1000.000,0.000
1737553107.767,-363.281,24.902,-24.414,-1000.000,0.000
1737553107.771,-328.613,36.133,-30.273,-1000.000,0.000
1737553107.775,-308.105,28.809,-26.367,-1000.000,0.000
1737553107.779,-322.754,30.273,-28.809,-1000.000,0.000
1737553107.782,-334.473,41.016,-28.320,-1000.000,0.000
1737553107.786,-302.246,35.645,-26.367,-1000.000,0.000
1737553107.790,-277.832,32.715,-19.043,-1000.000,0.000
1737553107.794,-251.953,38.574,-15.625,-938.965,0.000
1737553107.798,-235.352,36.133,-21.484,-1000.000,0.000
1737553107.802,-198.242,30.273,-26.855,-721.680,0.000
1737553107.806,-149.414,20.508,-19.531,699.219,0.000
1737553107.810,-170.898,25.879,-27.344,999.512,0.000
1737553107.814,-193.848,41.992,-31.250,903.320,0.000
1737553107.818,-164.551,42.480,-18.555,895.020,0.000
1737553107.821,-111.816,27.344,-16.113,934.570,0.000
1737553107.825,-100.586,12.207,-13.184,984.863,0.000
1737553107.829,-123.047,17.578,-8.301,963.867,0.000
1737553107.833,-131.836,11.719,-7.812,972.168,0.000
1737553107.837,-117.188,-1.953,-17.090,970.703,0.000
1737553107.841,-95.215,7.812,-21.484,970.703,0.000
1737553107.845,-59.570,8.789,-2.930,970.703,0.000
1737553107.849,-63.965,-8.301,0.000,970.703,0.000
1737553107.853,-48.340,-6.348,-13.672,970.703,0.000
1737553107.857,-0.488,-1.953,-14.648,970.703,0.000
1737553107.861,20.020,-10.254,-9.277,970.703,0.000
1737553107.864,46.875,-17.090,-10.254,970.703,0.000
1737553107.868,73.730,-23.926,-12.695,970.703,0.000
1737553107.872,91.797,-29.297,-9.766,970.703,0.000
1737553107.876,103.027,-31.738,-6.836,970.703,0.000
1737553107.880,125.977,-36.621,-7.812,970.703,0.000
1737553107.884,153.320,-37.109,-9.277,970.703,0.000
1737553107.888,169.434,-38.574,-12.207,970.703,0.000
1737553107.892,169.434,-43.457,-16.113,970.703,0.000
1737553107.896,159.668,-39.551,-19.043,970.703,0.000
1737553107.900,186.035,-42.480,-20.996,970.703,0.000
1737553107.904,221.191,-46.387,-21.973,978.027,0.000
1737553107.907,224.121,-35.645,-22.949,936.035,0.000
1737553107.911,179.688,-36.621,-27.832,999.512,0.000
1737553107.915,131.348,-42.969,-24.414,906.250,0.000
1737553107.919,122.070,-47.852,-18.066,240.723,0.000
1737553107.923,159.668,-50.781,-17.578,694.824,0.000
1737553107.927,178.223,-49.316,-17.578,999.512,0.000
1737553107.931,167.969,-44.434,-18.066,983.398,0.000
1737553107.935,159.668,-45.410,-16.602,864.746,0.000
1737553107.939,133.789,-47.852,-22.949,-737.793,0.000
1737553107.943,135.742,-30.273,-19.043,-657.715,0.000
1737553107.946,162.109,-28.809,-3.418,815.430,0.000
1737553107.950,153.809,-36.621,-11.230,999.512,0.000
1737553107.954,123.535,-34.180,-19.043,874.023,0.000
1737553107.958,95.215,-23.438,-12.695,-456.055,0.000
1737553107.962,79.590,-22.949,-17.090,-1000.000,0.000
1737553107.966,44.434,-21.484,-25.879,-928.223,0.000
1737553107.970,-21.973,2.441,-20.020,-1000.000,0.000
1737553107.974,-88.379,-5.371,-20.996,-1000.000,0.000
1737553107.978,-166.504,-21.484,-34.668,-1000.000,0.000
1737553107.982,-210.449,-15.137,-19.531,-1000.000,0.000
1737553107.986,-227.539,-15.137,-9.766,-1000.000,0.000
1737553107.989,-249.023,-13.672,-15.625,-1000.000,0.000
1737553107.993,-268.555,-14.160,-14.160,-1000.000,0.000
1737553107.997,-279.297,-26.855,-17.090,-1000.000,0.000
1737553108.001,-261.230,-8.301,-20.508,-1000.000,0.000
1737553108.005,-248.047,8.301,-24.414,-1000.000,0.000
1737553108.009,-240.723,5.859,-24.414,-1000.000,0.000
1737553108.013,-250.977,-3.906,-21.484,-1000.000,0.000
1737553108.017,-257.812,-5.859,-18.555,-1000.000,0.000
1737553108.021,-216.309,-3.418,-18.555,-1000.000,0.000
1737553108.025,-183.594,-2.930,-20.508,-1000.000,0.000
1737553108.029,-171.875,-0.488,-22.949,-1000.000,0.000
1737553108.032,-190.918,-1.465,-25.391,-1000.000,0.000
1737553108.036,-200.195,16.113,-16.602,-938.477,0.000
1737553108.040,-156.738,26.367,3.906,-1000.000,0.000
1737553108.044,-110.840,31.738,-0.488,-772.949,0.000
1737553108.048,-78.125,36.621,-18.555,672.363,0.000
1737553108.052,-119.629,16.602,-12.695,999.512,0.000
1737553108.056,-141.602,9.277,-12.695,902.832,0.000
1737553108.060,-99.121,8.789,-15.625,986.816,0.000
1737553108.064,-88.867,2.441,-12.695,984.863,0.000
1737553108.068,-99.609,-1.953,-11.230,908.203,0.000
1737553108.071,-84.961,-10.254,-8.301,999.512,0.000
1737553108.075,-95.215,-12.207,-10.742,765.625,0.000
1737553108.079,-109.375,-13.672,-9.277,-799.316,0.000
1737553108.083,-87.891,-19.043,-13.184,-684.570,0.000
1737553108.087,-43.945,-15.137,-14.648,782.227,0.000
1737553108.091,-24.902,-12.695,-15.625,999.512,0.000
1737553108.095,-43.457,-15.625,-20.508,263.672,0.000
1737553108.099,-61.523,-33.691,-14.160,-941.895,0.000
1737553108.103,-47.363,-34.668,-9.766,-1000.000,0.000
1737553108.107,-21.973,-17.090,-18.555,-960.938,0.000
1737553108.111,-27.832,-11.230,-25.391,-1000.000,0.000
1737553108.114,-38.086,-11.230,-22.949,-1000.000,0.000
1737553108.118,-15.137,-11.230,-21.484,-1000.000,0.000
1737553108.122,28.320,-15.625,-19.043,-943.848,0.000
1737553108.126,44.922,-18.555,-13.672,-1000.000,0.000
1737553108.130,34.668,-18.555,-4.395,-413.086,0.000
1737553108.134,58.105,-29.785,3.906,774.902,0.000
1737553108.138,65.918,-42.969,0.977,-595.703,0.000
1737553108.142,71.777,-52.246,-0.977,-848.145,0.000
1737553108.146,101.074,-62.988,10.742,827.637,0.000
1737553108.150,105.469,-62.012,17.090,999.512,0.000
1737553108.153,110.352,-68.359,13.184,908.691,0.000
1737553108.157,132.812,-74.219,12.695,985.840,0.000
1737553108.161,158.203,-67.871,7.324,970.703,0.000
1737553108.165,170.410,-63.965,4.883,970.703,0.000
1737553108.169,187.012,-54.688,7.324,970.703,0.000
1737553108.173,194.824,-50.781,2.441,970.703,0.000
1737553108.177,189.453,-50.293,0.488,970.703,0.000
1737553108.181,216.309,-48.340,0.488,970.703,0.000
1737553108.185,225.586,-44.922,-3.418,970.703,0.000
1737553108.189,224.121,-41.992,-8.301,970.703,0.000
1737553108.193,228.516,-41.992,-15.625,970.703,0.000
1737553108.196,214.355,-40.527,-20.996,970.703,0.000
1737553108.200,199.219,-40.527,-22.949,970.703,0.000
1737553108.204,186.035,-38.574,-26.367,970.703,0.000
1737553108.208,190.918,-34.180,-26.367,970.703,0.000
1737553108.212,170.898,-30.762,-24.414,970.703,0.000
1737553108.216,157.715,-32.227,-27.832,970.703,0.000
1737553108.220,161.133,-35.156,-25.879,986.816,0.000
1737553108.224,142.090,-35.645,-25.391,913.574,0.000
1737553108.228,135.742,-31.738,-26.367,999.512,0.000
1737553108.232,135.254,-29.785,-29.297,864.258,0.000
1737553108.236,106.934,-29.297,-31.250,-589.844,0.000
1737553108.239,102.051,-31.738,-27.832,-1000.000,0.000
1737553108.243,112.793,-37.598,-27.344,-925.781,0.000
1737553108.247,111.816,-30.762,-24.414,-1000.000,0.000
1737553108.251,101.562,-25.391,-24.414,-1000.000,0.000
1737553108.255,88.379,-22.461,-30.273,-1000.000,0.000
1737553108.259,93.262,-20.508,-31.738,-1000.000,0.000
1737553108.263,93.750,-21.973,-30.762,-1000.000,0.000
1737553108.267,89.844,-19.043,-28.320,-1000.000,0.000
1737553108.271,111.328,-16.602,-29.297,-1000.000,0.000
1737553108.275,127.930,-19.531,-34.180,-1000.000,0.000
1737553108.278,93.750,-20.020,-35.645,-966.797,0.000
1737553108.282,63.477,-21.484,-34.668,-993.652,0.000
1737553108.286,55.176,-29.785,-29.297,-1000.000,0.000
1737553108.290,69.824,-30.273,-24.414,316.406,0.000
1737553108.294,58.105,-29.297,-20.996,842.773,0.000
1737553108.298,2.930,-25.879,-22.461,-727.539,0.000
1737553108.302,1.465,-20.508,-24.414,-1000.000,0.000
1737553108.306,28.809,-24.902,-26.367,-985.840,0.000
1737553108.310,32.715,-19.043,-27.832,-518.555,0.000
1737553108.314,28.809,-14.160,-33.691,-271.484,0.000
1737553108.318,26.855,-21.484,-35.156,-904.297,0.000
1737553108.321,31.738,-20.508,-27.344,-1000.000,0.000
1737553108.325,6.836,-15.625,-26.855,-832.520,0.000
1737553108.329,21.484,-11.230,-23.438,708.984,0.000
1737553108.333,39.062,-16.113,-22.461,905.762,0.000
1737553108.337,8.789,-28.809,-25.391,-728.516,0.000
1737553108.341,4.883,-35.645,-24.902,-1000.000,0.000
1737553108.345,20.020,-31.738,-26.367,-928.223,0.000
1737553108.349,20.996,-23.438,-27.344,-1000.000,0.000
1737553108.353,16.113,-15.137,-26.855,-1000.000,0.000
1737553108.357,28.320,-4.395,-26.367,-1000.000,0.000
1737553108.361,29.297,-7.812,-29.785,-1000.000,0.000
1737553108.364,28.809,-10.254,-27.832,-1000.000,0.000
1737553108.368,40.527,-5.859,-20.996,-1000.000,0.000
1737553108.372,30.273,-9.766,-18.066,-1000.000,0.000
1737553108.376,33.691,-10.254,-23.926,-1000.000,0.000
1737553108.380,18.066,-18.555,-25.391,-954.590,0.000
1737553108.384,-13.184,-27.832,-20.508,-1000.000,0.000
1737553108.388,-12.207,-20.996,-24.902,-982.422,0.000
1737553108.392,23.438,-18.555,-28.809,432.129,0.000
1737553108.396,24.414,-22.949,-29.785,237.793,0.000
1737553108.400,-12.207,-20.508,-25.391,-1000.000,0.000
1737553108.403,-5.859,-20.508,-20.508,-310.547,0.000
1737553108.407,24.414,-20.508,-25.391,949.219,0.000
1737553108.411,21.484,-12.207,-26.367,981.445,0.000
1737553108.415,9.277,-7.324,-21.484,932.617,0.000
1737553108.419,5.859,-16.113,-16.113,981.445,0.000
1737553108.423,7.812,-20.996,-14.160,971.191,0.000
1737553108.427,6.348,-20.508,-17.090,969.238,0.000
1737553108.431,-5.371,-25.879,-17.578,974.121,0.000
1737553108.435,-9.277,-32.227,-25.879,963.867,0.000
1737553108.439,-12.207,-27.832,-31.250,952.148,0.000
1737553108.443,-18.066,-20.020,-30.273,978.516,0.000
1737553108.446,-10.254,-11.230,-24.414,911.133,0.000
1737553108.450,-11.719,-10.742,-20.996,999.512,0.000
1737553108.454,-26.855,-16.602,-19.531,493.164,0.000
1737553108.458,-43.945,-17.090,-20.020,-872.559,0.000
1737553108.462,-44.922,-20.020,-22.949,-1000.000,0.000
1737553108.466,-20.020,-24.414,-25.879,-948.730,0.000
1737553108.470,-4.883,-31.738,-27.344,-1000.000,0.000
1737553108.474,-7.324,-34.668,-23.926,-1000.000,0.000
1737553108.478,-20.996,-20.020,-20.508,-1000.000,0.000
1737553108.482,-30.273,-6.348,-19.043,-1000.000,0.000
1737553108.485,-10.254,-10.254,-19.043,-1000.000,0.000
1737553108.489,-0.977,-20.996,-21.484,-1000.000,0.000
1737553108.493,-7.324,-26.367,-31.250,-986.328,0.000
1737553108.497,-25.391,-22.461,-34.668,-973.145,0.000
1737553108.501,-25.391,-19.043,-19.043,-1000.000,0.000
1737553108.505,-5.371,-12.695,-11.230,-17.090,0.000
1737553108.509,6.348,-14.160,-23.438,999.512,0.000
1737553108.513,10.742,-12.207,-19.531,975.098,0.000
1737553108.517,1.465,0.977,-1.465,785.645,0.000
1737553108.521,-10.254,-4.395,-7.324,817.871,0.000
1737553108.525,-9.277,-17.090,-16.602,999.512,0.000
1737553108.528,-14.160,-15.137,-17.578,909.668,0.000
1737553108.532,-14.160,-14.160,-20.996,999.512,0.000
1737553108.536,-14.648,-30.273,-25.879,454.102,0.000
1737553108.540,-30.762,-31.250,-27.344,-958.984,0.000
1737553108.544,-29.297,-25.879,-32.227,-372.559,0.000
1737553108.548,0.977,-19.531,-21.973,925.293,0.000
1737553108.552,13.184,-15.137,-8.789,999.512,0.000
1737553108.556,-15.625,-19.043,-11.230,42.969,0.000
1737553108.560,-41.504,-14.160,-12.207,-1000.000,0.000
1737553108.564,-35.156,-6.836,-14.160,-855.469,0.000
1737553108.568,-4.395,-8.789,-15.625,588.867,0.000
1737553108.571,12.207,-10.742,-16.113,999.512,0.000
1737553108.575,-11.719,-11.230,-16.602,-223.633,0.000
1737553108.579,-20.996,-20.996,-20.508,-1000.000,0.000
1737553108.583,-15.625,-26.855,-17.090,-1000.000,0.000
1737553108.587,-34.668,-16.113,-18.066,-667.969,0.000
1737553108.591,-14.648,-17.578,-17.578,813.477,0.000
1737553108.595,-24.414,-21.973,-16.113,676.270,0.000
1737553108.599,-77.637,-20.996,-21.973,-935.059,0.000
1737553108.603,-73.242,-26.367,-20.020,-922.852,0.000
1737553108.607,-37.598,-24.414,-23.438,547.852,0.000
1737553108.610,-22.949,-21.973,-32.227,999.512,0.000
1737553108.614,-32.715,-24.902,-31.250,891.113,0.000
1737553108.618,-47.852,-21.973,-30.273,-560.547,0.000
1737553108.622,-34.668,-25.391,-33.691,-740.234,0.000
1737553108.626,-14.648,-30.762,-31.738,763.672,0.000
1737553108.630,-10.742,-26.367,-15.625,999.512,0.000
1737553108.634,-6.836,-17.578,-4.883,757.324,0.000
1737553108.638,-37.109,-21.484,-9.766,-564.941,0.000
1737553108.642,-47.363,-21.973,-18.066,-1000.000,0.000
1737553108.646,-33.203,-16.113,-19.043,-733.398,0.000
1737553108.650,-15.137,-13.672,-11.719,699.707,0.000
1737553108.653,-11.719,-12.695,-14.648,888.184,0.000
1737553108.657,-31.250,-17.578,-16.113,-728.027,0.000
1737553108.661,-25.879,-20.996,-16.113,-1000.000,0.000
1737553108.665,-14.648,-16.602,-21.484,-928.711,0.000
1737553108.669,-15.625,-20.020,-20.508,-1000.000,0.000
1737553108.673,0.000,-27.344,-20.020,-1000.000,0.000
1737553108.677,9.766,-24.902,-21.484,-943.359,0.000
1737553108.681,-6.348,-26.367,-14.160,-1000.000,0.000
1737553108.685,-2.441,-21.973,-10.254,-653.320,0.000
1737553108.689,0.977,-13.672,-9.766,721.191,0.000
1737553108.693,-10.254,-21.973,-11.230,999.512,0.000
1737553108.696,-34.180,-26.855,-10.742,-117.188,0.000
1737553108.700,-39.551,-24.414,-6.348,-1000.000,0.000
1737553108.704,-28.809,-18.555,-12.207,-80.566,0.000
1737553108.708,-16.113,-11.719,-16.113,951.660,0.000
1737553108.712,-7.812,-10.254,-11.230,999.512,0.000
1737553108.716,-24.902,-17.578,-14.648,328.125,0.000
1737553108.720,-43.945,-27.832,-22.949,-1000.000,0.000
1737553108.724,-21.973,-16.602,-22.461,-452.637,0.000
1737553108.728,5.859,-7.324,-17.090,843.262,0.000
1737553108.732,0.000,-11.719,-15.625,999.512,0.000
1737553108.735,-29.297,-24.414,-11.719,346.191,0.000
1737553108.739,-63.965,-41.504,-11.230,-854.004,0.000
1737553108.743,-56.641,-28.809,-20.508,-1000.000,0.000
1737553108.747,-37.598,-17.578,-26.855,-376.465,0.000
1737553108.751,-19.043,-7.812,-16.602,930.664,0.000
1737553108.755,-21.484,1.953,-9.766,166.504,0.000
1737553108.759,-28.809,-3.418,-12.207,-1000.000,0.000
1737553108.763,-20.508,-9.277,-9.766,-980.469,0.000
1737553108.767,-34.668,-15.137,-14.160,-974.121,0.000
1737553108.771,-29.785,-14.648,-13.672,-1000.000,0.000
1737553108.775,-9.277,-10.742,-18.066,-997.070,0.000
1737553108.778,-16.113,-17.090,-28.809,-957.520,0.000
1737553108.782,-39.062,-20.996,-25.879,-1000.000,0.000
1737553108.786,-38.574,-21.484,-20.020,-393.066,0.000
1737553108.790,-0.977,-11.719,-14.160,976.074,0.000
1737553108.794,-1.953,-3.906,-12.695,670.898,0.000
1737553108.798,-21.973,-6.348,-11.230,-760.254,0.000
1737553108.802,-10.742,-16.602,-12.695,-1000.000,0.000
1737553108.806,-9.277,-27.344,-15.625,-376.953,0.000
1737553108.810,5.859,-20.020,-10.742,846.191,0.000
1737553108.814,-12.695,-12.695,-9.277,999.512,0.000
1737553108.817,-17.578,-8.789,-10.254,924.805,0.000
1737553108.821,10.742,-8.789,-3.906,982.422,0.000
1737553108.825,6.836,-17.578,-0.488,970.703,0.000
1737553108.829,-18.066,-20.996,-8.789,970.703,0.000
1737553108.833,-39.551,-29.297,-15.137,970.703,0.000
1737553108.837,-33.691,-29.297,-14.160,970.703,0.000
1737553108.841,-20.020,-18.555,-25.879,980.957,0.000
1737553108.845,-23.438,-16.113,-19.043,933.105,0.000
1737553108.849,-24.414,-11.230,-6.348,979.492,0.000
1737553108.853,-30.273,-20.996,-18.066,974.609,0.000
1737553108.857,-46.875,-31.250,-20.996,-337.891,0.000
1737553108.860,-52.246,-26.367,-15.625,-1000.000,0.000
1737553108.864,-44.922,-24.414,-15.625,-937.012,0.000
1737553108.868,-27.832,-28.320,-18.066,-1000.000,0.000
1737553108.872,-12.695,-28.320,-21.973,-1000.000,0.000
1737553108.876,-22.949,-20.996,-20.508,-1000.000,0.000
1737553108.880,-18.066,-12.695,-20.996,-1000.000,0.000
1737553108.884,2.441,-12.695,-26.367,-1000.000,0.000
1737553108.888,-3.906,-20.508,-25.391,-1000.000,0.000
1737553108.892,-12.695,-19.043,-23.438,-1000.000,0.000
1737553108.896,-15.137,-23.438,-26.855,-1000.000,0.000
1737553108.900,-20.996,-37.109,-30.273,-951.172,0.000
1737553108.903,-12.207,-27.344,-25.391,-1000.000,0.000
1737553108.907,11.230,-15.137,-17.578,-940.918,0.000
1737553108.911,1.465,-16.113,-16.602,579.590,0.000
1737553108.915,-15.625,-14.160,-18.066,810.547,0.000
1737553108.919,-27.832,-17.578,-19.043,-906.738,0.000
1737553108.923,-8.789,-18.555,-18.066,-249.512,0.000
1737553108.927,31.250,-8.789,-11.719,999.512,0.000
1737553108.931,22.949,-8.789,-12.695,948.730,0.000
1737553108.935,-3.906,-12.695,-22.949,943.359,0.000
1737553108.939,-9.277,-7.324,-22.949,978.516,0.000
1737553108.942,-16.113,-10.254,-17.090,985.840,0.000
1737553108.946,-27.832,-21.973,-11.719,915.039,0.000
1737553108.950,-21.973,-26.855,-10.254,999.512,0.000
1737553108.954,-16.113,-20.020,-17.578,863.281,0.000
1737553108.958,-35.156,-17.578,-18.555,-530.762,0.000
1737553108.962,-39.062,-18.555,-26.855,-1000.000,0.000
1737553108.966,-18.066,-20.020,-33.203,-839.844,0.000
1737553108.970,-1.953,-24.902,-21.484,426.758,0.000
1737553108.974,-31.250,-18.555,-21.484,442.871,0.000
1737553108.978,-69.336,-12.207,-18.066,-970.703,0.000
1737553108.982,-43.457,-8.301,-9.766,-1000.000,0.000
1737553108.985,-19.043,-4.395,-13.184,-952.637,0.000
1737553108.989,-30.762,-1.465,-9.766,-1000.000,0.000
1737553108.993,-33.691,-6.348,-6.836,-1000.000,0.000
1737553108.997,-32.227,-13.184,-10.742,-944.824,0.000
1737553109.001,-27.344,-12.207,-14.648,-1000.000,0.000
1737553109.005,-18.555,-12.695,-15.625,-894.531,0.000
1737553109.009,17.090,-13.672,-13.184,508.789,0.000
1737553109.013,22.461,-12.207,-14.160,999.512,0.000
1737553109.017,-5.859,-15.625,-20.020,530.273,0.000
1737553109.021,-6.836,-20.508,-19.043,252.930,0.000
1737553109.025,3.418,-19.043,-13.672,904.785,0.000
1737553109.028,1.953,-12.695,-9.766,999.512,0.000
1737553109.032,-5.859,-2.441,-10.254,937.500,0.000
1737553109.036,-15.625,-1.953,-11.719,978.027,0.000
1737553109.040,-24.414,-10.254,-17.090,971.191,0.000
1737553109.044,-23.438,-17.090,-18.555,982.422,0.000
1737553109.048,-26.855,-21.484,-17.090,910.645,0.000
1737553109.052,-7.324,-24.414,-19.531,999.512,0.000
1737553109.056,3.906,-29.297,-24.414,647.461,0.000
1737553109.060,-41.992,-42.480,-27.832,-759.766,0.000
1737553109.064,-84.961,-41.992,-16.113,-1000.000,0.000
1737553109.067,-79.102,-16.602,-13.184,-938.965,0.000
1737553109.071,-51.270,-2.930,-19.531,-1000.000,0.000
1737553109.075,-41.504,0.000,-24.902,-1000.000,0.000
1737553109.079,-30.273,-3.418,-21.484,-958.008,0.000
1737553109.083,-22.461,-9.277,-18.555,-1000.000,0.000
1737553109.087,-28.320,-15.137,-26.367,-994.629,0.000
1737553109.091,-11.230,-15.137,-29.297,433.105,0.000
1737553109.095,-10.742,-23.926,-22.461,558.594,0.000
1737553109.099,-38.086,-27.344,-19.043,-963.867,0.000
1737553109.103,-33.691,-16.602,-23.926,-1000.000,0.000
1737553109.107,-11.719,-16.113,-26.367,269.531,0.000
1737553109.110,-0.488,-21.973,-25.879,999.512,0.000
1737553109.114,-13.184,-16.113,-23.926,882.812,0.000
1737553109.118,-42.969,-20.020,-19.531,-616.699,0.000
1737553109.122,-23.926,-27.344,-14.160,-942.871,0.000
1737553109.126,35.645,-9.277,-12.207,675.293,0.000
1737553109.130,39.062,-4.883,-13.672,999.512,0.000
1737553109.134,-4.883,-14.648,-17.578,990.723,0.000
1737553109.138,-64.453,-24.902,-20.020,-104.492,0.000
1737553109.142,-88.867,-31.738,-20.996,-961.914,0.000
1737553109.146,-43.457,-18.555,-19.531,504.883,0.000
1737553109.149,-20.508,-13.672,-15.137,999.512,0.000
1737553109.153,-22.949,-14.160,-13.184,881.348,0.000
1737553109.157,-41.016,-11.230,-11.230,-285.156,0.000
1737553109.161,-48.828,-14.648,-6.836,-1000.000,0.000
1737553109.165,-36.621,-11.719,-11.719,-936.035,0.000
1737553109.169,-27.344,-10.742,-11.719,446.777,0.000
1737553109.173,-33.691,-21.484,-2.930,944.824,0.000
1737553109.177,-92.773,-27.344,-10.742,-685.059,0.000
1737553109.181,-125.977,-4.883,7.812,-1000.000,0.000
1737553109.185,-136.719,9.277,-6.836,-925.293,0.000
1737553109.189,-151.367,-10.254,-21.484,-1000.000,0.000
1737553109.192,-209.473,1.953,-16.113,-1000.000,0.000
1737553109.196,-286.133,3.906,-21.973,-1000.000,0.000
1737553109.200,-320.801,-3.906,-22.949,-1000.000,0.000
1737553109.204,-372.070,-1.465,-33.203,-1000.000,0.000
1737553109.208,-386.230,1.465,-27.344,-1000.000,0.000
1737553109.212,-372.559,0.000,-15.625,-1000.000,0.000
1737553109.216,-389.160,0.977,-22.461,-1000.000,0.000
1737553109.220,-377.441,13.672,-29.785,-1000.000,0.000
1737553109.224,-351.074,13.672,-26.855,-1000.000,0.000
1737553109.228,-374.512,2.930,-25.879,-1000.000,0.000
1737553109.232,-388.672,8.789,-30.762,-1000.000,0.000
1737553109.235,-411.621,14.648,-23.926,-1000.000,0.000
1737553109.239,-434.570,15.137,-20.020,-939.941,0.000
1737553109.243,-387.695,18.555,-23.926,-1000.000,0.000
1737553109.247,-326.172,24.414,-19.531,-792.969,0.000
1737553109.251,-304.688,18.066,-26.367,677.734,0.000
1737553109.255,-289.062,12.207,-28.320,999.512,0.000
1737553109.259,-278.320,19.043,-28.809,720.215,0.000
1737553109.263,-285.645,33.691,-30.762,949.707,0.000
1737553109.267,-232.910,40.039,-24.414,990.723,0.000
1737553109.271,-187.988,36.133,-24.414,958.984,0.000
1737553109.274,-180.664,30.273,-28.320,973.145,0.000
1737553109.278,-164.062,18.066,-24.902,970.703,0.000
1737553109.282,-161.621,10.254,-12.207,971.191,0.000
1737553109.286,-146.484,13.184,-10.742,968.262,0.000
1737553109.290,-130.371,7.812,-20.996,971.191,0.000
1737553109.294,-129.883,4.883,-25.879,979.004,0.000
1737553109.298,-94.238,5.859,-30.273,881.348,0.000
1737553109.302,-58.105,2.930,-21.973,924.316,0.000
1737553109.306,-41.016,-2.441,-10.254,931.152,0.000
1737553109.310,-24.902,-0.977,-6.836,999.512,0.000
1737553109.314,1.465,-7.324,-4.883,890.625,0.000
1737553109.317,3.418,-23.438,-4.883,-547.363,0.000
1737553109.321,20.508,-30.273,0.488,-1000.000,0.000
1737553109.325,71.289,-30.762,1.465,50.781,0.000
1737553109.329,133.301,-30.762,0.977,999.512,0.000
1737553109.333,149.902,-34.180,1.465,946.777,0.000
1737553109.337,128.418,-37.598,-1.953,953.125,0.000
1737553109.341,118.652,-41.016,-7.812,976.562,0.000
1737553109.345,127.441,-39.062,-9.766,970.703,0.000
1737553109.349,153.809,-35.156,-13.184,970.703,0.000
1737553109.353,167.480,-33.203,-17.090,970.703,0.000
1737553109.357,162.598,-38.574,-13.672,970.703,0.000
1737553109.360,166.016,-42.480,-15.625,970.703,0.000
1737553109.364,170.898,-39.062,-14.160,970.703,0.000
1737553109.368,166.504,-32.715,-10.742,970.703,0.000
1737553109.372,166.504,-31.250,-15.137,970.703,0.000
1737553109.376,164.062,-37.109,-14.160,970.215,0.000
1737553109.380,159.668,-41.016,-14.160,970.703,0.000
1737553109.384,152.832,-37.109,-17.578,970.703,0.000
1737553109.388,150.391,-34.668,-15.625,970.703,0.000
1737553109.392,157.715,-29.297,-16.602,970.703,0.000
1737553109.396,140.137,-24.902,-17.578,970.703,0.000
1737553109.399,125.000,-26.367,-8.301,987.305,0.000
1737553109.403,120.117,-21.484,-9.277,912.109,0.000
1737553109.407,109.863,-10.254,-15.625,999.512,0.000
1737553109.411,73.242,-8.301,-19.531,853.027,0.000
1737553109.415,5.859,-17.090,-21.973,-605.957,0.000
1737553109.419,-56.152,-16.602,-23.438,-1000.000,0.000
1737553109.423,-121.094,-11.230,-31.250,-925.781,0.000
1737553109.427,-147.461,-12.207,-31.738,-1000.000,0.000
1737553109.431,-182.617,-15.137,-25.879,-1000.000,0.000
1737553109.435,-250.488,-11.719,-24.414,-1000.000,0.000
1737553109.439,-281.250,-1.953,-25.879,-1000.000,0.000
1737553109.442,-278.809,-0.488,-21.484,-1000.000,0.000
1737553109.446,-273.438,2.441,-24.902,-1000.000,0.000
1737553109.450,-281.738,4.883,-27.344,-1000.000,0.000
1737553109.454,-279.785,11.230,-16.602,-1000.000,0.000
1737553109.458,-263.672,12.695,-21.484,-1000.000,0.000
1737553109.462,-244.141,4.883,-19.043,-1000.000,0.000
1737553109.466,-230.957,6.348,-16.602,-1000.000,0.000
1737553109.470,-215.820,5.859,-19.043,-1000.000,0.000
1737553109.474,-201.172,2.930,-17.090,-1000.000,0.000
1737553109.478,-182.129,6.348,-14.160,-942.871,0.000
1737553109.481,-156.250,16.602,-10.254,-1000.000,0.000
1737553109.485,-135.742,13.672,-0.977,-881.348,0.000
1737553109.489,-92.773,13.672,-7.812,568.359,0.000
1737553109.493,-72.754,20.508,-18.555,999.512,0.000
1737553109.497,-70.801,22.461,-11.230,897.461,0.000
1737553109.501,-58.105,17.090,-9.766,985.840,0.000
1737553109.505,-54.688,7.324,-11.230,970.703,0.000
1737553109.509,-37.109,3.906,-9.277,970.703,0.000
1737553109.513,-17.090,-0.488,-16.113,970.703,0.000
1737553109.517,-16.113,-6.348,-18.066,971.191,0.000
1737553109.521,23.438,-6.836,-11.719,979.980,0.000
1737553109.524,68.848,-8.789,-14.160,937.988,0.000
1737553109.528,80.078,-6.836,-20.996,970.215,0.000
1737553109.532,65.430,5.371,-14.648,993.652,0.000
1737553109.536,-9.277,-8.301,-7.812,-269.043,0.000
1737553109.540,-27.832,-22.461,-4.883,-1000.000,0.000
1737553109.544,-0.488,-12.695,-15.137,-967.773,0.000
1737553109.548,7.812,-11.230,-15.137,-954.102,0.000
1737553109.552,14.648,-17.578,-9.766,-771.484,0.000
1737553109.556,10.254,-14.160,-15.137,-954.102,0.000
1737553109.560,5.371,-11.719,-12.207,-1000.000,0.000
1737553109.564,0.000,-24.902,-13.184,-1000.000,0.000
1737553109.567,-5.371,-22.949,-11.230,-961.426,0.000
1737553109.571,-24.902,-11.230,-16.602,-677.734,0.000
1737553109.575,-54.199,-22.461,-18.555,-891.113,0.000
1737553109.579,-71.289,-22.949,-19.043,-1000.000,0.000
1737553109.583,-102.539,-7.812,-23.926,-980.469,0.000
1737553109.587,-98.633,-19.043,-20.996,-1000.000,0.000
1737553109.591,-83.496,-29.785,-27.344,-1000.000,0.000
1737553109.595,-101.074,-18.066,-37.598,-1000.000,0.000
1737553109.599,-74.707,-4.883,-34.668,-1000.000,0.000
1737553109.603,-83.496,-10.254,-30.762,-1000.000,0.000
1737553109.606,-150.391,-11.230,-29.785,-1000.000,0.000
1737553109.610,-176.758,4.395,-26.367,-1000.000,0.000
1737553109.614,-181.641,7.812,-23.438,-1000.000,0.000
1737553109.618,-165.527,-5.371,-22.461,-1000.000,0.000
1737553109.622,-153.320,-5.371,-25.879,-954.590,0.000
1737553109.626,-166.016,1.953,-32.715,-1000.000,0.000
1737553109.630,-142.578,-5.371,-36.621,-398.438,0.000
1737553109.634,-105.469,-19.531,-32.715,856.934,0.000
1737553109.638,-100.098,-1.465,-25.391,999.023,0.000
1737553109.642,-96.191,29.785,-28.320,925.781,0.000
1737553109.646,-80.566,31.250,-28.320,982.422,0.000
1737553109.649,-74.707,6.836,-15.625,970.215,0.000
1737553109.653,-56.641,0.000,-10.742,970.703,0.000
1737553109.657,-33.691,3.418,-15.137,970.703,0.000
1737553109.661,-21.484,-0.488,-9.766,970.703,0.000
1737553109.665,-6.836,-5.371,-8.789,970.703,0.000
1737553109.669,10.254,-10.254,-20.996,970.703,0.000
1737553109.673,29.785,-15.137,-23.438,970.703,0.000
1737553109.677,44.434,-12.207,-17.090,970.703,0.000
1737553109.681,61.035,-8.789,-16.602,970.703,0.000
1737553109.685,81.543,-14.648,-20.996,970.703,0.000
1737553109.688,97.656,-23.438,-14.648,970.703,0.000
1737553109.692,101.074,-39.062,-16.113,970.703,0.000
1737553109.696,112.793,-58.105,-21.973,970.703,0.000
1737553109.700,128.906,-56.152,-12.695,970.703,0.000
1737553109.704,143.066,-45.898,-11.230,970.703,0.000
1737553109.708,161.133,-43.945,-10.254,970.703,0.000
1737553109.712,175.293,-47.852,-4.395,970.703,0.000
1737553109.716,187.012,-43.457,-11.230,970.703,0.000
1737553109.720,189.941,-45.410,-14.160,970.703,0.000
1737553109.724,189.453,-50.293,-10.742,970.703,0.000
1737553109.728,185.059,-49.316,-10.742,970.703,0.000
1737553109.731,183.105,-45.898,-10.254,970.703,0.000
1737553109.735,191.895,-42.969,-13.184,970.703,0.000
1737553109.739,195.801,-44.922,-20.508,970.703,0.000
1737553109.743,179.199,-47.852,-17.090,983.887,0.000
1737553109.747,173.340,-46.387,-12.695,922.852,0.000
1737553109.751,171.875,-46.875,-19.043,986.816,0.000
1737553109.755,164.551,-51.758,-25.391,974.609,0.000
1737553109.759,147.949,-52.734,-26.367,-541.504,0.000
1737553109.763,150.879,-48.828,-21.484,-926.758,0.000
1737553109.767,184.082,-41.992,-20.020,649.414,0.000
1737553109.771,180.664,-40.527,-16.113,999.512,0.000
1737553109.774,159.180,-45.410,-12.695,875.488,0.000
1737553109.778,123.047,-48.828,-17.090,-609.375,0.000
1737553109.782,120.117,-39.062,-18.066,-840.820,0.000
1737553109.786,153.809,-32.227,-18.555,754.395,0.000
1737553109.790,145.996,-38.086,-20.508,999.512,0.000
1737553109.794,126.953,-37.598,-21.973,999.512,0.000
1737553109.798,111.816,-31.738,-22.949,-137.695,0.000
1737553109.802,93.750,-32.227,-23.438,-898.926,0.000
1737553109.806,113.281,-31.738,-21.973,601.562,0.000
1737553109.810,129.883,-26.855,-19.531,999.512,0.000
1737553109.813,120.605,-27.832,-20.020,896.973,0.000
1737553109.817,104.004,-38.086,-27.344,-314.453,0.000
1737553109.821,87.402,-38.086,-24.902,-1000.000,0.000
1737553109.825,100.586,-24.902,-16.113,-156.250,0.000
1737553109.829,90.820,-17.090,-15.137,999.512,0.000
1737553109.833,63.965,-22.949,-16.602,862.793,0.000
1737553109.837,44.922,-37.598,-16.602,-614.746,0.000
1737553109.841,51.758,-33.691,-14.648,-1000.000,0.000
1737553109.845,52.734,-25.879,-18.555,-925.781,0.000
1737553109.849,38.086,-25.879,-22.949,-1000.000,0.000
1737553109.853,35.156,-29.785,-19.043,-1000.000,0.000
1737553109.856,27.344,-30.762,-15.137,-938.965,0.000
1737553109.860,23.438,-31.250,-20.020,-1000.000,0.000
1737553109.864,30.762,-29.785,-23.438,-730.469,0.000
1737553109.868,53.711,-21.484,-18.555,650.879,0.000
1737553109.872,55.176,-24.902,-15.137,999.512,0.000
1737553109.876,34.180,-28.320,-16.113,281.738,0.000
1737553109.880,10.254,-30.273,-18.555,-998.535,0.000
1737553109.884,18.555,-37.109,-27.344,-677.734,0.000
1737553109.888,50.781,-39.551,-35.645,701.660,0.000
1737553109.892,67.383,-32.715,-23.438,999.512,0.000
1737553109.896,52.734,-22.461,-15.137,458.496,0.000
1737553109.899,29.785,-20.508,-17.578,-920.898,0.000
1737553109.903,37.109,-14.648,-10.254,-901.367,0.000
1737553109.907,41.992,-9.766,-8.301,583.008,0.000
1737553109.911,33.203,-15.625,-15.625,999.512,0.000
1737553109.915,27.832,-20.508,-23.438,170.898,0.000
1737553109.919,15.625,-28.320,-23.438,-976.074,0.000
1737553109.923,0.000,-26.855,-19.531,-1000.000,0.000
1737553109.927,12.207,-16.602,-22.461,-966.797,0.000
1737553109.931,20.996,-21.973,-24.414,-1000.000,0.000
1737553109.935,1.953,-37.109,-20.996,-1000.000,0.000
1737553109.938,1.465,-38.086,-20.996,-993.164,0.000
1737553109.942,-7.324,-29.785,-17.090,-1000.000,0.000
1737553109.946,-14.648,-24.414,-12.695,-989.746,0.000
1737553109.950,-15.625,-22.949,-20.996,-855.957,0.000
1737553109.954,-24.414,-23.438,-21.973,-929.199,0.000
1737553109.958,-18.066,-15.625,-18.066,-988.281,0.000
1737553109.962,-31.250,-7.324,-20.508,-1000.000,0.000
1737553109.966,-22.461,-8.789,-24.902,-190.918,0.000
1737553109.970,20.020,-9.277,-21.973,962.402,0.000
1737553109.974,17.578,-20.996,-12.695,999.512,0.000
1737553109.978,-11.230,-29.297,-16.113,-351.562,0.000
1737553109.981,-32.227,-22.461,-25.879,-1000.000,0.000
1737553109.985,0.000,-22.949,-20.996,549.316,0.000
1737553109.989,16.602,-22.949,-13.672,999.512,0.000
1737553109.993,-1.953,-24.902,-13.184,964.355,0.000
1737553109.997,-12.207,-32.715,-10.254,747.070,0.000
1737553110.001,-6.348,-21.484,-7.812,406.738,0.000
1737553110.005,-1.465,-6.348,-7.324,888.672,0.000
1737553110.009,-17.090,-13.672,-15.625,986.816,0.000
1737553110.013,-18.555,-16.602,-24.414,999.512,0.000
1737553110.017,-36.133,-12.207,-20.020,-24.414,0.000
1737553110.021,-34.180,-20.020,-13.184,-1000.000,0.000
1737553110.024,-21.973,-25.391,-15.137,-971.680,0.000
1737553110.028,-37.598,-17.090,-21.484,-984.863,0.000
1737553110.032,-37.598,-17.578,-21.973,-1000.000,0.000
1737553110.036,-22.949,-18.066,-24.414,-1000.000,0.000
1737553110.040,-7.812,-15.137,-24.902,-1000.000,0.000
1737553110.044,-13.672,-17.090,-23.438,-1000.000,0.000
1737553110.048,-28.809,-16.113,-26.855,-1000.000,0.000
1737553110.052,-24.414,-16.602,-30.273,-1000.000,0.000
1737553110.056,-14.648,-27.344,-39.062,-961.426,0.000
1737553110.060,-5.859,-29.297,-43.457,-1000.000,0.000
1737553110.063,4.395,-17.090,-32.715,-978.027,0.000
1737553110.067,19.531,-14.648,-13.184,261.719,0.000
1737553110.071,12.207,-16.113,-10.742,999.512,0.000
1737553110.075,-12.695,-14.160,-20.508,823.242,0.000
1737553110.079,-41.992,-15.625,-20.996,-699.219,0.000
1737553110.083,-41.992,-21.973,-13.672,-499.512,0.000
1737553110.087,-15.137,-16.602,-16.602,940.430,0.000
1737553110.091,0.488,-8.789,-17.578,958.008,0.000
1737553110.095,7.812,-15.137,-18.555,999.512,0.000
1737553110.099,-24.902,-28.320,-21.484,-140.137,0.000
1737553110.103,-32.715,-21.484,-20.020,-872.559,0.000
1737553110.106,3.906,-8.301,-20.508,565.918,0.000
1737553110.110,-0.488,-15.625,-18.555,999.512,0.000
1737553110.114,-20.996,-22.461,-20.020,712.891,0.000
1737553110.118,-39.551,-17.090,-23.926,-657.715,0.000
1737553110.122,-40.527,-15.625,-22.949,-1000.000,0.000
1737553110.126,-32.715,-19.531,-27.832,-929.199,0.000
1737553110.130,-20.996,-17.578,-33.203,-1000.000,0.000
1737553110.134,-17.090,-20.020,-26.367,-1000.000,0.000
1737553110.138,-21.973,-16.602,-16.602,-1000.000,0.000
1737553110.142,-15.625,-4.883,-11.230,-1000.000,0.000
1737553110.145,-16.113,-9.766,-13.672,-1000.000,0.000
1737553110.149,-0.977,-7.324,-18.066,-1000.000,0.000
1737553110.153,12.207,-6.836,-24.902,-1000.000,0.000
1737553110.157,3.906,-12.207,-22.949,-954.590,0.000
1737553110.161,6.836,-11.230,-8.789,-1000.000,0.000
1737553110.165,2.441,-11.719,-8.301,-964.355,0.000
1737553110.169,13.672,-5.859,-14.648,371.582,0.000
1737553110.173,-1.953,-9.277,-17.090,999.512,0.000
1737553110.177,-38.574,-26.855,-22.949,90.332,0.000
1737553110.181,-51.270,-31.738,-26.367,-1000.000,0.000
1737553110.185,-28.320,-26.855,-21.973,91.309,0.000
1737553110.188,4.883,-22.461,-20.508,999.512,0.000
1737553110.192,-12.695,-19.531,-23.926,983.887,0.000
1737553110.196,-28.320,-21.484,-22.461,852.539,0.000
1737553110.200,-20.996,-18.066,-24.902,239.258,0.000
1737553110.204,-18.066,-20.996,-28.809,688.477,0.000
1737553110.208,-15.137,-32.227,-27.344,999.512,0.000
1737553110.212,-14.160,-25.391,-24.414,969.238,0.000
1737553110.216,-31.250,-17.578,-24.414,-179.199,0.000
1737553110.220,-43.945,-13.672,-20.996,-1000.000,0.000
1737553110.224,-39.062,-15.625,-18.066,-950.684,0.000
1737553110.228,-27.832,-17.090,-21.973,-996.094,0.000
1737553110.231,-23.926,-14.160,-20.020,-1000.000,0.000
1737553110.235,-29.785,-20.996,-19.043,-1000.000,0.000
1737553110.239,-28.809,-21.484,-23.926,-993.652,0.000
1737553110.243,-28.320,-21.484,-25.391,-958.008,0.000
1737553110.247,-22.949,-26.855,-24.414,-1000.000,0.000
1737553110.251,-20.020,-19.531,-31.250,-292.969,0.000
1737553110.255,-13.672,-14.648,-37.109,413.574,0.000
1737553110.259,-29.297,-17.578,-28.320,-746.582,0.000
1737553110.263,-34.180,-19.043,-21.973,-1000.000,0.000
1737553110.267,-17.090,-26.367,-29.297,-73.730,0.000
1737553110.270,8.301,-26.855,-23.438,981.934,0.000
1737553110.274,11.719,-29.785,-16.113,982.422,0.000
1737553110.278,-33.691,-35.645,-19.043,-471.191,0.000
1737553110.282,-44.922,-22.949,-18.066,-1000.000,0.000
1737553110.286,-1.953,-12.695,-13.184,539.551,0.000
1737553110.290,8.301,-9.277,-7.324,999.512,0.000
1737553110.294,-5.371,-6.836,-8.301,961.426,0.000
1737553110.298,-13.184,-8.301,-15.625,424.316,0.000
1737553110.302,-30.762,-14.160,-18.555,-958.984,0.000
1737553110.306,-38.574,-20.996,-15.137,-540.527,0.000
1737553110.310,-6.836,-17.090,-14.648,905.762,0.000
1737553110.313,6.836,-13.672,-15.625,979.004,0.000
1737553110.317,-32.227,-21.484,-12.695,-389.648,0.000
1737553110.321,-57.617,-26.367,-18.066,-1000.000,0.000
1737553110.325,-41.992,-30.762,-30.273,-469.238,0.000
1737553110.329,-26.367,-30.273,-32.227,755.371,0.000
1737553110.333,-20.996,-21.973,-16.602,999.512,0.000
1737553110.337,-30.273,-15.137,-10.742,243.652,0.000
1737553110.341,-41.504,-19.043,-22.949,-998.047,0.000
1737553110.345,-28.320,-21.484,-20.996,-664.551,0.000
1737553110.349,-1.465,-22.461,-12.207,786.133,0.000
1737553110.353,12.695,-21.484,-16.602,999.512,0.000
1737553110.356,-8.789,-21.484,-23.438,-418.945,0.000
1737553110.360,-12.207,-27.344,-27.344,-1000.000,0.000
1737553110.364,-26.855,-28.320,-24.414,-1000.000,0.000
1737553110.368,-56.641,-26.367,-20.996,-483.887,0.000
1737553110.372,-33.691,-19.043,-23.926,792.480,0.000
1737553110.376,-53.711,-21.973,-26.367,-284.180,0.000
1737553110.380,-72.266,-27.344,-30.762,-1000.000,0.000
1737553110.384,-48.828,-27.832,-32.227,-982.910,0.000
1737553110.388,-31.738,-27.344,-27.344,-411.621,0.000
1737553110.392,-18.066,-19.043,-27.832,904.785,0.000
1737553110.395,-27.832,-14.160,-33.203,966.797,0.000
1737553110.399,-44.922,-19.043,-29.785,-581.543,0.000
1737553110.403,-41.016,-16.602,-22.461,-490.234,0.000
1737553110.407,-17.090,-13.672,-17.578,923.340,0.000
1737553110.411,-17.578,-13.672,-18.066,999.512,0.000
1737553110.415,-14.648,-11.230,-21.484,901.855,0.000
1737553110.419,-36.621,-14.648,-23.926,323.242,0.000
1737553110.423,-43.945,-10.742,-17.578,657.227,0.000
1737553110.427,-30.762,0.000,-18.066,999.512,0.000
1737553110.431,-40.527,3.418,-13.184,948.242,0.000
1737553110.435,-41.504,-3.418,-14.160,953.613,0.000
1737553110.438,-39.551,-3.418,-24.902,-371.582,0.000
1737553110.442,-48.828,-4.395,-27.832,-1000.000,0.000
1737553110.446,-85.449,0.488,-20.508,-291.992,0.000
1737553110.450,-131.348,13.672,-18.555,974.121,0.000
1737553110.454,-182.129,-4.395,-12.695,241.211,0.000
1737553110.458,-265.137,-19.043,-5.859,-1000.000,0.000
1737553110.462,-351.562,-10.254,-9.277,-992.188,0.000
1737553110.466,-397.949,-14.160,-2.441,-968.262,0.000
1737553110.470,-421.387,-14.160,7.812,-1000.000,0.000
1737553110.474,-434.570,-7.812,5.371,-1000.000,0.000
1737553110.477,-428.223,-14.648,-7.812,-1000.000,0.000
1737553110.481,-424.805,-12.695,-2.441,-1000.000,0.000
1737553110.485,-416.992,3.906,8.789,-1000.000,0.000
1737553110.489,-416.504,3.906,-3.418,-1000.000,0.000
1737553110.493,-402.344,-5.859,-6.836,-1000.000,0.000
1737553110.497,-380.859,-6.836,6.836,-1000.000,0.000
1737553110.501,-369.141,-7.812,9.766,-1000.000,0.000
1737553110.505,-357.422,-3.906,5.371,-1000.000,0.000
1737553110.509,-332.520,-10.254,10.254,-1000.000,0.000
1737553110.513,-300.781,-7.812,-5.371,-1000.000,0.000
1737553110.517,-283.691,-11.719,-16.113,-1000.000,0.000
1737553110.520,-268.555,-5.859,-5.371,-954.102,0.000
1737553110.524,-256.348,-4.395,9.277,-1000.000,0.000
1737553110.528,-221.680,-14.648,-1.953,-500.000,0.000
1737553110.532,-164.062,-6.348,-11.230,901.367,0.000
1737553110.536,-209.473,-4.883,-8.789,755.859,0.000
1737553110.540,-276.367,-8.301,-12.695,-884.766,0.000
1737553110.544,-281.738,-4.395,-11.719,-613.770,0.000
1737553110.548,-269.043,-5.371,-5.859,871.094,0.000
1737553110.552,-233.398,-10.742,0.977,999.512,0.000
1737553110.556,-226.562,7.324,2.441,917.969,0.000
1737553110.560,-219.727,-4.395,0.000,983.887,0.000
1737553110.563,-198.242,-15.625,7.324,970.703,0.000
1737553110.567,-168.457,-7.324,12.695,970.703,0.000
1737553110.571,-133.789,-4.395,6.348,970.703,0.000
1737553110.575,-143.555,-3.418,5.859,970.703,0.000
1737553110.579,-147.461,-3.906,7.324,970.703,0.000
1737553110.583,-115.723,8.789,-1.953,970.703,0.000
1737553110.587,-117.188,3.418,-12.695,970.703,0.000
1737553110.591,-128.906,-20.508,-6.348,970.703,0.000
1737553110.595,-130.371,-24.902,5.371,970.703,0.000
1737553110.599,-114.258,-13.672,-0.977,970.703,0.000
1737553110.602,-78.125,-7.812,-0.488,970.703,0.000
1737553110.606,-83.984,-17.578,1.465,970.703,0.000
1737553110.610,-106.445,-23.926,-12.207,970.703,0.000
1737553110.614,-104.980,-20.020,-19.043,970.703,0.000
1737553110.618,-108.887,-19.043,-17.090,970.703,0.000
1737553110.622,-122.559,-11.230,-21.973,978.516,0.000
1737553110.626,-153.809,2.441,-22.461,944.336,0.000
1737553110.630,-115.723,6.348,-25.391,959.961,0.000
1737553110.634,-37.598,-31.250,-21.484,997.559,0.000
1737553110.638,-64.453,-33.203,-36.133,-120.605,0.000
1737553110.642,-67.871,-2.441,-49.316,-1000.000,0.000
1737553110.645,-17.578,-13.184,-18.555,-892.090,0.000
1737553110.649,-28.809,-4.395,-17.578,460.449,0.000
1737553110.653,-50.781,20.996,-30.273,999.512,0.000
1737553110.657,-34.668,29.785,7.812,900.879,0.000
1737553110.661,-29.785,5.859,20.020,981.445,0.000
1737553110.665,-39.062,-19.531,-5.859,970.703,0.000
1737553110.669,-27.344,-32.227,-20.508,970.703,0.000
1737553110.673,-1.953,-40.527,-36.621,970.703,0.000
1737553110.677,4.883,-31.250,-58.105,970.703,0.000
1737553110.681,-0.977,-10.254,-41.992,970.703,0.000
1737553110.685,-5.859,7.324,-24.414,970.703,0.000
1737553110.688,-8.789,2.930,-9.277,970.703,0.000
1737553110.692,20.020,-9.766,0.488,970.703,0.000
1737553110.696,30.273,-1.465,-5.371,970.703,0.000
1737553110.700,42.480,-1.465,-15.625,970.703,0.000
1737553110.704,77.637,-22.949,-23.926,970.703,0.000
1737553110.708,101.562,-8.789,-31.250,970.703,0.000
1737553110.712,102.051,-3.418,-44.922,970.703,0.000
1737553110.716,72.266,-22.461,-30.762,970.703,0.000
1737553110.720,70.312,-18.555,-20.996,970.703,0.000
1737553110.724,113.770,-15.625,-27.344,970.703,0.000
1737553110.727,147.949,-21.484,-27.344,970.703,0.000
1737553110.731,143.555,-23.438,-23.438,970.703,0.000
1737553110.735,145.020,-22.949,-22.949,970.703,0.000
1737553110.739,168.457,-15.137,-26.367,970.703,0.000
1737553110.743,183.105,-21.973,-30.273,970.703,0.000
1737553110.747,188.965,-34.668,-29.785,970.703,0.000
1737553110.751,190.430,-33.691,-26.367,970.703,0.000
1737553110.755,197.266,-29.297,-27.832,970.703,0.000
1737553110.759,212.891,-30.273,-24.902,970.703,0.000
1737553110.763,202.148,-27.832,-28.320,970.703,0.000
1737553110.767,212.891,-14.648,-33.691,970.703,0.000
1737553110.770,203.613,-20.020,-37.109,970.703,0.000
1737553110.774,169.434,-18.066,-35.645,973.145,0.000
1737553110.778,133.301,-12.207,-32.715,972.168,0.000
1737553110.782,136.230,-20.508,-31.738,917.480,0.000
1737553110.786,119.141,-13.672,-35.645,999.512,0.000
1737553110.790,11.719,-4.883,-27.832,324.219,0.000
1737553110.794,-67.871,-21.484,-11.719,-952.148,0.000
1737553110.798,-72.754,-18.066,-22.949,-1000.000,0.000
1737553110.802,-84.473,-1.953,-37.109,-960.449,0.000
1737553110.806,-104.004,-4.883,-33.203,-1000.000,0.000
1737553110.809,-138.672,-12.207,-32.715,-1000.000,0.000
1737553110.813,-177.734,-13.184,-37.598,-1000.000,0.000
1737553110.817,-237.305,-20.508,-43.457,-1000.000,0.000
1737553110.821,-273.438,-37.598,-39.551,-1000.000,0.000
1737553110.825,-199.219,-16.602,-23.926,-1000.000,0.000
1737553110.829,-166.992,19.531,-31.250,-1000.000,0.000
1737553110.833,-201.172,10.254,-24.414,-1000.000,0.000
1737553110.837,-161.133,-8.301,-91.797,-1000.000,0.000
1737553110.841,-125.000,-55.176,-243.652,-1000.000,0.000
1737553110.845,-159.668,-49.805,-74.707,-1000.000,0.000
1737553110.849,-175.781,-1.953,87.402,-1000.000,0.000
1737553110.852,-145.996,8.789,41.504,-971.191,0.000
1737553110.856,-120.605,25.391,26.367,-993.652,0.000
1737553110.860,-117.188,38.574,10.742,-1000.000,0.000
1737553110.864,-81.543,22.461,-10.254,179.688,0.000
1737553110.868,-67.383,9.766,-18.555,999.512,0.000
1737553110.872,-43.457,-1.465,-32.227,920.898,0.000
1737553110.876,-35.156,-7.812,-38.574,966.309,0.000
1737553110.880,-46.875,-6.836,-0.977,972.168,0.000
1737553110.884,-10.254,-2.930,2.930,985.352,0.000
1737553110.888,13.672,5.371,-13.672,908.691,0.000
1737553110.892,19.043,3.906,-14.648,999.512,0.000
1737553110.895,29.785,-1.465,-17.090,717.773,0.000
1737553110.899,23.926,-3.906,-21.973,-719.727,0.000
1737553110.903,43.945,-10.254,-19.531,-1000.000,0.000
1737553110.907,42.480,-13.672,-13.672,-934.082,0.000
1737553110.911,-4.395,-6.836,-22.461,-1000.000,0.000
1737553110.915,-38.574,-20.020,-32.715,-1000.000,0.000
1737553110.919,-29.297,-20.508,-30.273,-1000.000,0.000
1737553110.923,-12.207,-11.230,-40.527,-1000.000,0.000
1737553110.927,-38.574,-6.348,-43.945,-1000.000,0.000
1737553110.931,-60.059,-20.996,-26.367,-1000.000,0.000
1737553110.934,-51.758,-24.414,-24.902,-1000.000,0.000
1737553110.938,-21.484,-9.277,-33.691,-1000.000,0.000
1737553110.942,-56.152,-12.207,-36.133,-1000.000,0.000
1737553110.946,-63.477,-9.277,-37.598,-1000.000,0.000
1737553110.950,-19.531,-3.418,-30.762,-1000.000,0.000
1737553110.954,-49.316,-0.977,-41.016,-1000.000,0.000
1737553110.958,-62.012,-20.508,-51.758,-1000.000,0.000
1737553110.962,-26.855,-33.691,-37.598,-1000.000,0.000
1737553110.966,-28.320,-11.230,-23.438,-1000.000,0.000
1737553110.970,-32.227,-3.418,-14.160,-1000.000,0.000
1737553110.974,-6.836,-10.254,-10.254,-1000.000,0.000
1737553110.977,5.859,-4.395,-9.277,-1000.000,0.000
1737553110.981,28.809,2.930,-15.625,-1000.000,0.000
1737553110.985,43.457,-28.320,-67.383,-1000.000,0.000
1737553110.989,58.105,-8.301,-62.988,-1000.000,0.000
1737553110.993,106.445,20.020,3.906,-966.309,0.000
1737553110.997,110.840,0.977,7.812,-1000.000,0.000
1737553111.001,87.891,-0.488,-7.812,-1000.000,0.000
1737553111.005,116.699,14.160,-15.625,220.703,0.000
1737553111.009,124.023,15.625,-20.996,999.512,0.000
1737553111.013,126.465,-4.395,-22.461,943.848,0.000
1737553111.017,83.984,-12.695,-25.391,-240.723,0.000
1737553111.020,99.121,-17.090,-24.902,-1000.000,0.000
1737553111.024,162.109,-15.137,-24.902,-945.801,0.000
1737553111.028,202.148,-7.324,-23.926,-999.023,0.000
1737553111.032,233.398,-10.254,-19.043,-1000.000,0.000
1737553111.036,266.113,-20.508,-32.227,-1000.000,0.000
1737553111.040,281.250,-24.414,-45.410,-1000.000,0.000
1737553111.044,274.414,-20.020,-19.043,-1000.000,0.000
1737553111.048,286.133,-22.949,-7.812,-1000.000,0.000
1737553111.052,292.969,-32.715,-11.719,-1000.000,0.000
1737553111.056,295.898,-29.785,-9.766,-1000.000,0.000
1737553111.059,306.641,-27.832,-9.766,-989.746,0.000
1737553111.063,315.918,-35.645,-9.766,-1000.000,0.000
1737553111.067,319.824,-30.273,-13.672,-1000.000,0.000
1737553111.071,327.148,-25.391,-16.602,-545.410,0.000
1737553111.075,327.637,-31.250,-18.555,-521.973,0.000
1737553111.079,322.266,-36.133,-21.484,-1000.000,0.000
1737553111.083,313.477,-38.086,-19.043,-754.395,0.000
1737553111.087,319.336,-42.969,-15.625,609.863,0.000
1737553111.091,321.777,-45.410,-16.113,999.512,0.000
1737553111.095,276.855,-43.945,-18.555,494.141,0.000
1737553111.099,251.465,-44.922,-13.184,-819.824,0.000
1737553111.102,263.672,-35.156,-18.555,-1000.000,0.000
1737553111.106,253.418,-33.691,-17.578,-943.848,0.000
1737553111.110,205.566,-41.504,-10.742,-1000.000,0.000
1737553111.114,183.594,-47.852,-17.090,-1000.000,0.000
1737553111.118,182.617,-36.621,-13.672,-1000.000,0.000
1737553111.122,127.441,-17.578,-2.441,-1000.000,0.000
1737553111.126,80.566,-30.273,-10.742,-1000.000,0.000
1737553111.130,44.922,-29.297,-28.320,-1000.000,0.000
1737553111.134,1.465,-18.066,-31.738,-1000.000,0.000
1737553111.138,-35.645,-6.348,-24.414,-1000.000,0.000
1737553111.141,-55.664,-7.812,-24.414,-1000.000,0.000
1737553111.145,-141.113,-4.395,-30.762,-1000.000,0.000
1737553111.149,-211.426,-9.277,-28.320,-1000.000,0.000
1737553111.153,-196.289,-16.113,-22.461,-1000.000,0.000
1737553111.157,-225.586,2.930,-15.137,-1000.000,0.000
1737553111.161,-254.395,-7.324,-16.113,-1000.000,0.000
1737553111.165,-246.582,-5.859,-25.879,-1000.000,0.000
1737553111.169,-263.672,11.719,-28.320,-1000.000,0.000
1737553111.173,-280.273,4.395,-20.996,-1000.000,0.000
1737553111.177,-237.305,-17.090,-27.344,-1000.000,0.000
1737553111.181,-221.680,-11.719,-36.133,-1000.000,0.000
1737553111.184,-238.770,-3.906,-17.090,-1000.000,0.000
1737553111.188,-191.895,-42.480,2.441,-1000.000,0.000
1737553111.192,-157.227,-20.508,-6.348,-1000.000,0.000
1737553111.196,-157.227,24.414,-16.113,-1000.000,0.000
1737553111.200,-123.535,14.160,-22.461,-1000.000,0.000
1737553111.204,-104.980,2.930,-20.020,-949.219,0.000
1737553111.208,-123.535,15.625,-11.719,-1000.000,0.000
1737553111.212,-68.359,0.977,-6.348,-536.621,0.000
1737553111.216,-8.789,-10.254,-9.277,784.668,0.000
1737553111.220,-14.648,2.930,-5.371,999.512,0.000
1737553111.224,17.090,8.789,-0.977,919.434,0.000
1737553111.227,48.340,1.465,-1.953,983.398,0.000
1737553111.231,55.176,-10.742,-4.883,970.703,0.000
1737553111.235,63.477,-15.625,-5.859,970.703,0.000
1737553111.239,104.980,-14.648,-6.348,970.703,0.000
1737553111.243,119.141,-20.996,-9.766,970.703,0.000
1737553111.247,120.605,-25.391,-14.160,970.703,0.000
1737553111.251,141.602,-31.250,-18.555,970.703,0.000
1737553111.255,174.805,-38.574,-20.020,970.703,0.000
1737553111.259,181.641,-38.086,-16.602,970.703,0.000
1737553111.263,166.016,-37.598,-16.113,979.004,0.000
1737553111.266,184.570,-38.574,-18.066,941.895,0.000
1737553111.270,189.453,-36.133,-15.137,960.449,0.000
1737553111.274,193.359,-28.809,-12.695,999.512,0.000
1737553111.278,192.871,-35.156,-15.625,-155.273,0.000
1737553111.282,188.965,-42.480,-13.672,-1000.000,0.000
1737553111.286,204.102,-37.109,-17.578,-337.891,0.000
1737553111.290,209.961,-29.297,-21.973,963.379,0.000
1737553111.294,208.008,-29.785,-24.902,710.938,0.000
1737553111.298,175.293,-35.156,-26.367,-791.504,0.000
1737553111.302,148.438,-36.133,-20.996,-1000.000,0.000
1737553111.306,129.883,-33.203,-11.230,-935.547,0.000
1737553111.309,124.023,-29.297,-14.648,-1000.000,0.000
1737553111.313,149.414,-30.762,-19.043,-1000.000,0.000
1737553111.317,132.324,-39.062,-11.719,-1000.000,0.000
1737553111.321,87.402,-33.203,-24.902,-1000.000,0.000
1737553111.325,98.633,-20.996,-24.414,-1000.000,0.000
1737553111.329,60.059,-9.766,-20.020,-1000.000,0.000
1737553111.333,-26.367,3.906,-17.090,-1000.000,0.000
1737553111.337,-98.145,-5.859,-25.879,-1000.000,0.000
1737553111.341,-143.555,-3.418,-33.691,-1000.000,0.000
1737553111.345,-197.754,2.441,-27.344,-1000.000,0.000
1737553111.349,-234.863,-3.906,-28.320,-1000.000,0.000
1737553111.352,-247.070,-0.977,-26.855,-1000.000,0.000
1737553111.356,-260.742,-4.883,-14.160,-1000.000,0.000
1737553111.360,-251.465,0.488,-16.113,-1000.000,0.000
1737553111.364,-252.441,2.441,-20.020,-1000.000,0.000
1737553111.368,-251.465,-0.977,-15.625,-1000.000,0.000
1737553111.372,-229.004,9.277,-13.672,-1000.000,0.000
1737553111.376,-258.789,3.418,-10.254,-1000.000,0.000
1737553111.380,-257.324,1.953,-11.719,-1000.000,0.000
1737553111.384,-214.844,-4.395,-8.789,-1000.000,0.000
1737553111.388,-222.656,-16.113,-4.883,-1000.000,0.000
1737553111.391,-208.984,-11.230,-9.277,-1000.000,0.000
1737553111.395,-150.879,1.465,-11.230,-1000.000,0.000
1737553111.399,-143.555,6.348,-15.625,-996.582,0.000
1737553111.403,-155.273,13.184,-21.484,-1000.000,0.000
1737553111.407,-123.535,3.906,-21.973,-1000.000,0.000
1737553111.411,-101.074,-6.348,-9.766,-890.625,0.000
1737553111.415,-90.820,0.000,-5.859,-880.859,0.000
1737553111.419,-78.613,5.371,-15.625,-1000.000,0.000
1737553111.423,-43.457,2.930,-18.555,-317.871,0.000
1737553111.427,3.906,2.441,-18.555,929.688,0.000
1737553111.431,7.812,-0.488,-21.973,988.770,0.000
1737553111.434,-1.953,-8.789,-23.438,933.105,0.000
1737553111.438,6.348,-18.555,-23.926,939.453,0.000
1737553111.442,25.879,-25.879,-27.344,952.637,0.000
1737553111.446,53.223,-26.855,-24.902,977.539,0.000
1737553111.450,69.824,-27.832,-19.043,967.773,0.000
1737553111.454,77.148,-24.414,-16.602,971.680,0.000
1737553111.458,114.258,-29.785,-16.602,961.426,0.000
1737553111.462,158.203,-36.621,-20.996,973.633,0.000
1737553111.466,153.809,-32.715,-28.809,946.777,0.000
1737553111.470,153.809,-20.508,-23.438,956.543,0.000
1737553111.473,133.789,-20.996,-26.855,999.512,0.000
1737553111.477,96.680,-35.645,-35.645,-98.145,0.000
1737553111.481,87.402,-36.621,-21.484,-1000.000,0.000
1737553111.485,109.863,-25.391,-4.883,-558.105,0.000
1737553111.489,131.836,-21.973,-6.836,761.719,0.000
1737553111.493,133.789,-26.855,-7.812,999.512,0.000
1737553111.497,121.582,-29.785,-7.812,-73.730,0.000
1737553111.501,120.605,-31.738,-4.883,-1000.000,0.000
1737553111.505,134.277,-33.203,-7.812,-500.000,0.000
1737553111.509,145.996,-29.785,-18.066,821.777,0.000
1737553111.513,139.160,-29.297,-20.508,999.512,0.000
1737553111.516,127.441,-31.738,-15.137,908.691,0.000
1737553111.520,130.371,-34.180,-14.648,966.797,0.000
1737553111.524,134.766,-35.156,-22.949,984.863,0.000
1737553111.528,129.395,-36.133,-23.926,920.410,0.000
1737553111.532,116.211,-35.645,-23.926,999.512,0.000
1737553111.536,111.816,-37.598,-22.949,910.156,0.000
1737553111.540,87.402,-36.621,-18.066,-573.242,0.000
1737553111.544,87.402,-34.668,-18.066,-426.758,0.000
1737553111.548,108.398,-38.086,-18.066,912.598,0.000
1737553111.552,107.422,-33.203,-16.602,999.512,0.000
1737553111.556,102.051,-30.762,-20.508,775.391,0.000
1737553111.559,76.172,-34.180,-24.414,-744.141,0.000
1737553111.563,64.941,-30.273,-28.809,-881.836,0.000
1737553111.567,100.098,-25.879,-30.762,655.762,0.000
1737553111.571,132.324,-30.273,-21.973,999.512,0.000
1737553111.575,80.566,-33.203,-20.020,306.152,0.000
1737553111.579,41.016,-35.156,-25.879,-858.398,0.000
1737553111.583,39.551,-35.645,-20.508,-1000.000,0.000
1737553111.587,25.879,-33.691,-12.695,-455.566,0.000
1737553111.591,35.156,-29.297,-8.301,806.641,0.000
1737553111.595,53.223,-28.809,-12.207,999.512,0.000
1737553111.598,36.621,-27.344,-14.160,-308.594,0.000
1737553111.602,12.207,-21.973,-11.719,-859.375,0.000
1737553111.606,31.250,-21.484,-16.113,702.148,0.000
1737553111.610,47.363,-16.113,-19.531,999.512,0.000
1737553111.614,67.871,-10.742,-17.090,897.949,0.000
1737553111.618,56.152,-12.695,-13.184,986.328,0.000
1737553111.622,0.977,-17.090,-9.766,973.145,0.000
1737553111.626,-3.418,-21.484,-14.160,973.633,0.000
1737553111.630,5.371,-22.461,-20.996,916.016,0.000
1737553111.634,9.766,-22.461,-21.973,999.512,0.000
1737553111.638,14.648,-26.855,-21.484,488.770,0.000
1737553111.641,-2.441,-29.785,-20.996,-863.281,0.000
1737553111.645,18.066,-28.809,-20.020,22.949,0.000
1737553111.649,14.160,-26.367,-20.020,999.512,0.000
1737553111.653,12.207,-23.926,-18.066,999.512,0.000
1737553111.657,10.742,-22.949,-11.230,502.441,0.000
1737553111.661,-5.371,-20.020,-13.184,-883.789,0.000
1737553111.665,14.648,-18.066,-18.555,-194.336,0.000
1737553111.669,25.391,-13.184,-19.043,999.512,0.000
1737553111.673,20.020,-15.625,-22.461,951.660,0.000
1737553111.677,23.438,-11.719,-19.043,944.824,0.000
1737553111.681,41.504,-5.859,-9.766,979.004,0.000
1737553111.684,37.109,-12.695,-8.789,970.703,0.000
1737553111.688,21.484,-18.066,-11.719,970.703,0.000
1737553111.692,-2.441,-21.484,-15.625,970.703,0.000
1737553111.696,-16.113,-23.438,-17.578,970.703,0.000
1737553111.700,-0.977,-20.020,-17.090,970.703,0.000
1737553111.704,2.930,-15.137,-19.043,976.562,0.000
1737553111.708,14.648,-19.531,-20.996,942.871,0.000
1737553111.712,9.277,-19.531,-18.555,999.512,0.000
1737553111.716,-29.297,-20.508,-13.672,929.688,0.000
1737553111.720,-52.246,-31.738,-15.137,384.766,0.000
1737553111.723,-38.574,-36.621,-13.184,746.582,0.000
1737553111.727,-27.344,-28.809,-11.719,992.676,0.000
1737553111.731,-21.973,-16.602,-18.066,999.512,0.000
1737553111.735,-34.668,-13.184,-17.090,760.742,0.000
1737553111.739,-59.570,-16.113,-11.719,-647.949,0.000
1737553111.743,-53.223,-20.020,-12.207,-1000.000,0.000
1737553111.747,-34.180,-20.020,-11.230,-465.332,0.000
1737553111.751,-8.301,-15.625,-15.137,863.770,0.000
1737553111.755,-6.348,-20.020,-29.297,833.496,0.000
1737553111.759,-33.203,-28.320,-26.367,-671.875,0.000
1737553111.763,-32.715,-21.484,-13.672,-1000.000,0.000
1737553111.766,-27.344,-13.672,-8.301,-316.406,0.000
1737553111.770,-2.441,-13.184,-9.766,873.535,0.000
1737553111.774,5.371,-20.508,-12.207,999.512,0.000
1737553111.778,-23.438,-27.344,-20.508,-408.691,0.000
1737553111.782,-26.855,-29.785,-23.926,-984.375,0.000
1737553111.786,6.836,-21.484,-16.602,626.465,0.000
1737553111.790,-3.906,-11.719,-13.184,999.512,0.000
1737553111.794,-5.371,-10.254,-13.184,896.973,0.000
1737553111.798,14.648,-7.812,-11.719,981.934,0.000
1737553111.802,11.230,-8.301,-14.648,982.910,0.000
1737553111.806,6.348,-14.160,-19.531,913.086,0.000
1737553111.809,-0.488,-19.043,-17.578,999.512,0.000
1737553111.813,-20.996,-20.020,-12.207,848.633,0.000
1737553111.817,-60.547,-21.973,-16.113,-613.770,0.000
1737553111.821,-51.270,-20.996,-22.949,-1000.000,0.000
1737553111.825,-35.645,-24.902,-21.973,-1000.000,0.000
1737553111.829,-36.621,-23.438,-16.113,-774.902,0.000
1737553111.833,-32.227,-30.273,-18.066,-16.113,0.000
1737553111.837,-26.367,-40.527,-24.414,-717.773,0.000
1737553111.841,-12.207,-28.809,-20.508,-1000.000,0.000
1737553111.845,-49.805,-13.672,-15.625,-944.824,0.000
1737553111.848,-69.824,-13.184,-17.090,-1000.000,0.000
1737553111.852,-47.852,-23.926,-24.902,-1000.000,0.000
1737553111.856,-37.598,-22.461,-25.391,-941.406,0.000
1737553111.860,-27.344,-11.719,-19.043,-1000.000,0.000
1737553111.864,-28.320,-10.742,-20.020,-794.434,0.000
1737553111.868,-11.230,-10.742,-15.625,577.148,0.000
1737553111.872,0.977,-17.090,-14.648,999.512,0.000
1737553111.876,0.977,-15.137,-16.113,440.918,0.000
1737553111.880,-31.250,-13.672,-22.949,-949.219,0.000
1737553111.884,-39.551,-18.066,-28.320,-737.793,0.000
1737553111.888,1.953,-9.277,-17.090,696.777,0.000
1737553111.891,13.184,-5.371,-12.695,999.512,0.000
1737553111.895,20.020,-16.602,-17.578,801.270,0.000
1737553111.899,-2.930,-37.598,-24.902,-680.664,0.000
1737553111.903,-41.504,-48.340,-38.086,-979.980,0.000
1737553111.907,-22.461,-31.250,-31.738,561.523,0.000
1737553111.911,-19.531,-8.789,-17.578,999.512,0.000
1737553111.915,-39.551,3.906,-13.672,507.324,0.000
1737553111.919,-59.082,3.906,-9.277,-803.711,0.000
1737553111.923,-63.477,-3.418,-9.766,-1000.000,0.000
1737553111.927,-41.504,-9.277,-15.625,-1000.000,0.000
1737553111.930,-18.555,-13.184,-20.996,-585.938,0.000
1737553111.934,-19.043,-14.648,-15.137,164.062,0.000
1737553111.938,-24.902,-19.531,-14.648,-853.516,0.000
1737553111.942,-2.441,-16.113,-14.160,-869.629,0.000
1737553111.946,-1.465,-11.230,-10.254,734.375,0.000
1737553111.950,-2.930,-13.672,-11.719,999.512,0.000
1737553111.954,1.953,-12.695,-15.137,902.344,0.000
1737553111.958,1.953,-13.184,-26.367,986.816,0.000
1737553111.962,0.488,-17.578,-26.855,970.703,0.000
1737553111.966,-13.672,-20.508,-18.555,970.703,0.000
1737553111.970,-11.230,-15.625,-13.672,970.703,0.000
1737553111.973,-16.602,-9.277,-12.207,970.703,0.000
1737553111.977,-23.438,-17.578,-19.043,970.703,0.000
1737553111.981,-9.277,-9.766,-23.926,976.562,0.000
1737553111.985,3.906,0.000,-18.066,954.102,0.000
1737553111.989,-7.812,-15.625,-18.555,943.848,0.000
1737553111.993,-31.738,-23.926,-24.902,999.512,0.000
1737553111.997,-51.270,-18.066,-23.438,24.414,0.000
1737553112.001,-74.219,-11.719,-28.320,-1000.000,0.000
1737553112.005,-64.941,-9.766,-24.414,-1000.000,0.000
1737553112.009,-48.828,-9.766,-19.043,194.824,0.000
1737553112.013,-27.344,-16.113,-25.391,999.512,0.000
1737553112.016,-41.016,-29.297,-27.832,-435.547,0.000
1737553112.020,-56.152,-18.555,-28.320,-1000.000,0.000
1737553112.024,-39.551,-9.766,-28.809,-922.852,0.000
1737553112.028,-17.578,-11.719,-21.484,154.297,0.000
1737553112.032,0.488,-16.113,-25.391,999.512,0.000
1737553112.036,-13.184,-24.902,-28.320,639.648,0.000
1737553112.040,-37.598,-26.855,-16.602,-858.887,0.000
1737553112.044,-19.043,-20.020,-8.301,-406.250,0.000
1737553112.048,8.301,-13.184,-13.672,983.887,0.000
1737553112.052,6.836,-13.184,-22.461,974.609,0.000
1737553112.055,-6.348,-11.719,-23.926,932.129,0.000
1737553112.059,-29.297,-13.672,-20.508,981.445,0.000
1737553112.063,-34.180,-19.531,-16.113,970.703,0.000
1737553112.067,-23.926,-29.785,-10.254,970.703,0.000
1737553112.071,-14.648,-36.133,-6.836,970.703,0.000
1737553112.075,-23.438,-30.273,-12.207,970.703,0.000
1737553112.079,-21.973,-20.020,-18.066,970.703,0.000
1737553112.083,-19.531,-18.066,-20.996,970.703,0.000
1737553112.087,-41.992,-16.602,-25.391,970.703,0.000
1737553112.091,-33.691,-11.230,-18.066,970.703,0.000
1737553112.095,-22.461,-9.766,-13.184,970.703,0.000
1737553112.098,-29.297,-12.695,-18.066,970.703,0.000
1737553112.102,-15.625,-13.672,-14.648,983.398,0.000
1737553112.106,6.836,-14.160,-12.695,924.805,0.000
1737553112.110,6.348,-14.648,-21.973,995.605,0.000
1737553112.114,-11.230,-17.578,-21.973,926.758,0.000
1737553112.118,-33.203,-21.973,-8.301,-393.066,0.000
1737553112.122,-34.668,-21.973,-10.742,-1000.000,0.000
1737553112.126,-36.133,-16.602,-14.160,-627.930,0.000
1737553112.130,-8.301,-11.230,-13.672,792.480,0.000
1737553112.134,9.277,-16.602,-17.090,904.785,0.000
1737553112.137,-22.461,-11.230,-22.461,-688.965,0.000
1737553112.141,-28.809,0.000,-21.973,-1000.000,0.000
1737553112.145,-25.879,-0.488,-14.648,-926.758,0.000
1737553112.149,-48.340,-5.859,-12.695,-1000.000,0.000
1737553112.153,-52.246,-5.859,-17.090,-969.727,0.000
1737553112.157,-47.363,-5.371,-28.809,-997.070,0.000
1737553112.161,-31.738,-20.508,-32.227,-1000.000,0.000
1737553112.165,-7.812,-20.508,-19.043,202.148,0.000
1737553112.169,-6.836,-15.137,-11.719,999.512,0.000
1737553112.173,-13.184,-18.555,-13.672,918.945,0.000
1737553112.177,-20.020,-16.602,-18.066,968.262,0.000
1737553112.180,-26.367,-14.160,-20.996,973.145,0.000
1737553112.184,-15.137,-21.484,-24.902,970.703,0.000
1737553112.188,-21.484,-25.391,-19.043,970.703,0.000
1737553112.192,-28.320,-20.996,-14.160,970.703,0.000
1737553112.196,-11.230,-20.996,-20.508,970.703,0.000
1737553112.200,8.789,-22.949,-27.832,970.703,0.000
1737553112.204,-7.324,-28.320,-23.926,970.703,0.000
1737553112.208,-27.344,-31.250,-24.902,970.703,0.000
1737553112.212,-26.367,-29.785,-22.461,970.703,0.000
1737553112.216,-21.484,-27.832,-12.207,970.703,0.000
1737553112.220,-36.133,-13.672,-23.438,977.539,0.000
1737553112.223,-36.133,-6.836,-24.414,947.266,0.000
1737553112.227,-28.320,-17.090,-16.602,952.637,0.000
1737553112.231,-34.668,-19.531,-15.625,999.512,0.000
1737553112.235,-56.152,-22.461,-19.043,-128.906,0.000
1737553112.239,-78.125,-30.762,-24.414,-1000.000,0.000
1737553112.243,-67.383,-33.203,-24.902,-956.543,0.000
1737553112.247,-52.246,-26.855,-25.391,-992.676,0.000
1737553112.251,-42.480,-27.344,-22.461,-1000.000,0.000
1737553112.255,-36.133,-22.949,-17.578,-1000.000,0.000
1737553112.259,-33.691,-13.184,-16.602,-1000.000,0.000
1737553112.262,-33.203,-20.996,-22.461,-1000.000,0.000
1737553112.266,-28.320,-27.344,-23.438,-1000.000,0.000
1737553112.270,-32.227,-26.367,-20.508,-1000.000,0.000
1737553112.274,-31.250,-28.809,-22.949,-945.312,0.000
1737553112.278,-17.090,-18.066,-27.344,-1000.000,0.000
1737553112.282,7.324,-1.953,-17.578,-739.258,0.000
1737553112.286,45.410,-0.977,-12.695,656.738,0.000
1737553112.290,24.414,-12.695,-18.066,999.512,0.000
1737553112.294,-22.461,-22.461,-22.461,906.738,0.000
1737553112.298,-29.297,-19.531,-24.414,984.375,0.000
1737553112.302,-29.785,-12.695,-15.625,970.703,0.000
1737553112.305,-46.387,-16.113,-9.277,970.703,0.000
1737553112.309,-56.641,-19.531,-11.230,970.703,0.000
1737553112.313,-56.152,-16.602,-15.137,970.703,0.000
1737553112.317,-49.805,-23.926,-18.555,970.703,0.000
1737553112.321,-39.062,-32.227,-21.484,972.656,0.000
1737553112.325,-35.645,-20.508,-17.578,973.633,0.000
1737553112.329,-12.207,-20.020,-9.766,916.504,0.000
1737553112.333,-20.996,-25.391,-14.160,999.512,0.000
1737553112.337,-54.199,-18.555,-22.461,445.312,0.000
1737553112.341,-64.453,-17.090,-22.949,-964.844,0.000
1737553112.345,-42.969,-22.461,-20.020,-773.926,0.000
1737553112.348,-12.695,-18.555,-18.555,769.043,0.000
1737553112.352,-5.371,-15.137,-24.414,999.512,0.000
1737553112.356,-20.996,-33.691,-28.320,-514.648,0.000
1737553112.360,-14.160,-36.621,-21.973,-1000.000,0.000
1737553112.364,0.488,-17.578,-20.508,-928.223,0.000
1737553112.368,11.719,-6.348,-19.531,-1000.000,0.000
1737553112.372,7.812,-5.859,-12.695,-1000.000,0.000
1737553112.376,-36.621,-8.789,-12.695,-939.941,0.000
1737553112.380,-63.477,-16.113,-13.184,-1000.000,0.000
1737553112.384,-50.781,-17.090,-8.301,-810.547,0.000
1737553112.387,-16.113,-8.789,-5.859,587.402,0.000
1737553112.391,8.789,-13.184,-13.184,999.512,0.000
1737553112.395,4.395,-20.020,-17.578,937.012,0.000
1737553112.399,-19.043,-16.113,-16.113,-407.715,0.000
1737553112.403,-24.414,-13.672,-15.625,-722.656,0.000
1737553112.407,-23.926,-16.113,-13.184,793.457,0.000
1737553112.411,-33.203,-25.391,-14.160,999.512,0.000
1737553112.415,-6.348,-24.414,-20.020,999.023,0.000
1737553112.419,-13.184,-18.555,-19.531,-126.465,0.000
1737553112.423,-45.410,-17.578,-19.531,-787.109,0.000
1737553112.427,-27.344,-15.137,-22.461,647.949,0.000
1737553112.430,-11.230,-19.531,-21.973,999.512,0.000
1737553112.434,-26.367,-21.484,-26.367,814.941,0.000
1737553112.438,-56.152,-15.137,-28.809,-465.332,0.000
1737553112.442,-78.613,-17.578,-16.113,-1000.000,0.000
1737553112.446,-30.273,-25.391,-15.625,-500.000,0.000
1737553112.450,38.574,-16.602,-21.973,795.898,0.000
1737553112.454,39.551,-15.137,-14.160,919.434,0.000
1737553112.458,0.488,-24.414,-15.137,-427.246,0.000
1737553112.462,-64.453,-19.043,-15.137,-1000.000,0.000
1737553112.466,-79.102,-17.090,-19.043,-414.551,0.000
1737553112.470,-40.039,-17.578,-27.832,791.992,0.000
1737553112.473,-5.371,-11.230,-23.438,999.512,0.000
1737553112.477,-16.113,-7.324,-20.508,79.590,0.000
1737553112.481,-58.105,-18.066,-20.020,-1000.000,0.000
1737553112.485,-72.754,-37.109,-20.508,-132.812,0.000
1737553112.489,-47.852,-26.367,-21.973,999.512,0.000
1737553112.493,-33.203,-20.996,-26.367,982.422,0.000
1737553112.497,-41.504,-27.344,-21.484,-137.207,0.000
1737553112.501,-47.363,-27.832,-13.672,-1000.000,0.000
1737553112.505,-37.598,-30.762,-16.113,-688.477,0.000
1737553112.509,-21.484,-23.926,-10.742,616.211,0.000
1737553112.512,-4.883,-20.020,-1.953,999.512,0.000
1737553112.516,-17.578,-24.902,-10.742,291.016,0.000
1737553112.520,-20.508,-26.855,-22.461,-892.090,0.000
1737553112.524,-22.461,-21.973,-20.020,-1000.000,0.000
1737553112.528,-27.344,-15.625,-17.090,-156.738,0.000
1737553112.532,-29.785,-9.766,-15.137,999.512,0.000
1737553112.536,-36.621,-18.066,-10.254,598.145,0.000
1737553112.540,-45.410,-25.879,-12.695,-931.152,0.000
1737553112.544,-29.785,-10.742,-17.578,-381.348,0.000
1737553112.548,-16.113,-0.488,-18.066,969.238,0.000
1737553112.552,-17.090,-6.836,-22.461,976.562,0.000
1737553112.555,-14.160,-17.578,-19.531,932.617,0.000
1737553112.559,-21.484,-15.625,-8.789,980.957,0.000
1737553112.563,-31.738,-11.230,-5.859,970.703,0.000
1737553112.567,-26.367,-14.160,-6.836,970.703,0.000
1737553112.571,-23.438,-16.602,-13.184,970.703,0.000
1737553112.575,-16.602,-18.555,-13.672,970.703,0.000
1737553112.579,-18.555,-20.020,-18.555,970.703,0.000
1737553112.583,-33.203,-17.090,-30.273,970.703,0.000
1737553112.587,-14.648,-13.672,-21.484,970.703,0.000
1737553112.591,-15.625,-17.090,-8.301,970.703,0.000
1737553112.594,-25.391,-14.160,-11.230,970.703,0.000
1737553112.598,-31.738,-12.695,-14.648,972.168,0.000
1737553112.602,-21.973,-17.090,-10.742,976.562,0.000
1737553112.606,-2.441,-18.066,-10.742,910.645,0.000
1737553112.610,-16.602,-18.555,-17.090,999.512,0.000
1737553112.614,-34.668,-21.973,-20.508,414.062,0.000
1737553112.618,-20.508,-30.762,-25.391,-921.875,0.000
1737553112.622,-34.180,-24.414,-24.902,-1000.000,0.000
1737553112.626,-74.707,-16.113,-19.043,-954.102,0.000
1737553112.630,-63.477,-15.137,-18.555,-1000.000,0.000
1737553112.634,-44.922,-17.090,-20.508,-1000.000,0.000
1737553112.637,-42.969,-19.531,-23.438,-1000.000,0.000
1737553112.641,-28.809,-18.555,-17.090,-969.727,0.000
1737553112.645,-19.043,-23.438,-14.160,-1000.000,0.000
1737553112.649,-9.766,-23.438,-20.508,-952.148,0.000
1737553112.653,16.602,-13.672,-20.020,-328.125,0.000
1737553112.657,5.371,-13.672,-17.578,-836.914,0.000
1737553112.661,-2.930,-22.949,-17.090,-943.848,0.000
1737553112.665,33.691,-19.043,-15.625,641.113,0.000
1737553112.669,38.574,-17.578,-16.113,999.512,0.000
1737553112.673,-12.695,-28.320,-15.137,897.461,0.000
1737553112.677,-35.645,-20.020,-19.043,986.816,0.000
1737553112.680,-38.086,-4.883,-20.020,970.703,0.000
1737553112.684,-44.434,-7.324,-20.508,985.352,0.000
1737553112.688,-32.715,-9.277,-20.996,908.691,0.000
1737553112.692,-4.395,-7.324,-17.578,999.512,0.000
1737553112.696,-8.301,-11.719,-18.066,728.516,0.000
1737553112.700,-35.156,-15.625,-23.438,-695.312,0.000
1737553112.704,-46.387,-21.484,-28.809,-1000.000,0.000
1737553112.708,-53.711,-22.461,-23.926,-844.238,0.000
1737553112.712,-34.180,-21.484,-20.020,-757.324,0.000
1737553112.716,-22.949,-28.320,-22.949,-959.961,0.000
1737553112.719,-24.902,-23.438,-26.855,-1000.000,0.000
1737553112.723,-18.555,-18.066,-22.949,-986.816,0.000
1737553112.727,-24.414,-20.508,-22.461,-1000.000,0.000
1737553112.731,-15.137,-20.996,-28.320,-1000.000,0.000
1737553112.735,-24.902,-20.996,-28.320,-1000.000,0.000
1737553112.739,-24.414,-22.949,-20.508,-942.383,0.000
1737553112.743,3.906,-32.227,-15.137,-1000.000,0.000
1737553112.747,-15.137,-18.555,-18.555,-760.254,0.000
1737553112.751,-9.766,4.395,-16.113,713.379,0.000
1737553112.755,0.488,4.883,-10.254,999.512,0.000
1737553112.759,-41.016,-14.648,-11.230,-636.230,0.000
1737553112.762,-49.316,-6.836,-10.254,-899.902,0.000
1737553112.766,-37.109,-2.930,-12.207,686.523,0.000
1737553112.770,-57.617,-10.742,-10.254,999.512,0.000
1737553112.774,-89.844,-11.719,-7.812,898.926,0.000
1737553112.778,-165.039,-11.230,-8.789,-338.379,0.000
1737553112.782,-208.008,-3.418,-10.742,-1000.000,0.000
1737553112.786,-191.895,4.883,-15.625,-936.035,0.000
1737553112.790,-262.695,-1.465,-10.254,-1000.000,0.000
1737553112.794,-369.141,-11.230,-9.277,-1000.000,0.000
1737553112.798,-417.969,-5.371,-21.973,-1000.000,0.000
1737553112.801,-438.965,1.465,-13.184,-1000.000,0.000
1737553112.805,-443.359,11.719,-3.906,-1000.000,0.000
1737553112.809,-451.172,-4.395,-13.184,-1000.000,0.000
1737553112.813,-445.801,-12.207,-13.184,-1000.000,0.000
1737553112.817,-424.805,-4.395,2.930,-1000.000,0.000
1737553112.821,-411.621,-5.371,8.789,-1000.000,0.000
1737553112.825,-378.906,7.324,-1.953,-1000.000,0.000
1737553112.829,-356.445,-2.441,7.324,-1000.000,0.000
1737553112.833,-332.031,-17.578,-18.555,-1000.000,0.000
1737553112.837,-311.035,0.488,-50.781,-983.398,0.000
1737553112.841,-335.938,6.836,-16.602,-974.609,0.000
1737553112.844,-354.980,-2.930,-7.812,-1000.000,0.000
1737553112.848,-303.711,-16.113,-22.461,-28.320,0.000
1737553112.852,-258.301,-19.531,-28.809,999.512,0.000
1737553112.856,-254.883,13.672,4.395,947.266,0.000
1737553112.860,-246.094,27.344,31.250,952.637,0.000
1737553112.864,-250.000,13.672,26.367,976.562,0.000
1737553112.868,-241.211,19.043,-1.465,970.703,0.000
1737553112.872,-259.277,23.438,-13.184,970.215,0.000
1737553112.876,-283.691,13.672,-13.672,970.215,0.000
1737553112.880,-229.492,14.648,-14.160,970.703,0.000
1737553112.884,-174.316,15.137,2.930,970.703,0.000
1737553112.887,-176.270,5.859,8.301,970.703,0.000
1737553112.891,-239.746,7.324,6.348,970.703,0.000
1737553112.895,-240.723,5.371,-16.113,970.215,0.000
1737553112.899,-177.734,5.371,-17.090,970.703,0.000
1737553112.903,-151.855,11.230,-39.062,985.840,0.000
1737553112.907,-134.766,-3.418,-62.988,916.504,0.000
1737553112.911,-126.465,-21.973,-14.648,999.512,0.000
1737553112.915,-126.953,-9.766,26.367,884.766,0.000
1737553112.919,-154.785,-10.742,20.020,-549.805,0.000
1737553112.923,-130.859,-2.441,0.000,-1000.000,0.000
1737553112.926,-95.703,19.531,-15.137,-926.758,0.000
1737553112.930,-116.699,13.672,-17.090,-1000.000,0.000
1737553112.934,-109.863,-45.410,-118.652,-1000.000,0.000
1737553112.938,-88.379,-67.383,-141.113,-943.359,0.000
1737553112.942,-76.660,-16.113,6.348,-1000.000,0.000
1737553112.946,-85.449,-25.879,63.965,-478.027,0.000
1737553112.950,-103.516,3.418,24.902,854.980,0.000
1737553112.954,-106.934,42.480,5.859,999.512,0.000
1737553112.958,-115.723,34.668,-10.254,922.363,0.000
1737553112.962,-106.934,5.859,-23.438,983.398,0.000
1737553112.966,-140.625,-8.301,-38.574,970.703,0.000
1737553112.969,-137.695,-8.301,-69.824,970.703,0.000
1737553112.973,-68.848,-12.695,-31.250,970.703,0.000
1737553112.977,-21.484,-96.191,5.371,970.703,0.000
1737553112.981,-87.891,-77.637,-20.020,970.703,0.000
1737553112.985,-100.586,3.418,-66.406,970.703,0.000
1737553112.989,-42.480,34.180,-30.273,970.703,0.000
1737553112.993,-23.438,74.219,-16.602,970.703,0.000
1737553112.997,-14.648,0.977,-20.020,970.703,0.000
1737553113.001,-20.020,-81.543,-46.387,970.703,0.000
1737553113.005,-35.156,-12.695,-90.820,970.703,0.000
1737553113.009,-12.207,42.480,-82.520,970.703,0.000
1737553113.012,5.859,28.809,-5.371,970.703,0.000
1737553113.016,-5.371,12.695,20.020,970.703,0.000
1737553113.020,-38.574,6.836,-54.688,970.703,0.000
1737553113.024,-44.922,-3.906,19.043,970.703,0.000
1737553113.028,-29.297,23.926,38.086,970.703,0.000
1737553113.032,-36.621,19.531,14.648,970.703,0.000
1737553113.036,-37.598,-2.930,-28.320,970.703,0.000
1737553113.040,-3.418,1.465,-121.582,970.703,0.000
1737553113.044,9.766,-24.902,-13.184,970.703,0.000
1737553113.048,-12.695,-10.742,43.945,970.703,0.000
1737553113.051,2.930,0.000,-25.879,970.703,0.000
1737553113.055,6.836,-19.043,-63.477,970.703,0.000
1737553113.059,3.906,-1.953,-26.367,970.703,0.000
1737553113.063,17.090,11.719,-6.836,970.703,0.000
1737553113.067,1.465,-15.137,-18.066,970.703,0.000
1737553113.071,0.977,-53.223,-58.105,970.703,0.000
1737553113.075,29.785,-49.316,-85.449,970.703,0.000
1737553113.079,16.602,-84.961,-47.363,970.703,0.000
1737553113.083,6.836,-35.645,-30.273,970.703,0.000
1737553113.087,29.785,37.598,-3.906,970.703,0.000
1737553113.091,26.855,43.945,13.672,970.703,0.000
1737553113.094,51.270,50.781,-8.789,970.703,0.000
1737553113.098,73.730,27.832,-19.531,970.703,0.000
1737553113.102,49.805,-12.695,-25.879,970.703,0.000
1737553113.106,29.297,-21.484,-47.363,970.703,0.000
1737553113.110,33.691,4.395,-37.598,970.703,0.000
1737553113.114,59.570,-2.930,-23.438,970.703,0.000
1737553113.118,48.828,-23.438,-29.297,970.703,0.000
1737553113.122,50.781,-31.738,-28.320,970.215,0.000
1737553113.126,98.633,-30.762,-34.668,970.703,0.000
1737553113.130,120.117,-28.809,-41.016,970.703,0.000
1737553113.133,175.293,-44.434,-39.062,970.703,0.000
1737553113.137,192.383,-40.527,-52.734,970.703,0.000
1737553113.141,239.746,-98.145,-79.590,970.703,0.000
1737553113.145,266.602,-109.375,-42.480,970.703,0.000
1737553113.149,253.418,-13.672,3.418,970.703,0.000
1737553113.153,276.855,-14.160,-4.395,970.703,0.000
1737553113.157,291.016,-15.625,-19.043,970.703,0.000
1737553113.161,294.922,-15.137,-21.973,970.703,0.000
1737553113.165,314.453,-33.691,-24.902,986.328,0.000
1737553113.169,324.707,-41.992,-24.902,911.621,0.000
1737553113.173,321.289,-50.781,-25.879,999.512,0.000
1737553113.176,317.383,-50.781,-26.367,834.473,0.000
1737553113.180,300.781,-50.781,-23.926,-618.164,0.000
1737553113.184,307.129,-50.781,-20.508,-1000.000,0.000
1737553113.188,320.801,-47.363,-17.578,-927.734,0.000
1737553113.192,282.227,-50.781,-22.949,-1000.000,0.000
1737553113.196,192.871,-52.246,-23.926,-1000.000,0.000
1737553113.200,187.012,-43.457,-29.785,-1000.000,0.000
1737553113.204,169.922,-52.246,-20.996,-1000.000,0.000
1737553113.208,152.832,-50.781,-17.090,-1000.000,0.000
1737553113.212,145.508,-40.527,-33.203,-1000.000,0.000
1737553113.216,97.656,-37.109,-41.504,-1000.000,0.000
1737553113.219,55.176,-23.926,-29.785,-1000.000,0.000
1737553113.223,-9.766,-29.785,-28.809,-1000.000,0.000
1737553113.227,-97.656,-33.203,-32.227,-1000.000,0.000
1737553113.231,-154.297,-20.508,-26.367,-1000.000,0.000
1737553113.235,-183.105,-10.742,-21.973,-1000.000,0.000
1737553113.239,-211.426,-8.789,-29.785,-1000.000,0.000
1737553113.243,-200.195,-3.418,-35.645,-1000.000,0.000
1737553113.247,-247.559,-10.254,-28.809,-1000.000,0.000
1737553113.251,-268.066,-7.812,-19.531,-1000.000,0.000
1737553113.255,-248.535,0.000,-23.438,-1000.000,0.000
1737553113.258,-230.957,1.953,-61.523,-1000.000,0.000
1737553113.262,-236.816,11.719,-42.969,-1000.000,0.000
1737553113.266,-236.816,7.324,10.742,-1000.000,0.000
1737553113.270,-214.844,7.812,21.484,-1000.000,0.000
1737553113.274,-233.398,0.977,10.742,-1000.000,0.000
1737553113.278,-171.387,-20.020,-38.574,-1000.000,0.000
1737553113.282,-132.812,2.930,-29.785,-1000.000,0.000
1737553113.286,-145.020,27.344,21.973,-1000.000,0.000
1737553113.290,-170.410,39.551,4.395,-1000.000,0.000
1737553113.294,-146.973,55.664,-25.391,-1000.000,0.000
1737553113.298,-118.164,43.945,-13.672,-1000.000,0.000
1737553113.301,-96.680,39.062,4.395,-1000.000,0.000
1737553113.305,-86.426,33.203,14.160,-1000.000,0.000
1737553113.309,-71.777,20.508,18.555,-1000.000,0.000
1737553113.313,-37.598,7.812,7.812,-1000.000,0.000
1737553113.317,2.441,2.441,-3.906,-1000.000,0.000
1737553113.321,5.371,6.836,-15.625,-1000.000,0.000
1737553113.325,-9.277,-0.977,-20.020,-1000.000,0.000
1737553113.329,17.090,-7.324,-16.113,-1000.000,0.000
1737553113.333,69.824,-7.812,-22.461,-1000.000,0.000
1737553113.337,106.445,-6.348,-21.484,-1000.000,0.000
1737553113.341,100.586,-5.371,-13.184,-1000.000,0.000
1737553113.344,160.645,-4.395,-10.742,-1000.000,0.000
1737553113.348,164.551,-15.625,-10.742,-1000.000,0.000
1737553113.352,173.828,-23.438,-15.137,-1000.000,0.000
1737553113.356,195.312,-22.949,-16.113,-1000.000,0.000
1737553113.360,160.645,-28.320,-23.438,-1000.000,0.000
1737553113.364,165.527,-30.273,-20.020,-1000.000,0.000
1737553113.368,208.496,-27.344,-6.836,-1000.000,0.000
1737553113.372,206.543,-26.855,-4.883,-1000.000,0.000
1737553113.376,200.195,-34.180,-7.324,-1000.000,0.000
1737553113.380,225.098,-45.410,-11.230,-1000.000,0.000
1737553113.383,226.562,-48.828,-13.672,-1000.000,0.000
1737553113.387,216.309,-41.992,-14.160,-1000.000,0.000
1737553113.391,223.145,-31.250,-17.578,-1000.000,0.000
1737553113.395,228.516,-30.273,-20.996,-1000.000,0.000
1737553113.399,232.910,-30.273,-18.066,-1000.000,0.000
1737553113.403,237.305,-35.156,-16.602,-1000.000,0.000
1737553113.407,214.844,-36.621,-14.648,-1000.000,0.000
1737553113.411,216.309,-25.391,-4.883,-1000.000,0.000
1737553113.415,215.332,-26.367,-3.906,-1000.000,0.000
1737553113.419,207.031,-28.320,-5.371,-1000.000,0.000
1737553113.423,229.492,-33.203,-0.977,-1000.000,0.000
1737553113.426,203.613,-29.785,-0.977,-1000.000,0.000
1737553113.430,215.332,-11.719,-11.719,-1000.000,0.000
1737553113.434,227.051,-20.020,-25.391,-1000.000,0.000
1737553113.438,189.941,-19.531,-20.996,-1000.000,0.000
1737553113.442,143.555,-9.277,-14.160,-1000.000,0.000
1737553113.446,42.969,-23.926,-19.531,-1000.000,0.000
1737553113.450,-32.715,-19.531,-24.902,-1000.000,0.000
1737553113.454,-48.828,-2.441,-23.926,-1000.000,0.000
1737553113.458,-55.664,10.254,-42.969,-1000.000,0.000
1737553113.462,-120.605,6.348,-41.504,-1000.000,0.000
1737553113.465,-202.637,-0.977,-24.902,-1000.000,0.000
1737553113.469,-234.863,-11.230,-23.926,-1000.000,0.000
1737553113.473,-263.672,-4.395,-24.902,-1000.000,0.000
1737553113.477,-243.164,-2.441,-24.414,-1000.000,0.000
1737553113.481,-234.863,-7.324,-19.531,-1000.000,0.000
1737553113.485,-220.215,4.883,-17.090,-1000.000,0.000
1737553113.489,-246.582,-3.418,-17.090,-1000.000,0.000
1737553113.493,-272.461,-7.324,-24.902,-1000.000,0.000
1737553113.497,-210.449,-5.859,-33.691,-1000.000,0.000
1737553113.501,-205.566,-11.719,-40.527,-1000.000,0.000
1737553113.505,-192.871,-16.113,-38.574,-1000.000,0.000
1737553113.508,-160.156,-11.719,-20.020,-1000.000,0.000
1737553113.512,-154.785,5.859,-26.855,-1000.000,0.000
1737553113.516,-146.484,-19.043,-14.648,-1000.000,0.000
1737553113.520,-146.484,-8.789,5.371,-1000.000,0.000
1737553113.524,-120.605,26.855,5.371,-1000.000,0.000
1737553113.528,-67.871,25.391,-14.648,-1000.000,0.000
1737553113.532,-65.918,23.438,-51.758,-1000.000,0.000
1737553113.536,-51.270,10.254,-8.301,-940.430,0.000
1737553113.540,-51.758,2.441,15.625,-1000.000,0.000
1737553113.544,-37.598,1.465,5.371,-862.305,0.000
1737553113.548,6.836,0.000,3.906,597.168,0.000
1737553113.551,-17.578,-4.395,-5.371,999.512,0.000
1737553113.555,11.230,-4.395,-6.348,897.461,0.000
1737553113.559,27.344,-3.418,-5.859,986.816,0.000
1737553113.563,53.711,-8.789,-10.742,970.703,0.000
1737553113.567,90.332,-16.602,-15.137,970.703,0.000
1737553113.571,69.824,-23.438,-14.160,970.703,0.000
1737553113.575,44.434,-23.438,-14.648,970.703,0.000
1737553113.579,53.711,-26.855,-18.555,970.703,0.000
1737553113.583,60.059,-47.363,-18.555,975.098,0.000
1737553113.587,74.219,-55.664,-6.836,962.402,0.000
1737553113.590,81.055,-49.316,-3.418,935.059,0.000
1737553113.594,98.145,-36.621,-13.672,999.512,0.000
1737553113.598,140.137,-28.809,-19.043,190.918,0.000
1737553113.602,159.668,-38.574,-20.020,-963.867,0.000
1737553113.606,174.805,-47.363,-22.461,-1000.000,0.000
1737553113.610,181.152,-35.156,-25.391,-969.238,0.000
1737553113.614,194.824,-25.879,-20.020,-1000.000,0.000
1737553113.618,176.758,-38.086,-17.090,-1000.000,0.000
1737553113.622,189.453,-34.180,-20.020,-1000.000,0.000
1737553113.626,211.914,-20.996,-15.625,-1000.000,0.000
1737553113.630,224.121,-25.879,-20.508,-1000.000,0.000
1737553113.633,229.980,-33.691,-21.973,-974.121,0.000
1737553113.637,223.145,-37.598,-22.949,-989.746,0.000
1737553113.641,222.656,-39.551,-27.344,-1000.000,0.000
1737553113.645,247.559,-41.016,-22.949,132.812,0.000
1737553113.649,268.066,-40.527,-20.508,999.512,0.000
1737553113.653,243.164,-33.203,-19.531,927.246,0.000
1737553113.657,228.027,-33.203,-17.578,963.867,0.000
1737553113.661,220.215,-33.691,-16.113,974.121,0.000
1737553113.665,190.918,-31.738,-13.184,970.703,0.000
1737553113.669,191.406,-36.621,-13.672,970.703,0.000
1737553113.673,202.148,-37.109,-14.160,970.703,0.000
1737553113.676,209.961,-39.551,-23.926,970.703,0.000
1737553113.680,186.035,-43.945,-25.391,972.168,0.000
1737553113.684,180.664,-39.062,-16.602,976.562,0.000
1737553113.688,202.637,-35.156,-18.555,912.598,0.000
1737553113.692,167.969,-36.621,-23.438,999.512,0.000
1737553113.696,136.719,-44.434,-20.996,452.637,0.000
1737553113.700,120.117,-42.480,-17.578,-846.680,0.000
1737553113.704,129.395,-35.645,-17.090,-1000.000,0.000
1737553113.708,170.410,-30.273,-20.020,-334.961,0.000
1737553113.712,185.547,-25.391,-23.438,955.078,0.000
1737553113.715,158.691,-28.320,-21.484,320.312,0.000
1737553113.719,133.789,-29.297,-22.949,-980.469,0.000
1737553113.723,91.797,-35.156,-45.410,-1000.000,0.000
1737553113.727,91.309,-24.902,-36.133,-892.578,0.000
1737553113.731,162.109,-10.254,4.883,-265.137,0.000
1737553113.735,149.902,-8.789,-3.906,-517.578,0.000
1737553113.739,106.445,-16.602,-25.391,-1000.000,0.000
1737553113.743,127.930,-10.254,-9.277,-976.074,0.000
1737553113.747,118.652,-2.930,-16.113,-995.117,0.000
1737553113.751,33.691,-12.695,-23.926,-1000.000,0.000
1737553113.755,-50.293,-9.766,-23.438,-1000.000,0.000
1737553113.758,-83.496,-11.719,-40.039,-1000.000,0.000
1737553113.762,-97.168,-2.441,-42.969,-1000.000,0.000
1737553113.766,-160.645,7.812,-36.621,-1000.000,0.000
1737553113.770,-226.074,1.953,-34.180,-1000.000,0.000
1737553113.774,-268.066,0.488,-37.109,-1000.000,0.000
1737553113.778,-251.953,6.348,-30.762,-1000.000,0.000
1737553113.782,-230.957,12.207,-27.832,-1000.000,0.000
1737553113.786,-290.527,6.836,-28.320,-1000.000,0.000
1737553113.790,-277.832,0.977,-19.043,-1000.000,0.000
1737553113.794,-243.164,8.301,-10.742,-1000.000,0.000
1737553113.798,-251.953,18.555,-17.578,-1000.000,0.000
1737553113.801,-229.980,18.066,-18.066,-945.801,0.000
1737553113.805,-207.520,9.277,-18.066,-1000.000,0.000
1737553113.809,-176.758,-3.906,-25.391,-641.113,0.000
1737553113.813,-146.973,12.207,-26.367,740.234,0.000
1737553113.817,-138.672,13.184,-20.996,999.512,0.000
1737553113.821,-145.996,4.883,-29.297,868.652,0.000
1737553113.825,-130.859,7.324,-22.949,990.234,0.000
1737553113.829,-104.980,5.859,-3.906,970.215,0.000
1737553113.833,-73.242,20.020,-0.977,969.727,0.000
1737553113.837,-72.754,22.949,1.953,970.703,0.000
1737553113.840,-36.621,16.113,1.465,970.703,0.000
1737553113.844,13.672,11.719,-10.254,970.703,0.000
1737553113.848,8.301,-4.883,-17.090,970.703,0.000
1737553113.852,12.695,-7.812,-11.230,970.703,0.000
1737553113.856,9.277,-4.883,-12.695,970.703,0.000
1737553113.860,-0.488,-13.672,-9.277,972.168,0.000
1737553113.864,2.930,-13.672,-11.719,974.609,0.000
1737553113.868,20.508,-29.785,-21.973,913.574,0.000
1737553113.872,80.078,-51.270,-20.020,999.512,0.000
1737553113.876,89.355,-27.832,-13.184,367.676,0.000
1737553113.880,70.801,-16.113,-11.719,-912.109,0.000
1737553113.883,93.262,-25.391,-14.648,-1000.000,0.000
1737553113.887,123.535,-29.785,-13.672,-947.266,0.000
1737553113.891,142.578,-34.668,-17.578,-330.078,0.000
1737553113.895,178.223,-40.527,-23.926,-569.824,0.000
1737553113.899,200.684,-45.898,-25.879,-1000.000,0.000
1737553113.903,187.988,-40.527,-23.438,-1000.000,0.000
1737553113.907,207.031,-40.039,-24.902,-423.340,0.000
1737553113.911,237.793,-42.969,-20.996,867.676,0.000
1737553113.915,225.586,-31.250,-18.555,999.512,0.000
1737553113.919,188.477,-29.297,-26.367,-298.340,0.000
1737553113.922,168.457,-47.363,-21.973,-720.215,0.000
1737553113.926,193.848,-48.340,-8.789,797.852,0.000
1737553113.930,203.613,-35.156,-7.324,999.512,0.000
1737553113.934,182.617,-37.109,-7.324,905.762,0.000
1737553113.938,161.133,-41.992,-4.883,985.840,0.000
1737553113.942,175.781,-39.062,-6.836,970.703,0.000
1737553113.946,178.223,-39.551,-14.160,970.703,0.000
1737553113.950,162.109,-39.062,-9.277,970.703,0.000
1737553113.954,156.738,-35.645,-9.277,970.703,0.000
1737553113.958,153.809,-31.738,-17.578,970.703,0.000
1737553113.962,132.812,-30.762,-20.020,978.516,0.000
1737553113.965,111.328,-35.156,-14.160,944.824,0.000
1737553113.969,120.605,-39.062,-15.625,958.496,0.000
1737553113.973,139.648,-37.598,-18.555,999.512,0.000
1737553113.977,96.680,-42.480,-19.531,-156.250,0.000
1737553113.981,86.914,-49.316,-29.297,-1000.000,0.000
1737553113.985,92.773,-43.457,-33.691,-965.332,0.000
1737553113.989,70.801,-33.691,-23.438,-949.219,0.000
1737553113.993,72.266,-40.527,-16.602,-946.777,0.000
1737553113.997,57.617,-42.480,-18.066,-940.430,0.000
1737553114.001,48.828,-32.227,-26.367,-1000.000,0.000
1737553114.005,63.965,-27.832,-22.461,-765.137,0.000
1737553114.008,85.938,-24.414,-10.742,611.328,0.000
1737553114.012,89.844,-40.527,-10.742,999.512,0.000
1737553114.016,68.359,-41.016,-26.367,294.922,0.000
1737553114.020,40.527,-24.414,-24.902,-1000.000,0.000
1737553114.024,68.359,-20.508,-10.254,-675.293,0.000
1737553114.028,78.125,-23.926,-6.836,746.094,0.000
1737553114.032,57.129,-20.020,-8.789,999.512,0.000
1737553114.036,56.641,-20.508,-12.207,848.633,0.000
1737553114.040,49.316,-22.461,-14.160,412.109,0.000
1737553114.044,53.711,-17.578,-8.789,765.625,0.000
1737553114.047,59.082,-17.090,-2.930,999.512,0.000
1737553114.051,43.945,-23.438,-8.301,934.570,0.000
1737553114.055,17.578,-21.973,-14.160,977.539,0.000
1737553114.059,26.855,-23.438,-16.602,970.703,0.000
1737553114.063,44.434,-24.414,-18.066,970.703,0.000
1737553114.067,32.715,-23.438,-18.066,970.703,0.000
1737553114.071,30.273,-25.879,-14.160,970.703,0.000
1737553114.075,-1.953,-25.391,-7.324,970.703,0.000
1737553114.079,-17.578,-20.996,-7.324,970.703,0.000
1737553114.083,19.043,-20.508,-15.137,970.703,0.000
1737553114.087,26.855,-20.996,-14.160,970.703,0.000
1737553114.090,-9.277,-20.020,-12.695,970.703,0.000
1737553114.094,-21.973,-17.578,-15.625,970.703,0.000
1737553114.098,-18.555,-20.508,-12.695,970.703,0.000
1737553114.102,-8.789,-20.020,-13.672,971.191,0.000
1737553114.106,3.418,-15.625,-19.043,969.727,0.000
1737553114.110,0.977,-23.926,-22.461,959.473,0.000
1737553114.114,2.441,-20.020,-21.484,999.512,0.000
1737553114.118,-0.977,-17.090,-20.996,765.625,0.000
1737553114.122,0.488,-22.949,-21.484,712.402,0.000
1737553114.126,15.137,-18.066,-20.508,922.363,0.000
1737553114.130,33.203,-25.391,-18.555,999.512,0.000
1737553114.133,0.488,-25.391,-18.555,802.734,0.000
1737553114.137,-62.500,-12.207,-20.020,-651.855,0.000
1737553114.141,-73.242,-2.930,-20.508,-1000.000,0.000
1737553114.145,-76.660,-0.488,-25.879,-927.734,0.000
1737553114.149,-78.125,-12.695,-31.250,-1000.000,0.000
1737553114.153,-67.871,-18.555,-28.320,-1000.000,0.000
1737553114.157,-54.688,-15.625,-22.949,-945.312,0.000
1737553114.161,-23.926,-15.625,-19.043,-1000.000,0.000
1737553114.165,-23.438,-17.578,-13.672,-552.734,0.000
1737553114.169,-18.066,-18.066,-11.719,763.672,0.000
1737553114.172,-8.301,-14.648,-25.879,999.512,0.000
1737553114.176,-12.207,-17.090,-27.832,856.934,0.000
1737553114.180,-34.668,-22.461,-11.719,484.375,0.000
1737553114.184,-20.996,-14.648,-4.395,812.988,0.000
1737553114.188,-9.766,-11.719,-11.230,995.605,0.000
1737553114.192,-22.461,-16.113,-16.602,967.285,0.000
1737553114.196,-27.344,-16.602,-14.160,965.820,0.000
1737553114.200,-41.504,-23.926,-16.113,-314.453,0.000
1737553114.204,-45.898,-25.391,-18.066,-125.488,0.000
1737553114.208,-24.414,-21.973,-19.043,988.281,0.000
1737553114.212,-9.766,-26.855,-26.855,983.398,0.000
1737553114.215,-13.672,-27.832,-27.832,934.082,0.000
1737553114.219,-48.340,-22.949,-20.508,-562.012,0.000
1737553114.223,-63.965,-19.531,-20.996,-898.438,0.000
1737553114.227,-21.484,-20.020,-19.043,657.227,0.000
1737553114.231,-14.160,-23.926,-21.973,999.512,0.000
1737553114.235,-27.832,-21.973,-26.855,706.543,0.000
1737553114.239,-63.477,-35.156,-20.996,-667.480,0.000
1737553114.243,-90.332,-39.062,-17.578,-1000.000,0.000
1737553114.247,-90.820,-25.879,-20.996,-982.910,0.000
1737553114.251,-76.172,-18.066,-16.113,-796.875,0.000
1737553114.254,-59.082,-19.043,-18.555,-498.047,0.000
1737553114.258,-52.246,-30.762,-27.344,-1000.000,0.000
1737553114.262,-55.664,-32.227,-18.555,-852.051,0.000
1737553114.266,-30.273,-22.949,-16.602,646.973,0.000
1737553114.270,-27.344,-20.508,-26.367,999.512,0.000
1737553114.274,-24.902,-19.043,-27.344,899.414,0.000
1737553114.278,-30.273,-19.531,-19.531,986.328,0.000
1737553114.282,-57.129,-23.926,-21.973,970.703,0.000
1737553114.286,-39.551,-22.949,-27.832,970.703,0.000
1737553114.290,-32.715,-19.531,-24.902,970.703,0.000
1737553114.294,-39.062,-13.672,-19.531,970.703,0.000
1737553114.297,-42.480,-15.137,-19.043,970.703,0.000
1737553114.301,-32.227,-19.531,-12.207,970.703,0.000
1737553114.305,-21.484,-22.949,-4.883,970.703,0.000
1737553114.309,-46.387,-18.555,-9.766,970.703,0.000
1737553114.313,-42.969,-9.277,-13.184,970.703,0.000
1737553114.317,-30.273,-9.766,-14.160,970.703,0.000
1737553114.321,-53.223,-9.766,-18.066,980.469,0.000
1737553114.325,-53.223,-15.137,-27.832,935.547,0.000
1737553114.329,-44.434,-23.438,-34.668,973.633,0.000
1737553114.333,-22.949,-25.879,-27.344,987.305,0.000
1737553114.337,-52.734,-28.809,-24.414,-300.293,0.000
1737553114.340,-95.215,-26.367,-30.762,-1000.000,0.000
1737553114.344,-65.918,-28.320,-30.273,-939.941,0.000
1737553114.348,-60.547,-30.273,-21.973,-1000.000,0.000
1737553114.352,-66.406,-24.902,-23.926,-1000.000,0.000
1737553114.356,-59.570,-31.738,-27.832,-943.848,0.000
1737553114.360,-45.898,-36.621,-16.602,-1000.000,0.000
1737553114.364,-42.969,-28.320,-18.066,-656.738,0.000
1737553114.368,-27.344,-14.648,-25.391,727.051,0.000
1737553114.372,-13.672,-12.695,-23.438,999.512,0.000
1737553114.376,-23.438,-14.160,-22.461,911.133,0.000
1737553114.379,-25.391,-11.230,-20.020,984.375,0.000
1737553114.383,-8.301,-16.113,-25.879,970.703,0.000
1737553114.387,-24.902,-21.973,-27.832,970.703,0.000
1737553114.391,-45.898,-31.738,-20.508,970.703,0.000
1737553114.395,-48.828,-36.621,-17.090,970.703,0.000
1737553114.399,-47.363,-22.949,-19.531,970.703,0.000
1737553114.403,-28.809,-7.324,-20.020,970.703,0.000
1737553114.407,-12.207,-7.812,-15.137,970.703,0.000
1737553114.411,-17.090,-17.090,-11.719,970.703,0.000
1737553114.415,-29.297,-13.672,-16.113,970.703,0.000
1737553114.419,-23.926,-8.789,-19.531,970.703,0.000
1737553114.422,15.137,-8.789,-15.625,985.352,0.000
1737553114.426,-23.926,-6.836,-15.625,918.457,0.000
1737553114.430,-60.547,-11.230,-17.578,999.512,0.000
1737553114.434,-31.738,-12.695,-29.785,901.855,0.000
1737553114.438,-46.875,-18.066,-36.133,-525.879,0.000
1737553114.442,-60.547,-25.391,-22.949,-1000.000,0.000
1737553114.446,-52.246,-28.809,-11.230,-926.270,0.000
1737553114.450,-58.105,-28.809,-10.742,-1000.000,0.000
1737553114.454,-59.082,-15.137,-15.625,-1000.000,0.000
1737553114.458,-60.547,-2.441,-25.391,-1000.000,0.000
1737553114.462,-47.852,-1.465,-20.508,-1000.000,0.000
1737553114.465,-25.391,-6.836,-12.207,-1000.000,0.000
1737553114.469,-41.992,-12.695,-17.578,-1000.000,0.000
1737553114.473,-51.758,-20.020,-15.137,-977.539,0.000
1737553114.477,-54.199,-24.902,-16.113,-983.887,0.000
1737553114.481,-49.316,-18.555,-14.160,-1000.000,0.000
1737553114.485,-38.574,-9.766,-8.301,73.730,0.000
1737553114.489,-28.320,-10.254,-13.672,999.512,0.000
1737553114.493,-31.250,-19.531,-20.508,934.082,0.000
1737553114.497,-43.945,-19.043,-15.625,959.961,0.000
1737553114.501,-29.297,-16.113,-23.926,975.098,0.000
1737553114.504,-6.348,-13.184,-24.414,970.703,0.000
1737553114.508,-7.812,-11.719,-17.578,970.703,0.000
1737553114.512,-27.344,-28.320,-31.250,970.703,0.000
1737553114.516,-31.738,-31.738,-22.949,970.703,0.000
1737553114.520,-29.785,-12.695,-9.766,970.703,0.000
1737553114.524,-54.199,-8.789,-20.020,970.703,0.000
1737553114.528,-40.039,-7.324,-20.508,970.703,0.000
1737553114.532,-30.273,-7.324,-14.648,970.703,0.000
1737553114.536,-54.199,-10.742,-19.043,970.703,0.000
1737553114.540,-43.945,-12.207,-14.160,970.703,0.000
1737553114.544,-29.785,-17.090,-13.184,986.328,0.000
1737553114.547,-35.645,-12.207,-18.066,908.203,0.000
1737553114.551,-25.391,-11.230,-16.113,999.512,0.000
1737553114.555,-16.602,-19.043,-14.648,817.383,0.000
1737553114.559,-49.805,-19.531,-16.602,-746.582,0.000
1737553114.563,-62.988,-19.043,-17.090,-947.754,0.000
1737553114.567,-28.320,-25.391,-20.020,581.543,0.000
1737553114.571,-20.508,-24.902,-25.879,999.512,0.000
1737553114.575,-28.320,-15.625,-26.367,673.828,0.000
1737553114.579,-50.293,-13.184,-16.602,-646.484,0.000
1737553114.583,-65.430,-24.902,-14.160,-1000.000,0.000
1737553114.586,-29.297,-23.926,-15.137,-359.863,0.000
1737553114.590,-4.395,-23.438,-12.695,934.082,0.000
1737553114.594,-25.391,-30.762,-12.207,780.273,0.000
1737553114.598,-23.926,-23.926,-22.949,-674.805,0.000
1737553114.602,-20.996,-14.648,-25.391,-1000.000,0.000
1737553114.606,-20.508,-19.531,-23.438,-815.430,0.000
1737553114.610,8.789,-20.508,-15.625,653.320,0.000
1737553114.614,-26.855,-15.625,-6.836,945.312,0.000
1737553114.618,-88.867,-30.762,-12.207,-636.230,0.000
1737553114.622,-94.727,-36.133,-16.602,-1000.000,0.000
1737553114.626,-71.777,-9.766,-15.625,-889.648,0.000
1737553114.629,-25.879,2.441,-9.766,275.879,0.000
1737553114.633,7.324,-0.488,-10.254,999.512,0.000
1737553114.637,-20.508,0.977,-15.137,187.988,0.000
1737553114.641,-70.312,-13.184,-15.137,-909.668,0.000
1737553114.645,-48.340,-20.508,-15.137,417.969,0.000
1737553114.649,-19.531,-17.090,-19.531,999.512,0.000
1737553114.653,-26.855,-11.230,-27.344,888.672,0.000
1737553114.657,-20.020,-8.301,-28.809,981.445,0.000
1737553114.661,-36.621,-13.672,-19.531,970.703,0.000
1737553114.665,-30.762,-18.555,-18.066,976.562,0.000
1737553114.669,-2.930,-31.738,-22.461,942.383,0.000
1737553114.672,3.418,-27.832,-22.461,999.512,0.000
1737553114.676,-29.297,-10.742,-23.926,898.438,0.000
1737553114.680,-48.828,-9.766,-13.672,426.758,0.000
1737553114.684,-29.297,-11.719,-9.766,772.461,0.000
1737553114.688,-26.855,-14.160,-17.578,999.512,0.000
1737553114.692,-22.949,-16.113,-23.926,999.512,0.000
1737553114.696,-44.434,-22.461,-30.273,67.383,0.000
1737553114.700,-97.168,-33.203,-27.344,-1000.000,0.000
1737553114.704,-86.426,-31.250,-26.855,-986.816,0.000
1737553114.708,-52.246,-29.785,-27.344,-935.059,0.000
1737553114.711,-38.574,-29.297,-28.809,-985.352,0.000
1737553114.715,-31.738,-20.508,-20.508,-956.543,0.000
1737553114.719,-41.992,-20.508,-11.719,-1000.000,0.000
1737553114.723,-37.598,-24.414,-19.043,-925.781,0.000
1737553114.727,-22.949,-20.508,-27.344,500.000,0.000
1737553114.731,-20.996,-17.090,-21.484,999.512,0.000
1737553114.735,-21.973,-18.066,-17.090,897.461,0.000
1737553114.739,-20.020,-23.438,-16.113,984.375,0.000
1737553114.743,-23.926,-21.973,-12.207,970.703,0.000
1737553114.747,-37.598,-18.066,-19.043,970.703,0.000
1737553114.751,-28.809,-18.555,-26.367,970.703,0.000
1737553114.754,-41.016,-14.648,-18.066,970.703,0.000
1737553114.758,-38.574,-12.207,-14.160,970.703,0.000
1737553114.762,-15.137,-18.066,-18.066,970.703,0.000
1737553114.766,-42.480,-24.902,-13.672,969.238,0.000
1737553114.770,-47.363,-13.672,-20.020,968.262,0.000
1737553114.774,-22.949,-2.441,-28.320,985.352,0.000
1737553114.778,-18.555,-11.230,-16.113,866.699,0.000
1737553114.782,-9.277,-12.207,-16.602,895.996,0.000
1737553114.786,-9.277,-10.742,-28.809,927.246,0.000
1737553114.790,-28.320,-13.672,-18.066,999.512,0.000
1737553114.794,-64.453,-18.555,-8.789,783.203,0.000
1737553114.797,-98.633,-24.902,-12.695,-677.734,0.000
1737553114.801,-93.262,-24.902,-16.113,-1000.000,0.000
1737553114.805,-69.824,-19.531,-26.367,-929.688,0.000
1737553114.809,-50.293,-15.137,-36.621,-1000.000,0.000
1737553114.813,-32.227,-17.090,-28.320,-1000.000,0.000
1737553114.817,-45.898,-16.113,-20.508,-1000.000,0.000
1737553114.821,-48.828,-12.695,-21.973,-1000.000,0.000
1737553114.825,-45.898,-13.672,-23.438,-1000.000,0.000
1737553114.829,-42.480,-16.113,-24.414,-1000.000,0.000
1737553114.833,-41.992,-24.414,-27.344,-1000.000,0.000
1737553114.836,-43.457,-29.297,-20.508,-948.730,0.000
1737553114.840,-37.598,-22.461,-16.113,-1000.000,0.000
1737553114.844,-8.789,-8.789,-19.043,-381.348,0.000
1737553114.848,17.578,-8.301,-17.090,808.594,0.000
1737553114.852,-16.602,-16.113,-22.461,999.512,0.000
1737553114.856,-51.270,-11.230,-26.855,646.484,0.000
1737553114.860,-53.223,-9.766,-18.555,-850.586,0.000
1737553114.864,-5.371,-10.254,-14.648,-511.230,0.000
1737553114.868,3.418,-9.766,-18.555,867.188,0.000
1737553114.872,-10.742,-12.207,-23.926,999.512,0.000
1737553114.876,-30.762,-15.137,-15.137,700.195,0.000
1737553114.879,-58.594,-19.531,-8.301,-777.344,0.000
1737553114.883,-38.574,-14.160,-15.137,-957.520,0.000
1737553114.887,-11.230,-10.254,-17.578,543.945,0.000
1737553114.891,2.441,-0.488,-18.066,999.512,0.000
1737553114.895,-15.137,0.000,-19.531,812.012,0.000
1737553114.899,-45.898,-23.438,-20.020,-646.973,0.000
1737553114.903,-44.922,-28.809,-22.949,-1000.000,0.000
1737553114.907,-18.066,-15.625,-19.043,485.840,0.000
1737553114.911,-31.250,-12.695,-12.695,999.512,0.000
1737553114.915,-51.758,-14.648,-19.043,863.281,0.000
1737553114.918,-59.082,-19.043,-22.949,-579.590,0.000
1737553114.922,-48.340,-14.648,-24.414,-1000.000,0.000
1737553114.926,-27.832,-9.766,-22.461,518.555,0.000
1737553114.930,-17.578,-16.113,-17.090,999.512,0.000
1737553114.934,-14.648,-26.367,-19.043,851.074,0.000
1737553114.938,-14.648,-28.320,-20.508,-497.070,0.000
1737553114.942,-32.227,-15.625,-20.996,-1000.000,0.000
1737553114.946,-42.480,-19.043,-15.137,49.316,0.000
1737553114.950,-27.344,-27.832,-16.602,999.512,0.000
1737553114.954,-15.625,-19.531,-26.367,845.215,0.000
1737553114.958,-34.668,-12.695,-12.695,-581.055,0.000
1737553114.961,-34.180,-15.625,-5.371,-1000.000,0.000
1737553114.965,-23.926,-21.973,-17.578,-1000.000,0.000
1737553114.969,-35.156,-17.578,-19.531,-340.332,0.000
1737553114.973,-15.625,-6.348,-12.695,891.113,0.000
1737553114.977,-22.949,-7.324,-17.090,-159.180,0.000
1737553114.981,-45.898,-12.207,-17.578,-1000.000,0.000
1737553114.985,-27.344,-17.578,-17.090,-316.895,0.000
1737553114.989,-15.137,-25.391,-21.484,824.707,0.000
1737553114.993,-21.484,-17.578,-17.578,999.512,0.000
1737553114.997,-33.203,-10.254,-20.996,655.273,0.000
1737553115.001,-57.129,-23.926,-22.949,-578.125,0.000
1737553115.004,-33.691,-23.438,-13.672,343.262,0.000
1737553115.008,-12.695,-13.184,-13.672,999.512,0.000
1737553115.012,-36.621,-13.672,-17.090,888.672,0.000
1737553115.016,-31.738,-16.113,-12.207,980.957,0.000
1737553115.020,-21.484,-15.625,-8.789,970.703,0.000
1737553115.024,-34.668,-11.719,-11.230,970.703,0.000
1737553115.028,-17.090,-13.672,-13.672,970.703,0.000
1737553115.032,-14.160,-25.391,-17.090,970.703,0.000
1737553115.036,-21.973,-24.902,-27.344,970.703,0.000
1737553115.040,-30.273,-23.438,-24.414,970.703,0.000
1737553115.043,-56.152,-27.344,-10.742,986.816,0.000
1737553115.047,-49.805,-29.297,-7.812,909.180,0.000
1737553115.051,-33.691,-21.973,-16.602,999.512,0.000
1737553115.055,-34.180,-16.113,-24.414,787.109,0.000
1737553115.059,-38.086,-11.230,-27.832,-610.352,0.000
1737553115.063,-37.109,-15.137,-23.926,-1000.000,0.000
1737553115.067,-32.227,-19.043,-18.066,-778.809,0.000
1737553115.071,-7.324,-11.230,-15.625,664.551,0.000
1737553115.075,-1.465,-12.207,-20.508,663.086,0.000
1737553115.079,-39.551,-15.625,-25.391,-860.840,0.000
1737553115.083,-32.227,-12.695,-18.555,-1000.000,0.000
1737553115.086,-28.320,-13.184,-15.137,-1000.000,0.000
1737553115.090,-9.766,-11.719,-20.996,173.828,0.000
1737553115.094,17.578,-19.531,-17.578,985.840,0.000
1737553115.098,-37.109,-34.180,-13.184,-618.652,0.000
1737553115.102,-59.570,-20.020,-28.809,-1000.000,0.000
1737553115.106,-37.598,-7.324,-34.180,416.016,0.000
1737553115.110,-22.461,-12.207,-11.719,999.512,0.000
1737553115.114,-24.902,-4.395,-0.977,907.227,0.000
1737553115.118,-27.832,-7.324,-3.418,976.074,0.000
1737553115.122,-18.066,-22.461,-8.789,971.680,0.000
1737553115.126,-6.348,-22.461,-11.719,974.609,0.000
1737553115.129,-11.719,-8.789,-4.395,948.730,0.000
1737553115.133,-20.996,-8.789,-6.836,999.512,0.000
1737553115.137,-25.391,-17.578,-15.137,860.840,0.000
1737553115.141,-44.434,-20.020,-18.066,614.258,0.000
1737553115.145,-35.645,-20.020,-23.438,867.676,0.000
1737553115.149,-28.809,-18.555,-22.461,999.512,0.000
1737553115.153,-36.621,-20.508,-13.184,930.664,0.000
1737553115.157,-54.199,-29.785,-14.160,-414.551,0.000
1737553115.161,-55.664,-26.367,-18.066,-1000.000,0.000
1737553115.165,-43.945,-22.461,-15.625,-930.176,0.000
1737553115.168,-45.410,-20.508,-12.695,-1000.000,0.000
1737553115.172,-43.457,-8.789,-14.648,-1000.000,0.000
1737553115.176,-25.879,-11.719,-18.066,-1000.000,0.000
1737553115.180,-31.738,-23.438,-17.578,-1000.000,0.000
1737553115.184,-36.133,-19.043,-24.902,-1000.000,0.000
1737553115.188,-23.926,-13.672,-24.902,-1000.000,0.000
1737553115.192,-20.508,-15.137,-15.137,-1000.000,0.000
1737553115.196,-21.973,-13.672,-20.020,-1000.000,0.000
1737553115.200,-16.602,-10.254,-22.461,-945.312,0.000
1737553115.204,-29.297,-8.789,-15.625,-1000.000,0.000
1737553115.208,-32.227,-10.742,-16.113,-627.930,0.000
1737553115.211,7.324,-8.789,-17.578,850.586,0.000
1737553115.215,-13.672,-14.160,-20.996,867.676,0.000
1737553115.219,-47.852,-15.137,-21.484,-838.867,0.000
1737553115.223,-26.855,-18.555,-18.066,-551.758,0.000
1737553115.227,-21.484,-37.109,-19.043,905.762,0.000
1737553115.231,-35.156,-33.691,-16.602,999.512,0.000
1737553115.235,-44.922,-18.066,-23.926,931.641,0.000
1737553115.239,-43.457,-17.578,-33.691,537.109,0.000
1737553115.243,-41.504,-17.090,-21.484,692.383,0.000
1737553115.247,-42.969,-8.301,-16.113,999.512,0.000
1737553115.251,-36.133,-8.301,-20.020,917.480,0.000
1737553115.254,-32.715,-13.672,-21.973,999.512,0.000
1737553115.258,-42.480,-18.066,-18.555,-57.617,0.000
1737553115.262,-55.176,-17.578,-13.672,-1000.000,0.000
1737553115.266,-29.785,-15.137,-10.742,285.156,0.000
1737553115.270,-6.348,-26.367,-8.789,999.512,0.000
1737553115.274,-36.133,-36.621,-8.789,634.766,0.000
1737553115.278,-63.477,-25.391,-17.578,-737.793,0.000
1737553115.282,-52.246,-16.602,-18.555,-1000.000,0.000
1737553115.286,-35.645,-20.996,-14.160,-934.570,0.000
1737553115.290,-36.621,-25.879,-20.508,-1000.000,0.000
1737553115.293,-48.340,-17.578,-26.855,-1000.000,0.000
1737553115.297,-50.293,-22.461,-24.414,-1000.000,0.000
1737553115.301,-38.086,-35.156,-19.531,-1000.000,0.000
1737553115.305,-28.320,-24.902,-12.695,-1000.000,0.000
1737553115.309,-30.762,-11.230,-10.742,-1000.000,0.000
1737553115.313,-32.227,-2.441,-12.207,-979.980,0.000
1737553115.317,-31.738,-2.441,-18.066,-980.957,0.000
1737553115.321,-27.344,-8.301,-23.926,-1000.000,0.000
1737553115.325,-4.883,-7.812,-21.484,27.832,0.000
1737553115.329,-3.906,-14.648,-18.555,999.512,0.000
1737553115.333,-19.043,-22.949,-16.602,943.848,0.000
1737553115.336,-13.672,-17.578,-21.973,949.707,0.000
1737553115.340,-7.812,-12.207,-23.926,964.844,0.000
1737553115.344,-23.926,-14.160,-16.602,973.145,0.000
1737553115.348,-28.809,-15.137,-15.137,966.797,0.000
1737553115.352,-3.906,-15.137,-16.602,978.516,0.000
1737553115.356,5.859,-13.672,-17.090,950.195,0.000
1737553115.360,3.906,-12.207,-18.555,920.410,0.000
1737553115.364,0.488,-24.414,-20.996,973.145,0.000
1737553115.368,-45.898,-29.785,-12.207,917.969,0.000
1737553115.372,-57.129,-17.578,-6.348,999.512,0.000
1737553115.375,-60.059,-19.043,-13.672,382.324,0.000
1737553115.379,-83.984,-20.508,-20.508,-923.828,0.000
1737553115.383,-75.684,-11.230,-20.996,-1000.000,0.000
1737553115.387,-51.758,-20.020,-21.973,-956.543,0.000
1737553115.391,-33.203,-22.461,-16.602,-1000.000,0.000
1737553115.395,-33.691,-12.695,-17.090,-1000.000,0.000
1737553115.399,-28.809,-12.695,-20.020,-949.707,0.000
1737553115.403,-26.855,-12.207,-14.648,-1000.000,0.000
1737553115.407,-26.855,-12.207,-13.184,-476.074,0.000
1737553115.411,-3.418,-11.230,-9.277,934.570,0.000
1737553115.415,-1.465,-17.090,-9.277,823.730,0.000
1737553115.418,-18.066,-24.414,-15.625,-651.855,0.000
1737553115.422,-39.551,-24.414,-24.414,-1000.000,0.000
1737553115.426,-35.156,-25.879,-27.832,-474.121,0.000
1737553115.430,3.418,-25.391,-16.113,809.570,0.000
1737553115.434,20.996,-17.090,-5.859,999.512,0.000
1737553115.438,5.371,-13.672,-14.160,-410.156,0.000
1737553115.442,-22.461,-27.344,-19.043,-1000.000,0.000
1737553115.446,-26.855,-28.809,-10.742,308.105,0.000
1737553115.450,-40.039,-11.719,-8.301,999.512,0.000
1737553115.454,-55.664,-5.371,-10.254,899.414,0.000
1737553115.458,-62.500,-23.926,-18.066,-395.996,0.000
1737553115.461,-71.777,-36.621,-29.297,-1000.000,0.000
1737553115.465,-64.453,-27.832,-28.809,-996.582,0.000
1737553115.469,-42.480,-20.020,-27.832,-789.551,0.000
1737553115.473,-13.184,-11.230,-17.578,-143.066,0.000
1737553115.477,-28.320,-12.207,-10.742,-681.152,0.000
1737553115.481,-38.574,-11.230,-15.137,-1000.000,0.000
1737553115.485,-27.344,-9.277,-13.672,-754.883,0.000
1737553115.489,-4.395,-9.766,-8.789,569.824,0.000
1737553115.493,3.418,-7.324,-10.254,999.512,0.000
1737553115.497,-6.348,-18.066,-15.137,334.473,0.000
1737553115.500,-32.715,-41.504,-14.160,-932.129,0.000
1737553115.504,-32.715,-39.551,-13.672,94.238,0.000
1737553115.508,-22.949,-25.391,-16.602,999.512,0.000
1737553115.512,-32.715,-22.461,-13.184,982.910,0.000
1737553115.516,-33.691,-17.578,-3.906,740.723,0.000
1737553115.520,-42.480,-20.996,-9.277,-806.641,0.000
1737553115.524,-30.762,-6.348,-11.719,-708.496,0.000
1737553115.528,9.766,-2.441,-7.812,751.953,0.000
1737553115.532,-9.277,-17.090,-11.719,999.512,0.000
1737553115.536,-44.922,-14.160,-3.906,504.883,0.000
1737553115.540,-60.547,-17.090,-12.207,-759.766,0.000
1737553115.543,-49.805,-23.926,-20.020,-1000.000,0.000
1737553115.547,-38.086,-18.555,-11.719,-472.656,0.000
1737553115.551,-29.297,-14.160,-14.648,889.160,0.000
1737553115.555,-13.672,-23.438,-20.996,754.883,0.000
1737553115.559,-32.715,-23.926,-26.367,-867.676,0.000
1737553115.563,-58.594,-14.648,-26.855,-945.801,0.000
1737553115.567,-33.691,-6.348,-14.648,553.223,0.000
1737553115.571,-15.625,-9.766,-19.043,999.512,0.000
1737553115.575,-19.043,-11.230,-23.926,891.602,0.000
1737553115.579,-39.551,-20.508,-14.160,-567.383,0.000
1737553115.583,-52.246,-29.785,-13.184,-926.758,0.000
1737553115.586,-40.039,-20.508,-24.414,711.426,0.000
1737553115.590,-31.738,-17.090,-34.668,999.512,0.000
1737553115.594,-11.230,-26.367,-24.414,974.609,0.000
1737553115.598,-16.113,-25.879,-10.742,469.727,0.000
1737553115.602,-37.598,-12.695,-11.230,116.699,0.000
1737553115.606,-28.320,-5.859,-11.719,824.219,0.000
1737553115.610,-16.113,-5.859,-10.742,999.512,0.000
1737553115.614,-30.273,-9.766,-18.066,737.793,0.000
1737553115.618,-42.480,-14.648,-18.555,-676.270,0.000
1737553115.622,-41.992,-19.043,-14.160,-1000.000,0.000
1737553115.625,-54.688,-27.344,-15.625,-930.176,0.000
1737553115.629,-41.016,-19.531,-14.160,-1000.000,0.000
1737553115.633,-32.715,-11.230,-13.184,-1000.000,0.000
1737553115.637,-40.527,-11.230,-24.902,-945.801,0.000
1737553115.641,-46.875,-6.348,-20.996,-1000.000,0.000
1737553115.645,-24.414,-11.230,-5.371,-832.520,0.000
1737553115.649,4.883,-22.461,-6.348,518.066,0.000
1737553115.653,-14.648,-18.066,-11.230,999.512,0.000
1737553115.657,-19.043,-11.719,-16.113,772.949,0.000
1737553115.661,-17.578,-13.672,-20.996,-563.477,0.000
1737553115.665,-33.203,-13.184,-15.625,-80.078,0.000
1737553115.668,-10.742,-12.207,-10.254,999.512,0.000
1737553115.672,-3.418,-16.113,-11.719,933.594,0.000
1737553115.676,-13.184,-24.414,-6.836,954.590,0.000
1737553115.680,-16.113,-18.066,-9.277,976.074,0.000
1737553115.684,-18.555,-1.953,-17.578,985.352,0.000
1737553115.688,-9.766,-0.977,-14.160,908.203,0.000
1737553115.692,-14.648,-14.160,-16.113,999.512,0.000
1737553115.696,-36.621,-20.020,-11.230,807.617,0.000
1737553115.700,-43.945,-12.207,-3.906,-769.043,0.000
1737553115.704,-42.969,-13.184,-7.812,-732.422,0.000
1737553115.707,-12.695,-19.043,-11.719,738.770,0.000
1737553115.711,-14.648,-10.742,-16.113,999.512,0.000
1737553115.715,-31.738,-2.930,-12.207,789.551,0.000
1737553115.719,-52.246,-18.066,-6.348,-732.422,0.000
1737553115.723,-51.758,-23.926,-14.160,-852.051,0.000
1737553115.727,-17.578,-14.160,-16.602,711.426,0.000
1737553115.731,0.488,-12.695,-8.301,999.512,0.000
1737553115.735,-24.902,-9.766,-5.859,944.336,0.000
1737553115.739,-54.199,-2.930,-4.883,-383.301,0.000
1737553115.743,-57.129,-3.418,-0.977,-1000.000,0.000
1737553115.747,-37.109,-9.766,-1.953,538.086,0.000
1737553115.750,-4.883,-19.043,-9.766,999.512,0.000
1737553115.754,-17.578,-20.020,-18.555,945.312,0.000
1737553115.758,-49.805,-16.602,-20.020,-343.750,0.000
1737553115.762,-42.969,-18.066,-17.090,-1000.000,0.000
1737553115.766,-8.789,-18.066,-16.113,473.145,0.000
1737553115.770,-5.371,-13.672,-17.578,999.512,0.000
1737553115.774,-10.742,-12.695,-13.184,876.465,0.000
1737553115.778,-29.785,-21.973,-10.742,-340.820,0.000
1737553115.782,-34.180,-28.320,-11.230,-1000.000,0.000
1737553115.786,0.000,-18.555,-13.184,-449.707,0.000
1737553115.790,19.043,-15.137,-23.926,857.422,0.000
1737553115.793,1.465,-20.020,-26.367,947.754,0.000
1737553115.797,-44.434,-26.855,-20.996,-531.738,0.000
1737553115.801,-66.895,-24.902,-19.043,-1000.000,0.000
1737553115.805,-30.273,-14.648,-16.602,-195.801,0.000
1737553115.809,0.977,-10.742,-7.812,849.121,0.000
1737553115.813,-10.254,-9.766,-10.254,999.512,0.000
1737553115.817,-24.902,-10.254,-17.578,622.070,0.000
1737553115.821,-51.270,-14.160,-9.766,-768.555,0.000
1737553115.825,-39.551,-9.277,-3.906,61.523,0.000
1737553115.829,-5.371,-4.883,-3.418,999.512,0.000
1737553115.832,0.488,-13.672,-8.301,980.957,0.000
1737553115.836,-6.836,-23.926,-14.160,628.906,0.000
1737553115.840,-32.715,-25.879,-19.531,-823.730,0.000
1737553115.844,-32.715,-24.902,-23.926,-997.070,0.000
1737553115.848,20.508,-20.020,-22.949,522.949,0.000
1737553115.852,46.387,-36.621,-17.090,999.512,0.000
1737553115.856,1.953,-27.344,-20.996,-87.402,0.000
1737553115.860,1.953,2.441,-26.367,-1000.000,0.000
1737553115.864,-4.883,-0.488,-17.578,-971.191,0.000
1737553115.868,-63.477,-4.883,-11.230,-984.375,0.000
1737553115.872,-99.609,-7.812,-14.648,-1000.000,0.000
1737553115.875,-81.055,-11.719,-15.625,-1000.000,0.000
1737553115.879,-57.129,-8.301,-10.254,-1000.000,0.000
1737553115.883,-67.383,-14.160,-2.930,-1000.000,0.000
1737553115.887,-71.289,-22.461,-7.324,-1000.000,0.000
1737553115.891,-41.992,-23.926,-18.555,-1000.000,0.000
1737553115.895,-33.203,-17.578,-24.902,-1000.000,0.000
1737553115.899,-26.367,-20.508,-17.578,-950.195,0.000
1737553115.903,-21.973,-20.508,-12.207,-1000.000,0.000
1737553115.907,-17.578,-12.207,-15.137,-919.434,0.000
1737553115.911,1.953,-23.926,-12.207,504.883,0.000
1737553115.915,5.859,-23.926,-13.184,999.512,0.000
1737553115.918,-16.113,-13.184,-23.926,-469.727,0.000
1737553115.922,-19.531,-18.555,-23.438,-980.469,0.000
1737553115.926,22.461,-18.555,-24.414,580.078,0.000
1737553115.930,28.320,-15.137,-26.367,999.512,0.000
1737553115.934,-1.953,-13.672,-21.973,896.484,0.000
1737553115.938,-24.414,-7.812,-20.996,-354.492,0.000
1737553115.942,-43.457,-8.301,-14.648,-1000.000,0.000
1737553115.946,-28.320,-13.184,-14.648,-31.250,0.000
1737553115.950,5.371,-18.066,-28.809,999.512,0.000
1737553115.954,1.465,-22.949,-32.715,840.820,0.000
1737553115.957,-27.832,-27.344,-19.531,-540.527,0.000
1737553115.961,-17.578,-30.273,-18.555,-1000.000,0.000
1737553115.965,10.742,-26.367,-23.926,-582.520,0.000
1737553115.969,10.254,-9.766,-20.020,742.676,0.000
1737553115.973,-18.066,-7.324,-20.996,999.512,0.000
1737553115.977,-58.105,-20.996,-27.344,-368.164,0.000
1737553115.981,-71.777,-24.414,-19.531,-1000.000,0.000
1737553115.985,-35.645,-18.555,-16.602,20.996,0.000
1737553115.989,-8.301,-19.531,-27.832,938.965,0.000
1737553115.993,-23.926,-17.090,-30.762,999.512,0.000
1737553115.997,-50.781,-11.719,-21.973,722.656,0.000
1737553116.000,-63.965,-21.484,-8.301,-751.953,0.000
1737553116.004,-41.992,-25.879,-8.301,-139.648,0.000
1737553116.008,-2.930,-23.926,-15.625,999.512,0.000
1737553116.012,-12.695,-31.738,-15.137,996.094,0.000
1737553116.016,-36.621,-26.855,-12.207,788.086,0.000
1737553116.020,-66.406,-20.020,-18.066,-739.746,0.000
1737553116.024,-93.262,-26.367,-25.879,-955.566,0.000
1737553116.028,-43.457,-21.484,-24.902,577.148,0.000
1737553116.032,-3.418,-16.113,-22.949,999.512,0.000
1737553116.036,-21.973,-20.508,-20.996,822.266,0.000
1737553116.039,-31.738,-19.043,-19.043,-670.898,0.000
1737553116.043,-17.090,-16.602,-20.996,-716.797,0.000
1737553116.047,-11.230,-15.137,-15.137,822.266,0.000
1737553116.051,-21.973,-13.184,-11.230,999.512,0.000
1737553116.055,-48.340,-7.812,-14.160,878.418,0.000
1737553116.059,-91.309,-6.836,-10.742,487.793,0.000
1737553116.063,-47.852,-15.137,2.930,782.227,0.000
1737553116.067,-25.391,2.930,-5.371,999.023,0.000
1737553116.071,-71.289,4.883,-14.648,958.984,0.000
1737553116.075,-70.312,-17.578,-7.812,953.125,0.000
1737553116.079,-73.242,-13.672,-1.953,-410.156,0.000
1737553116.082,-125.977,31.738,6.836,-1000.000,0.000
1737553116.086,-117.676,24.902,5.371,-932.617,0.000
1737553116.090,-121.582,-3.418,-22.949,-1000.000,0.000
1737553116.094,-170.410,-6.348,-41.504,-1000.000,0.000
1737553116.098,-259.277,-7.324,-35.156,-1000.000,0.000
1737553116.102,-347.168,5.371,-25.879,-1000.000,0.000
1737553116.106,-359.375,60.059,-29.785,-1000.000,0.000
1737553116.110,-356.445,17.090,-26.367,-1000.000,0.000
1737553116.114,-381.836,-39.551,-14.648,-1000.000,0.000
1737553116.118,-378.906,-8.789,-10.742,-1000.000,0.000
1737553116.122,-381.836,20.508,-16.602,-1000.000,0.000
1737553116.125,-441.895,22.461,-13.184,-1000.000,0.000
1737553116.129,-430.176,20.020,-5.371,-1000.000,0.000
1737553116.133,-396.484,28.320,-10.254,-1000.000,0.000
1737553116.137,-410.156,41.992,-11.719,-1000.000,0.000
1737553116.141,-360.840,36.621,-2.930,-1000.000,0.000
1737553116.145,-297.363,46.387,-9.766,-1000.000,0.000
1737553116.149,-325.684,47.363,-19.531,-1000.000,0.000
1737553116.153,-370.117,41.016,-19.043,-962.891,0.000
1737553116.157,-288.086,52.734,-22.949,-1000.000,0.000
1737553116.161,-224.121,51.758,-24.414,-1000.000,0.000
1737553116.164,-239.258,54.688,-22.949,310.547,0.000
1737553116.168,-164.062,68.359,-13.672,999.512,0.000
1737553116.172,-211.426,67.871,-7.812,988.770,0.000
1737553116.176,-290.527,61.523,-12.207,829.590,0.000
1737553116.180,-286.621,58.594,-11.719,-260.254,0.000
1737553116.184,-237.305,70.312,-20.020,445.312,0.000
1737553116.188,-207.520,52.734,-20.996,999.512,0.000
1737553116.192,-234.863,39.551,4.883,902.344,0.000
