timestamps,TP9,AF7,AF8,TP10,Right AUX
1737551543.354,-7.324,-18.066,-13.184,-367.188,0.000
1737551543.358,-34.668,-22.949,-18.555,-925.781,0.000
1737551543.361,-50.781,-23.438,-21.484,-834.473,0.000
1737551543.365,-13.672,-13.672,-16.602,599.121,0.000
1737551543.369,2.441,-10.254,-13.672,530.762,0.000
1737551543.373,-13.672,-7.324,-18.066,-311.523,0.000
1737551543.377,-20.996,-2.930,-17.090,-714.844,0.000
1737551543.381,-21.973,-7.324,-14.160,-895.020,0.000
1737551543.385,-5.371,-4.395,-14.160,475.098,0.000
1737551543.389,-4.883,-10.742,-16.602,562.012,0.000
1737551543.393,-20.508,-17.090,-10.742,-314.453,0.000
1737551543.397,-19.043,-12.695,-9.766,-585.938,0.000
1737551543.401,-24.902,-19.043,-15.625,-979.980,0.000
1737551543.404,-9.277,-19.531,-14.160,193.359,0.000
1737551543.408,9.766,-11.230,-9.277,871.094,0.000
1737551543.412,-12.207,-21.484,-16.113,-272.949,0.000
1737551543.416,-36.621,-32.227,-27.344,-968.262,0.000
1737551543.420,-32.227,-24.414,-19.531,-896.484,0.000
1737551543.424,-0.488,-12.695,-10.742,324.219,0.000
1737551543.428,10.742,-14.648,-16.602,536.621,0.000
1737551543.432,-12.207,-17.578,-15.137,-217.773,0.000
1737551543.436,-18.066,-18.066,-17.090,-379.883,0.000
1737551543.440,-29.785,-28.809,-22.461,-961.426,0.000
1737551543.444,-28.809,-27.832,-21.484,-117.676,0.000
1737551543.447,-4.395,-20.996,-20.996,903.320,0.000
1737551543.451,-7.812,-19.531,-18.555,81.055,0.000
1737551543.455,-31.250,-16.602,-16.113,-534.180,0.000
1737551543.459,-51.270,-25.879,-18.555,-949.219,0.000
1737551543.463,-33.203,-27.832,-20.996,-276.855,0.000
1737551543.467,0.000,-13.184,-13.184,908.203,0.000
1737551543.471,-1.465,-17.578,-5.859,197.266,0.000
1737551543.475,-23.926,-27.832,-9.766,-706.055,0.000
1737551543.479,-43.457,-25.879,-18.066,-1000.000,0.000
1737551543.483,-34.180,-20.020,-18.555,-252.930,0.000
1737551543.486,-6.348,-17.578,-10.254,891.113,0.000
1737551543.490,-3.906,-20.508,-7.812,254.883,0.000
1737551543.494,-22.461,-20.020,-12.695,-522.949,0.000
1737551543.498,-32.715,-20.996,-17.578,-959.473,0.000
1737551543.502,-26.367,-23.438,-17.090,-620.117,0.000
1737551543.506,-5.371,-16.602,-15.137,760.742,0.000
1737551543.510,-4.883,-14.648,-13.184,655.762,0.000
1737551543.514,-29.297,-16.113,-13.672,-281.250,0.000
1737551543.518,-41.504,-22.949,-19.043,-954.102,0.000
1737551543.522,-45.898,-25.391,-21.484,-783.203,0.000
1737551543.526,-20.996,-19.531,-16.602,633.301,0.000
1737551543.529,0.977,-17.090,-14.648,630.859,0.000
1737551543.533,-23.438,-22.949,-11.230,-442.383,0.000
1737551543.537,-34.180,-26.855,-17.578,-974.121,0.000
1737551543.541,-30.762,-20.996,-26.855,-840.332,0.000
1737551543.545,-7.324,-10.254,-24.414,546.387,0.000
1737551543.549,12.695,-3.906,-17.578,685.547,0.000
1737551543.553,12.207,-5.371,-17.090,-243.164,0.000
1737551543.557,-3.418,-9.766,-20.996,-796.387,0.000
1737551543.561,-14.648,-12.207,-19.043,-968.750,0.000
1737551543.565,2.930,-8.301,-15.137,401.367,0.000
1737551543.569,5.859,-9.277,-15.625,792.969,0.000
1737551543.572,-9.766,-18.555,-17.090,-311.523,0.000
1737551543.576,-35.645,-23.438,-20.996,-791.016,0.000
1737551543.580,-50.293,-24.902,-24.902,-989.746,0.000
1737551543.584,-21.484,-19.043,-22.461,152.344,0.000
1737551543.588,0.977,-13.184,-19.043,944.824,0.000
1737551543.592,-20.020,-20.020,-20.996,-39.551,0.000
1737551543.596,-41.992,-25.879,-20.508,-811.523,0.000
1737551543.600,-47.363,-28.320,-22.461,-1000.000,0.000
1737551543.604,-29.785,-17.090,-25.391,63.477,0.000
1737551543.608,-7.812,-10.742,-20.020,999.512,0.000
1737551543.611,-41.992,-22.949,-20.508,142.090,0.000
1737551543.615,-56.641,-21.973,-22.949,-863.281,0.000
1737551543.619,-46.875,-30.762,-22.949,-1000.000,0.000
1737551543.623,-64.453,-17.090,-7.324,-390.137,0.000
1737551543.627,-44.434,16.113,8.301,860.840,0.000
1737551543.631,-53.223,-6.348,-0.977,152.344,0.000
1737551543.635,-100.098,-20.508,-20.996,-931.641,0.000
1737551543.639,-155.762,20.508,-18.555,-1000.000,0.000
1737551543.643,-171.387,23.438,34.180,-721.191,0.000
1737551543.647,-136.719,-0.488,31.738,45.898,0.000
1737551543.651,-190.918,-13.184,-31.738,-656.250,0.000
1737551543.654,-259.766,-9.277,-36.621,-1000.000,0.000
1737551543.658,-319.336,-2.441,-19.043,-946.289,0.000
1737551543.662,-383.301,1.953,-16.602,-1000.000,0.000
1737551543.666,-395.020,-10.254,-7.324,-872.070,0.000
1737551543.670,-395.020,-10.254,-4.395,-887.207,0.000
1737551543.674,-393.066,2.441,-7.812,-1000.000,0.000
1737551543.678,-388.672,13.672,-15.625,-986.816,0.000
1737551543.682,-417.480,6.348,-19.531,-987.305,0.000
1737551543.686,-411.621,7.812,-13.184,-1000.000,0.000
1737551543.690,-387.207,3.906,-20.996,-536.133,0.000
1737551543.694,-360.840,1.953,-31.250,-147.949,0.000
1737551543.697,-348.145,3.906,-39.551,-826.660,0.000
1737551543.701,-350.586,0.488,-44.434,-1000.000,0.000
1737551543.705,-318.848,1.953,-49.316,169.434,0.000
1737551543.709,-286.133,7.324,-41.504,960.449,0.000
1737551543.713,-289.551,7.812,-39.062,-414.551,0.000
1737551543.717,-290.039,3.418,-46.387,-1000.000,0.000
1737551543.721,-280.273,2.441,-41.992,-1000.000,0.000
1737551543.725,-264.160,-0.977,-39.062,-823.242,0.000
1737551543.729,-213.379,6.836,-38.086,328.613,0.000
1737551543.733,-193.359,3.418,-34.668,-133.789,0.000
1737551543.736,-193.359,3.906,-33.203,-1000.000,0.000
1737551543.740,-177.734,6.836,-28.809,-1000.000,0.000
1737551543.744,-150.391,-1.465,-27.344,-347.656,0.000
1737551543.748,-106.445,0.488,-23.438,945.312,0.000
1737551543.752,-86.914,3.418,-21.973,641.602,0.000
1737551543.756,-98.145,-15.137,-27.832,-727.539,0.000
1737551543.760,-81.543,-29.785,-31.738,-1000.000,0.000
1737551543.764,-52.734,-24.414,-38.086,-241.211,0.000
1737551543.768,-29.297,-17.578,-41.016,930.176,0.000
1737551543.772,-21.484,-22.461,-36.621,148.438,0.000
1737551543.776,-25.391,-29.297,-38.574,-926.270,0.000
1737551543.779,-7.324,-40.527,-41.504,-1000.000,0.000
1737551543.783,16.113,-35.645,-43.457,-831.055,0.000
1737551543.787,49.805,-26.855,-37.598,545.410,0.000
1737551543.791,84.473,-30.762,-30.762,853.027,0.000
1737551543.795,79.102,-33.203,-29.785,-486.816,0.000
1737551543.799,57.617,-36.133,-34.180,-1000.000,0.000
1737551543.803,69.824,-41.016,-33.691,-695.801,0.000
1737551543.807,109.375,-38.086,-29.297,697.266,0.000
1737551543.811,118.164,-40.527,-32.715,999.512,0.000
1737551543.815,129.395,-41.504,-27.344,-171.875,0.000
1737551543.818,125.000,-38.574,-25.879,-1000.000,0.000
1737551543.822,118.652,-36.621,-29.785,-775.391,0.000
1737551543.826,157.715,-36.133,-27.832,677.734,0.000
1737551543.830,167.480,-39.062,-26.367,999.512,0.000
1737551543.834,142.090,-42.480,-25.879,-285.156,0.000
1737551543.838,142.090,-43.457,-24.902,-1000.000,0.000
1737551543.842,146.973,-41.504,-25.879,-780.273,0.000
1737551543.846,164.551,-37.109,-33.203,575.195,0.000
1737551543.850,181.641,-39.062,-33.203,999.512,0.000
1737551543.854,172.363,-38.086,-27.832,398.438,0.000
1737551543.858,139.648,-40.527,-26.367,-867.188,0.000
1737551543.861,138.672,-31.250,-23.438,-941.895,0.000
1737551543.865,158.691,-33.203,-21.484,536.133,0.000
1737551543.869,149.414,-34.668,-23.438,999.512,0.000
1737551543.873,121.582,-23.926,-28.320,413.086,0.000
1737551543.877,93.750,-22.461,-29.785,-790.039,0.000
1737551543.881,75.195,-13.184,-32.227,-1000.000,0.000
1737551543.885,71.777,-4.883,-26.855,160.645,0.000
1737551543.889,64.941,8.301,-20.020,999.512,0.000
1737551543.893,50.781,16.602,-13.184,618.164,0.000
1737551543.897,24.902,-2.441,-19.531,-662.598,0.000
1737551543.901,-41.504,-8.789,-34.668,-1000.000,0.000
1737551543.904,-81.543,-1.953,-38.574,-355.469,0.000
1737551543.908,-79.590,20.508,-33.203,901.855,0.000
1737551543.912,-128.418,35.156,-29.297,360.352,0.000
1737551543.916,-194.824,24.902,-29.785,-857.910,0.000
1737551543.920,-233.887,11.719,-21.973,-1000.000,0.000
1737551543.924,-250.488,-7.324,-7.812,-741.699,0.000
1737551543.928,-240.723,-5.371,-5.859,738.770,0.000
1737551543.932,-249.512,-3.906,-2.930,749.023,0.000
1737551543.936,-285.156,-12.207,4.883,-705.078,0.000
1737551543.940,-312.500,-28.320,1.465,-1000.000,0.000
1737551543.943,-289.062,-36.133,0.000,-782.715,0.000
1737551543.947,-240.723,-25.391,12.695,664.062,0.000
1737551543.951,-229.980,-20.508,15.625,919.434,0.000
1737551543.955,-232.910,-24.902,9.766,-531.250,0.000
1737551543.959,-219.238,-12.207,8.789,-1000.000,0.000
1737551543.963,-208.008,-5.859,9.277,-547.363,0.000
1737551543.967,-192.871,-4.883,10.254,722.656,0.000
1737551543.971,-166.016,-6.348,9.766,999.512,0.000
1737551543.975,-151.855,-16.113,4.883,362.793,0.000
1737551543.979,-170.898,-15.625,2.441,-909.180,0.000
1737551543.983,-165.527,-13.184,0.977,-789.062,0.000
1737551543.986,-113.281,-11.230,-1.465,677.246,0.000
1737551543.990,-82.031,-14.160,-4.883,999.512,0.000
1737551543.994,-68.848,-19.043,-7.812,426.270,0.000
1737551543.998,-79.590,-25.391,-11.719,-865.723,0.000
1737551544.002,-58.594,-27.832,-10.742,-939.453,0.000
1737551544.006,-13.672,-27.832,-12.207,554.199,0.000
1737551544.010,12.695,-25.391,-13.672,999.512,0.000
1737551544.014,21.973,-22.949,-11.230,372.559,0.000
1737551544.018,12.695,-31.738,-17.090,-861.816,0.000
1737551544.022,44.922,-39.062,-20.508,-986.816,0.000
1737551544.026,95.215,-24.414,-16.602,430.664,0.000
1737551544.029,96.680,-17.090,-15.625,999.512,0.000
1737551544.033,97.656,-30.273,-20.508,531.250,0.000
1737551544.037,94.238,-40.039,-24.902,-792.480,0.000
1737551544.041,97.168,-36.621,-23.438,-1000.000,0.000
1737551544.045,137.695,-35.645,-22.461,343.750,0.000
1737551544.049,153.320,-43.457,-23.438,999.512,0.000
1737551544.053,136.719,-42.480,-22.949,757.812,0.000
1737551544.057,122.070,-47.363,-26.855,-596.191,0.000
1737551544.061,120.605,-48.340,-27.344,-1000.000,0.000
1737551544.065,155.762,-38.086,-22.461,143.066,0.000
1737551544.068,188.965,-33.691,-19.043,999.512,0.000
1737551544.072,179.199,-28.809,-16.602,928.223,0.000
1737551544.076,147.461,-25.391,-17.090,-197.754,0.000
1737551544.080,117.676,-27.832,-19.043,-1000.000,0.000
1737551544.084,129.883,-24.902,-14.160,-367.676,0.000
1737551544.088,153.320,-27.832,-16.113,859.863,0.000
1737551544.092,155.762,-23.438,-14.160,999.512,0.000
1737551544.096,135.742,-26.855,-9.766,-25.879,0.000
1737551544.100,107.422,-34.180,-14.648,-1000.000,0.000
1737551544.104,117.676,-32.715,-21.484,-595.703,0.000
1737551544.108,149.414,-27.832,-17.090,762.695,0.000
1737551544.111,153.320,-21.484,-11.719,999.512,0.000
1737551544.115,123.535,-30.762,-18.555,30.762,0.000
1737551544.119,92.285,-37.109,-18.555,-1000.000,0.000
1737551544.123,105.957,-27.832,-17.578,-609.863,0.000
1737551544.127,124.512,-23.926,-19.531,746.094,0.000
1737551544.131,121.582,-30.273,-16.113,999.512,0.000
1737551544.135,108.398,-31.738,-17.578,259.277,0.000
1737551544.139,78.613,-30.762,-21.973,-976.074,0.000
1737551544.143,85.938,-26.855,-22.461,-829.102,0.000
1737551544.147,124.023,-24.902,-22.461,649.414,0.000
1737551544.151,125.977,-23.926,-24.902,999.512,0.000
1737551544.154,92.285,-29.297,-23.438,204.102,0.000
1737551544.158,69.336,-39.062,-20.996,-957.520,0.000
1737551544.162,61.035,-37.109,-24.902,-922.363,0.000
1737551544.166,71.289,-27.344,-20.020,506.836,0.000
1737551544.170,88.867,-19.043,-14.648,999.512,0.000
1737551544.174,74.707,-22.949,-20.020,436.035,0.000
1737551544.178,38.086,-31.738,-24.902,-812.988,0.000
1737551544.182,31.250,-34.180,-29.785,-1000.000,0.000
1737551544.186,45.410,-24.414,-26.855,239.258,0.000
1737551544.190,72.266,-18.555,-22.949,999.512,0.000
1737551544.193,62.500,-24.414,-24.414,648.926,0.000
1737551544.197,27.832,-23.438,-23.926,-677.246,0.000
1737551544.201,15.625,-24.902,-21.484,-1000.000,0.000
1737551544.205,23.926,-22.461,-18.555,-137.695,0.000
1737551544.209,41.504,-17.578,-20.996,999.512,0.000
1737551544.213,41.016,-18.066,-20.996,776.855,0.000
1737551544.217,21.484,-17.090,-19.043,-594.727,0.000
1737551544.221,11.230,-20.996,-25.879,-1000.000,0.000
1737551544.225,25.391,-21.484,-21.973,-437.012,0.000
1737551544.229,50.781,-14.648,-13.184,848.145,0.000
1737551544.233,36.621,-19.043,-13.672,971.191,0.000
1737551544.236,12.695,-24.902,-17.090,-407.227,0.000
1737551544.240,0.000,-23.926,-19.531,-1000.000,0.000
1737551544.244,7.324,-17.090,-17.578,-403.320,0.000
1737551544.248,33.691,-10.742,-10.742,787.598,0.000
1737551544.252,49.316,-4.395,-3.418,999.512,0.000
1737551544.256,28.809,-10.742,-3.906,178.711,0.000
1737551544.260,-1.953,-25.391,-11.719,-1000.000,0.000
1737551544.264,-1.465,-20.996,-16.602,-748.535,0.000
1737551544.268,9.277,-19.531,-20.020,672.363,0.000
1737551544.272,19.531,-20.020,-18.555,999.512,0.000
1737551544.275,9.766,-17.090,-15.137,158.203,0.000
1737551544.279,-8.789,-19.531,-17.578,-1000.000,0.000
1737551544.283,-0.977,-22.949,-15.625,-856.934,0.000
1737551544.287,20.508,-21.484,-12.207,610.352,0.000
1737551544.291,26.855,-18.555,-13.672,999.512,0.000
1737551544.295,18.066,-20.996,-15.137,32.227,0.000
1737551544.299,-17.578,-21.973,-14.648,-1000.000,0.000
1737551544.303,-25.879,-20.508,-15.625,-911.133,0.000
1737551544.307,-1.953,-20.020,-15.137,425.293,0.000
1737551544.311,13.672,-14.648,-14.648,999.512,0.000
1737551544.315,9.277,-6.348,-18.066,723.145,0.000
1737551544.318,-21.973,-20.508,-25.391,-665.039,0.000
1737551544.322,-40.527,-32.715,-21.973,-1000.000,0.000
1737551544.326,-21.484,-25.879,-16.602,207.520,0.000
1737551544.330,-8.789,-19.531,-21.484,999.512,0.000
1737551544.334,-17.578,-21.484,-21.973,708.008,0.000
1737551544.338,-28.809,-23.926,-12.695,-694.336,0.000
1737551544.342,-25.391,-22.949,-15.137,-1000.000,0.000
1737551544.346,-8.301,-19.043,-16.602,210.449,0.000
1737551544.350,3.906,-15.137,-12.207,999.512,0.000
1737551544.354,1.465,-15.625,-20.020,758.301,0.000
1737551544.358,-30.273,-11.230,-29.785,-591.309,0.000
1737551544.361,-32.227,-8.301,-14.648,-1000.000,0.000
1737551544.365,-22.461,2.930,-5.859,-250.000,0.000
1737551544.369,0.000,4.395,-6.348,968.750,0.000
1737551544.373,11.230,-5.371,-0.488,860.840,0.000
1737551544.377,-61.523,-8.301,-12.207,-556.152,0.000
1737551544.381,-120.605,-13.184,-24.414,-1000.000,0.000
1737551544.385,-142.090,10.254,-20.020,-842.773,0.000
1737551544.389,-138.672,12.695,0.488,584.473,0.000
1737551544.393,-161.133,0.977,-6.836,760.254,0.000
1737551544.397,-227.539,1.953,-20.996,-745.117,0.000
1737551544.400,-295.898,18.555,-20.508,-1000.000,0.000
1737551544.404,-358.398,21.973,-22.949,-856.445,0.000
1737551544.408,-372.559,13.672,-13.672,568.359,0.000
1737551544.412,-384.766,3.906,-5.371,989.746,0.000
1737551544.416,-421.875,-4.395,-10.254,-478.027,0.000
1737551544.420,-430.664,-1.953,-13.672,-1000.000,0.000
1737551544.424,-414.551,1.953,-6.836,-821.777,0.000
1737551544.428,-369.141,11.719,-5.859,549.805,0.000
1737551544.432,-342.773,16.113,-7.812,999.512,0.000
1737551544.436,-347.168,14.648,3.906,-54.199,0.000
1737551544.440,-357.422,8.789,0.488,-1000.000,0.000
1737551544.443,-328.613,9.277,-6.836,-858.887,0.000
1737551544.447,-277.344,11.719,-2.441,508.789,0.000
1737551544.451,-249.023,13.184,-1.465,999.512,0.000
1737551544.455,-223.633,6.348,-4.883,458.496,0.000
1737551544.459,-224.121,-9.277,-8.789,-881.836,0.000
1737551544.463,-226.562,-8.301,-7.324,-951.660,0.000
1737551544.467,-189.941,2.930,-6.348,501.465,0.000
1737551544.471,-148.438,4.883,-3.906,999.512,0.000
1737551544.475,-121.582,-2.930,-0.488,675.781,0.000
1737551544.479,-137.695,-17.090,-6.836,-723.633,0.000
1737551544.483,-132.324,-23.926,-11.230,-1000.000,0.000
1737551544.486,-83.008,-22.949,-7.812,371.582,0.000
1737551544.490,-51.270,-23.926,-9.277,999.512,0.000
1737551544.494,-39.551,-27.344,-9.766,835.938,0.000
1737551544.498,-48.828,-35.645,-17.578,-495.605,0.000
1737551544.502,-41.016,-45.898,-27.344,-1000.000,0.000
1737551544.506,5.371,-41.992,-24.414,-193.848,0.000
1737551544.510,47.363,-30.762,-25.391,977.051,0.000
1737551544.514,64.453,-27.832,-25.879,880.371,0.000
1737551544.518,32.227,-34.180,-26.367,-561.523,0.000
1737551544.522,13.184,-36.621,-28.809,-1000.000,0.000
1737551544.525,53.223,-26.855,-26.855,-149.414,0.000
1737551544.529,91.797,-26.855,-22.461,930.176,0.000
1737551544.533,93.750,-31.250,-21.484,999.512,0.000
1737551544.537,87.402,-26.367,-24.414,-107.422,0.000
1737551544.541,86.914,-30.273,-28.320,-1000.000,0.000
1737551544.545,102.539,-28.809,-26.367,-372.070,0.000
1737551544.549,125.977,-26.855,-26.855,905.762,0.000
1737551544.553,128.906,-34.668,-25.879,973.633,0.000
1737551544.557,116.211,-37.598,-23.926,-292.969,0.000
1737551544.561,101.562,-40.039,-32.715,-1000.000,0.000
1737551544.565,108.398,-37.598,-35.156,-590.332,0.000
1737551544.568,141.113,-28.320,-26.855,709.473,0.000
1737551544.572,149.902,-21.484,-21.484,999.512,0.000
1737551544.576,138.672,-29.297,-27.832,226.562,0.000
1737551544.580,114.746,-37.109,-33.691,-1000.000,0.000
1737551544.584,110.840,-28.320,-30.273,-815.430,0.000
1737551544.588,138.184,-19.531,-20.996,609.375,0.000
1737551544.592,143.555,-16.113,-17.090,999.512,0.000
1737551544.596,128.418,-16.602,-22.949,534.180,0.000
1737551544.600,102.539,-27.344,-28.320,-844.238,0.000
1737551544.604,98.633,-36.133,-29.785,-978.027,0.000
1737551544.607,115.723,-33.691,-23.926,471.191,0.000
1737551544.611,119.629,-29.297,-19.531,999.512,0.000
1737551544.615,106.445,-29.785,-24.414,670.410,0.000
1737551544.619,76.172,-41.016,-30.762,-741.699,0.000
1737551544.623,75.195,-39.062,-29.297,-1000.000,0.000
1737551544.627,113.281,-25.879,-22.949,393.066,0.000
1737551544.631,120.117,-24.414,-23.438,999.512,0.000
1737551544.635,112.305,-24.902,-23.926,708.008,0.000
1737551544.639,82.520,-22.461,-22.949,-664.551,0.000
1737551544.643,57.617,-20.996,-22.461,-1000.000,0.000
1737551544.647,74.219,-20.996,-20.020,46.875,0.000
1737551544.650,101.074,-20.508,-20.508,999.512,0.000
1737551544.654,93.750,-20.508,-19.531,848.633,0.000
1737551544.658,63.965,-22.949,-20.996,-532.715,0.000
1737551544.662,35.645,-28.809,-23.438,-1000.000,0.000
1737551544.666,43.945,-25.391,-22.461,-198.730,0.000
1737551544.670,75.684,-16.113,-17.578,979.980,0.000
1737551544.674,81.055,-17.578,-14.160,892.578,0.000
1737551544.678,46.387,-25.391,-19.043,-527.344,0.000
1737551544.682,19.531,-32.715,-20.996,-1000.000,0.000
1737551544.686,37.598,-27.344,-15.137,-266.602,0.000
1737551544.690,63.965,-18.066,-17.090,935.059,0.000
1737551544.693,65.430,-23.926,-22.949,944.824,0.000
1737551544.697,37.598,-35.156,-27.832,-404.297,0.000
1737551544.701,12.207,-30.273,-25.391,-1000.000,0.000
1737551544.705,19.043,-23.438,-22.949,-559.570,0.000
1737551544.709,47.363,-22.461,-22.949,737.305,0.000
1737551544.713,59.570,-16.113,-17.090,999.512,0.000
1737551544.717,34.668,-22.461,-20.508,-52.734,0.000
1737551544.721,4.883,-30.273,-25.391,-1000.000,0.000
1737551544.725,5.859,-30.762,-19.531,-784.668,0.000
1737551544.729,36.621,-27.344,-16.113,593.262,0.000
1737551544.732,41.504,-15.625,-11.719,999.512,0.000
1737551544.736,17.578,-17.578,-13.672,284.668,0.000
1737551544.740,5.859,-30.762,-17.578,-986.328,0.000
1737551544.744,1.465,-32.715,-16.602,-892.578,0.000
1737551544.748,15.625,-25.391,-15.137,532.227,0.000
1737551544.752,30.273,-18.555,-15.137,999.512,0.000
1737551544.756,22.949,-17.090,-14.648,526.855,0.000
1737551544.760,-13.672,-19.531,-12.695,-843.750,0.000
1737551544.764,-18.555,-24.902,-16.113,-981.934,0.000
1737551544.768,9.277,-21.973,-19.531,463.379,0.000
1737551544.772,15.137,-12.207,-17.578,999.512,0.000
1737551544.775,2.930,-8.301,-1.953,637.207,0.000
1737551544.779,-12.695,-16.113,0.977,-703.613,0.000
1737551544.783,-23.438,-18.555,-18.555,-1000.000,0.000
1737551544.787,-18.066,-12.695,-16.113,53.223,0.000
1737551544.791,-15.625,-4.883,-3.418,999.512,0.000
1737551544.795,-65.430,0.000,6.836,717.285,0.000
1737551544.799,-127.930,5.371,-4.395,-648.438,0.000
1737551544.803,-165.527,17.578,-17.578,-1000.000,0.000
1737551544.807,-183.594,6.348,-3.906,-812.988,0.000
1737551544.811,-181.641,2.441,7.812,603.516,0.000
1737551544.815,-222.168,11.719,12.207,948.730,0.000
1737551544.818,-311.035,17.090,16.602,-607.422,0.000
1737551544.822,-360.352,9.766,13.184,-1000.000,0.000
1737551544.826,-376.465,3.906,7.812,-524.902,0.000
1737551544.830,-367.676,6.348,10.742,831.543,0.000
1737551544.834,-359.375,7.324,9.277,882.812,0.000
1737551544.838,-383.301,2.441,5.859,-600.586,0.000
1737551544.842,-371.094,3.906,1.465,-1000.000,0.000
1737551544.846,-319.824,9.766,0.000,-588.867,0.000
1737551544.850,-300.293,6.348,0.488,705.566,0.000
1737551544.854,-283.203,3.418,2.441,999.512,0.000
1737551544.857,-265.625,-9.277,-1.953,-38.574,0.000
1737551544.861,-273.926,-16.602,-4.883,-1000.000,0.000
1737551544.865,-231.934,-12.207,2.930,-435.547,0.000
1737551544.869,-178.223,-9.766,7.324,813.477,0.000
1737551544.873,-145.508,-12.695,12.695,999.512,0.000
1737551544.877,-127.930,-23.926,11.719,442.383,0.000
1737551544.881,-143.555,-35.645,6.348,-943.359,0.000
1737551544.885,-120.605,-41.016,3.418,-842.773,0.000
1737551544.889,-63.965,-40.527,1.953,632.812,0.000
1737551544.893,-31.250,-41.504,0.488,999.512,0.000
1737551544.897,-15.625,-43.945,-3.906,297.852,0.000
1737551544.900,-30.273,-49.316,-8.301,-979.004,0.000
1737551544.904,-30.273,-53.223,-15.625,-902.832,0.000
1737551544.908,11.230,-45.410,-17.578,512.695,0.000
1737551544.912,39.062,-38.086,-15.625,999.512,0.000
1737551544.916,33.203,-40.527,-12.207,720.215,0.000
1737551544.920,12.695,-44.434,-11.230,-666.992,0.000
1737551544.924,7.812,-42.480,-18.066,-1000.000,0.000
1737551544.928,43.457,-45.410,-20.508,158.203,0.000
1737551544.932,80.078,-41.504,-20.020,999.512,0.000
1737551544.936,90.332,-38.574,-20.996,711.914,0.000
1737551544.940,65.918,-43.945,-24.902,-719.727,0.000
1737551544.943,63.965,-41.992,-28.320,-1000.000,0.000
1737551544.947,104.980,-33.691,-26.367,213.867,0.000
1737551544.951,125.977,-26.367,-22.461,999.512,0.000
1737551544.955,115.723,-26.367,-23.926,822.266,0.000
1737551544.959,85.449,-33.691,-26.855,-551.270,0.000
1737551544.963,72.754,-37.598,-29.785,-1000.000,0.000
1737551544.967,97.168,-31.738,-31.250,-112.793,0.000
1737551544.971,117.676,-26.855,-26.367,979.492,0.000
1737551544.975,117.676,-28.809,-22.461,941.406,0.000
1737551544.979,102.051,-32.227,-23.438,-369.141,0.000
1737551544.982,73.730,-41.016,-30.762,-1000.000,0.000
1737551544.986,89.355,-38.574,-31.738,-473.633,0.000
1737551544.990,125.488,-26.855,-27.832,797.363,0.000
1737551544.994,122.559,-23.438,-28.320,904.297,0.000
1737551544.998,105.469,-27.832,-28.809,-259.766,0.000
1737551545.002,87.402,-30.273,-32.715,-1000.000,0.000
1737551545.006,94.238,-25.391,-32.715,-520.020,0.000
1737551545.010,111.816,-25.879,-30.762,753.418,0.000
1737551545.014,112.305,-26.367,-28.320,999.512,0.000
1737551545.018,96.191,-30.273,-29.297,240.723,0.000
1737551545.022,66.895,-35.645,-33.691,-1000.000,0.000
1737551545.025,66.406,-28.809,-30.762,-833.496,0.000
1737551545.029,85.938,-19.531,-27.344,609.863,0.000
1737551545.033,83.008,-19.043,-23.438,999.512,0.000
1737551545.037,70.801,-21.973,-18.066,316.406,0.000
1737551545.041,40.039,-27.832,-20.996,-967.773,0.000
1737551545.045,33.691,-25.879,-25.391,-887.695,0.000
1737551545.049,72.754,-25.879,-25.391,525.391,0.000
1737551545.053,72.754,-23.926,-27.832,999.512,0.000
1737551545.057,48.340,-18.555,-30.273,493.164,0.000
1737551545.061,27.344,-21.973,-31.250,-855.469,0.000
1737551545.064,34.668,-19.531,-29.785,-995.117,0.000
1737551545.068,61.035,-17.090,-22.949,411.133,0.000
1737551545.072,63.477,-17.578,-19.531,999.512,0.000
1737551545.076,40.527,-19.531,-21.484,644.043,0.000
1737551545.080,11.719,-25.879,-26.367,-749.023,0.000
1737551545.084,8.789,-26.855,-28.320,-1000.000,0.000
1737551545.088,40.039,-20.020,-19.043,291.016,0.000
1737551545.092,63.965,-9.766,-15.137,999.512,0.000
1737551545.096,64.941,-9.277,-18.066,778.809,0.000
1737551545.100,32.715,-21.973,-15.625,-657.715,0.000
1737551545.104,11.230,-27.832,-19.531,-1000.000,0.000
1737551545.107,45.898,-14.160,-19.043,277.344,0.000
1737551545.111,70.312,-10.742,-20.020,999.512,0.000
1737551545.115,50.781,-17.090,-25.391,810.059,0.000
1737551545.119,27.344,-20.020,-25.391,-525.391,0.000
1737551545.123,3.418,-27.832,-25.391,-1000.000,0.000
1737551545.127,-13.672,-22.949,-20.020,-422.852,0.000
1737551545.131,18.066,-9.277,-13.672,846.680,0.000
1737551545.135,28.320,-11.230,-10.254,973.145,0.000
1737551545.139,3.906,-23.438,-18.555,-462.402,0.000
1737551545.143,-0.488,-24.902,-24.414,-1000.000,0.000
1737551545.147,12.207,-16.113,-20.508,-285.645,0.000
1737551545.150,10.254,-12.695,-20.996,879.395,0.000
1737551545.154,9.277,-10.254,-18.066,999.512,0.000
1737551545.158,-11.719,-13.672,-21.484,-80.078,0.000
1737551545.162,-31.250,-26.367,-28.320,-1000.000,0.000
1737551545.166,-9.277,-23.926,-26.855,-744.141,0.000
1737551545.170,1.465,-14.160,-25.879,684.082,0.000
1737551545.174,-0.488,-12.207,-25.391,999.512,0.000
1737551545.178,-11.230,-23.438,-20.508,-207.031,0.000
1737551545.182,-33.203,-32.227,-22.461,-1000.000,0.000
1737551545.186,-22.949,-24.902,-17.090,-775.879,0.000
1737551545.189,15.137,-11.719,-11.719,571.289,0.000
1737551545.193,20.996,-9.277,-11.719,999.512,0.000
1737551545.197,2.930,-13.672,-9.277,252.930,0.000
1737551545.201,-7.812,-15.625,-16.113,-1000.000,0.000
1737551545.205,-22.949,-16.602,-19.043,-867.188,0.000
1737551545.209,-0.977,-11.230,-15.625,560.059,0.000
1737551545.213,23.926,-13.184,-15.137,999.512,0.000
1737551545.217,12.695,-20.508,-14.160,509.277,0.000
1737551545.221,-25.391,-21.973,-17.578,-850.586,0.000
1737551545.225,-21.484,-25.879,-22.461,-987.305,0.000
1737551545.229,-3.906,-16.113,-16.113,442.871,0.000
1737551545.232,-2.930,-11.230,-12.207,999.512,0.000
1737551545.236,-2.441,-17.090,-16.113,700.195,0.000
1737551545.240,-30.762,-20.508,-17.578,-698.242,0.000
1737551545.244,-30.273,-20.020,-16.602,-1000.000,0.000
1737551545.248,0.488,-10.742,-16.602,236.816,0.000
1737551545.252,33.203,-5.859,-14.648,999.512,0.000
1737551545.256,13.672,-17.578,-17.090,726.562,0.000
1737551545.260,-27.832,-27.344,-20.020,-663.086,0.000
1737551545.264,-29.297,-22.461,-19.043,-1000.000,0.000
1737551545.268,-18.066,-15.625,-18.066,-32.227,0.000
1737551545.272,-5.859,-14.648,-17.578,999.512,0.000
1737551545.275,-11.719,-12.695,-15.625,883.301,0.000
1737551545.279,-40.527,-18.066,-15.625,-535.156,0.000
1737551545.283,-46.387,-25.391,-16.113,-1000.000,0.000
1737551545.287,12.695,-16.602,-10.254,-47.852,0.000
1737551545.291,30.273,-10.254,-11.230,990.234,0.000
1737551545.295,6.836,-5.859,-10.254,947.266,0.000
1737551545.299,-43.945,-11.719,-7.812,-298.828,0.000
1737551545.303,-73.730,-20.996,-13.672,-1000.000,0.000
1737551545.307,-41.016,-16.113,-16.113,-626.465,0.000
1737551545.311,-8.789,-14.648,-13.672,703.613,0.000
1737551545.314,-10.254,-17.090,-11.719,999.512,0.000
1737551545.318,-41.504,-26.367,-17.090,-125.488,0.000
1737551545.322,-53.223,-27.344,-22.461,-1000.000,0.000
1737551545.326,-42.969,-16.602,-24.414,-709.473,0.000
1737551545.330,-9.766,-10.742,-18.066,674.805,0.000
1737551545.334,11.230,-11.230,-9.277,999.512,0.000
1737551545.338,-22.461,-19.531,-10.742,-15.625,0.000
1737551545.342,-44.922,-27.344,-12.207,-1000.000,0.000
1737551545.346,-12.207,-19.043,-4.883,-735.352,0.000
1737551545.350,2.930,-5.859,-4.883,652.344,0.000
1737551545.354,11.230,-2.930,-11.230,999.512,0.000
1737551545.357,0.977,-9.277,-14.160,183.594,0.000
1737551545.361,-35.156,-15.625,-14.648,-1000.000,0.000
1737551545.365,-21.973,-12.695,-12.695,-935.059,0.000
1737551545.369,4.883,-5.859,-10.254,434.082,0.000
1737551545.373,22.461,-3.418,-12.695,999.512,0.000
1737551545.377,6.836,-8.789,-12.695,418.945,0.000
1737551545.381,-30.762,-20.508,-13.184,-854.980,0.000
1737551545.385,-24.902,-16.602,-22.461,-1000.000,0.000
1737551545.389,-9.766,-7.812,-26.367,140.625,0.000
1737551545.393,-1.465,-14.648,-21.973,999.512,0.000
1737551545.397,-10.254,-17.578,-12.695,590.820,0.000
1737551545.400,-48.828,-19.531,-17.090,-773.438,0.000
1737551545.404,-69.336,-21.973,-25.391,-1000.000,0.000
1737551545.408,-55.664,-13.184,-23.438,-1000.000,0.000
1737551545.412,-34.668,-2.441,-20.020,-300.781,0.000
1737551545.416,-30.273,-3.418,-15.625,728.516,0.000
1737551545.420,-61.035,-6.348,-10.742,-563.477,0.000
1737551545.424,-90.332,-2.441,-8.301,-1000.000,0.000
1737551545.428,-111.816,7.324,-2.930,-916.504,0.000
1737551545.432,-137.695,-10.254,-13.672,-1000.000,0.000
1737551545.436,-150.879,4.883,-17.578,-1000.000,0.000
1737551545.439,-178.223,29.297,-16.113,-1000.000,0.000
1737551545.443,-225.098,19.043,-19.531,-1000.000,0.000
1737551545.447,-274.902,17.090,-14.160,-1000.000,0.000
1737551545.451,-324.707,18.066,0.488,-1000.000,0.000
1737551545.455,-364.258,14.648,-11.719,-1000.000,0.000
1737551545.459,-383.301,29.297,-18.555,-951.172,0.000
1737551545.463,-406.738,24.902,-15.625,-1000.000,0.000
1737551545.467,-424.316,27.832,-15.625,-922.852,0.000
1737551545.471,-378.418,36.621,-10.254,409.180,0.000
1737551545.475,-337.891,27.832,-5.371,999.512,0.000
1737551545.479,-347.168,29.297,-9.766,346.680,0.000
1737551545.482,-356.934,24.902,-18.555,-832.031,0.000
1737551545.486,-358.887,19.043,-17.090,-1000.000,0.000
1737551545.490,-355.469,15.625,-17.090,-534.180,0.000
1737551545.494,-313.965,25.391,-11.230,799.805,0.000
1737551545.498,-303.711,26.855,-20.020,999.512,0.000
1737551545.502,-306.641,11.230,-17.578,-479.004,0.000
1737551545.506,-301.270,7.812,-14.160,-1000.000,0.000
1737551545.510,-288.574,12.695,-26.855,138.184,0.000
1737551545.514,-242.188,18.555,-15.625,986.816,0.000
1737551545.518,-223.145,23.438,-14.648,999.512,0.000
1737551545.521,-263.672,16.113,-30.762,302.246,0.000
1737551545.525,-262.207,17.090,-32.227,-943.359,0.000
1737551545.529,-228.027,20.020,-20.996,-75.684,0.000
1737551545.533,-202.148,27.344,-30.762,999.512,0.000
1737551545.537,-183.105,25.879,-32.715,886.719,0.000
1737551545.541,-186.035,14.648,-25.391,-441.406,0.000
1737551545.545,-183.105,4.395,-31.250,-1000.000,0.000
1737551545.549,-168.945,6.836,-35.156,-408.691,0.000
1737551545.553,-156.250,14.648,-30.762,847.656,0.000
1737551545.557,-134.766,12.695,-28.320,965.332,0.000
1737551545.561,-144.043,5.859,-34.668,-426.758,0.000
1737551545.564,-160.156,7.812,-29.785,-1000.000,0.000
1737551545.568,-124.023,15.137,-27.832,-825.195,0.000
1737551545.572,-93.750,20.508,-26.855,526.367,0.000
1737551545.576,-75.195,18.066,-19.531,999.512,0.000
1737551545.580,-81.543,-0.488,-21.973,-89.844,0.000
1737551545.584,-95.215,-8.789,-33.203,-1000.000,0.000
1737551545.588,-74.219,-1.953,-39.062,-934.082,0.000
1737551545.592,-37.598,4.883,-32.227,461.426,0.000
1737551545.596,-21.484,0.977,-26.855,999.512,0.000
1737551545.600,-35.645,-13.672,-26.855,-268.066,0.000
1737551545.604,-38.086,-21.484,-28.809,-1000.000,0.000
1737551545.607,-27.344,-25.879,-26.855,-955.078,0.000
1737551545.611,-3.418,-27.344,-26.367,-1000.000,0.000
1737551545.615,53.223,-29.785,-25.879,125.000,0.000
1737551545.619,47.363,-36.133,-26.367,334.473,0.000
1737551545.623,18.555,-38.574,-30.273,-921.875,0.000
1737551545.627,63.965,-40.039,-26.855,-1000.000,0.000
1737551545.631,124.512,-39.062,-15.625,76.172,0.000
1737551545.635,167.969,-39.551,-13.184,999.512,0.000
1737551545.639,167.480,-43.457,-15.625,551.758,0.000
1737551545.643,143.555,-48.828,-12.695,-770.508,0.000
1737551545.646,159.180,-48.340,-13.184,-1000.000,0.000
1737551545.650,213.379,-39.551,-16.602,-270.020,0.000
1737551545.654,242.188,-38.574,-16.602,958.008,0.000
1737551545.658,217.773,-43.457,-16.602,871.582,0.000
1737551545.662,180.664,-43.945,-20.508,-641.602,0.000
1737551545.666,205.078,-39.551,-18.066,-1000.000,0.000
1737551545.670,216.309,-35.156,-10.254,157.715,0.000
1737551545.674,206.543,-36.621,-14.160,999.512,0.000
1737551545.678,203.613,-41.504,-22.949,823.730,0.000
1737551545.682,169.922,-51.270,-22.949,-506.836,0.000
1737551545.686,145.996,-53.711,-16.602,-1000.000,0.000
1737551545.689,157.715,-43.457,-17.578,-800.293,0.000
1737551545.693,188.477,-31.738,-17.578,637.207,0.000
1737551545.697,191.895,-38.086,-20.020,914.062,0.000
1737551545.701,157.715,-44.434,-25.391,-702.148,0.000
1737551545.705,156.738,-28.320,-29.297,-1000.000,0.000
1737551545.709,165.527,-20.508,-32.227,-85.938,0.000
1737551545.713,136.719,-18.555,-10.742,999.512,0.000
1737551545.717,110.840,-12.695,-6.348,807.617,0.000
1737551545.721,113.281,-14.648,-25.879,-592.285,0.000
1737551545.725,78.125,-11.230,-29.297,-1000.000,0.000
1737551545.729,45.898,2.441,-31.250,-746.094,0.000
1737551545.732,46.387,7.812,-17.578,702.637,0.000
1737551545.736,-7.324,19.531,-16.602,880.859,0.000
1737551545.740,-100.586,24.902,-38.086,-746.582,0.000
1737551545.744,-159.180,25.879,-39.551,-1000.000,0.000
1737551545.748,-195.801,17.578,-29.297,-1000.000,0.000
1737551545.752,-205.078,14.160,-14.160,-805.176,0.000
1737551545.756,-215.820,13.184,-1.465,516.602,0.000
1737551545.760,-261.230,1.953,-2.441,-184.082,0.000
1737551545.764,-289.062,-0.488,0.488,-1000.000,0.000
1737551545.768,-293.457,-10.742,-1.465,-986.816,0.000
1737551545.771,-255.859,-12.207,-3.418,207.520,0.000
1737551545.775,-229.004,-4.883,-2.930,968.262,0.000
1737551545.779,-248.047,-6.348,-13.184,-533.203,0.000
1737551545.783,-250.488,-7.324,-11.230,-1000.000,0.000
1737551545.787,-234.863,-7.324,7.324,-955.078,0.000
1737551545.791,-206.055,-2.441,12.207,-3.906,0.000
1737551545.795,-172.852,1.465,-0.977,999.512,0.000
1737551545.799,-165.039,-0.488,-6.348,442.383,0.000
1737551545.803,-177.246,-10.742,-4.395,-947.266,0.000
1737551545.807,-179.688,-13.184,-4.883,-924.316,0.000
1737551545.811,-140.137,-7.324,-6.836,511.230,0.000
1737551545.814,-96.191,-4.883,-7.324,999.512,0.000
1737551545.818,-103.027,-15.137,-14.160,587.402,0.000
1737551545.822,-119.629,-27.344,-14.648,-854.492,0.000
1737551545.826,-83.496,-29.785,-7.812,-850.098,0.000
1737551545.830,-32.715,-22.949,-11.719,671.387,0.000
1737551545.834,-30.273,-19.531,-22.461,999.512,0.000
1737551545.838,-24.902,-26.367,-22.949,882.812,0.000
1737551545.842,-11.230,-35.156,-22.949,-458.008,0.000
1737551545.846,-8.789,-38.086,-19.043,-1000.000,0.000
1737551545.850,10.742,-32.715,-20.996,266.113,0.000
1737551545.854,41.992,-31.250,-26.855,999.512,0.000
1737551545.857,50.781,-28.809,-25.391,806.641,0.000
1737551545.861,23.926,-25.391,-27.344,-514.160,0.000
1737551545.865,13.184,-35.156,-28.320,-1000.000,0.000
1737551545.869,9.766,-43.457,-23.438,-887.695,0.000
1737551545.873,38.574,-40.039,-23.926,516.113,0.000
1737551545.877,58.594,-38.574,-27.344,999.512,0.000
1737551545.881,38.086,-48.340,-29.297,-583.008,0.000
1737551545.885,61.035,-47.363,-26.855,-1000.000,0.000
1737551545.889,90.820,-41.016,-26.855,-296.875,0.000
1737551545.893,130.371,-39.062,-24.414,937.500,0.000
1737551545.896,133.789,-39.551,-28.809,846.191,0.000
1737551545.900,96.680,-46.875,-36.133,-644.043,0.000
1737551545.904,106.934,-43.457,-27.344,-1000.000,0.000
1737551545.908,104.980,-46.875,-17.578,-1000.000,0.000
1737551545.912,121.094,-45.898,-12.695,55.664,0.000
1737551545.916,161.133,-31.738,-14.648,929.688,0.000
1737551545.920,122.070,-38.086,-25.391,-569.824,0.000
1737551545.924,88.379,-39.062,-26.367,-1000.000,0.000
1737551545.928,94.727,-35.645,-25.879,-916.016,0.000
1737551545.932,106.934,-37.598,-20.996,-1000.000,0.000
1737551545.936,126.465,-35.645,-19.043,158.203,0.000
1737551545.939,120.605,-32.715,-19.043,427.734,0.000
1737551545.943,102.539,-41.016,-17.090,-926.270,0.000
1737551545.947,107.910,-50.293,-21.973,-1000.000,0.000
1737551545.951,126.953,-39.551,-16.602,167.969,0.000
1737551545.955,138.184,-33.691,-14.648,999.512,0.000
1737551545.959,125.488,-34.668,-22.461,268.066,0.000
1737551545.963,98.633,-41.016,-26.367,-947.266,0.000
1737551545.967,100.098,-41.992,-26.855,-1000.000,0.000
1737551545.971,135.254,-20.996,-25.391,78.613,0.000
1737551545.975,148.438,-13.184,-18.555,999.512,0.000
1737551545.978,128.418,-28.320,-18.555,636.230,0.000
1737551545.982,96.680,-38.574,-20.508,-787.598,0.000
1737551545.986,79.590,-39.062,-19.043,-1000.000,0.000
1737551545.990,112.305,-28.809,-19.531,272.461,0.000
1737551545.994,141.602,-24.414,-20.996,999.512,0.000
1737551545.998,92.773,-27.344,-20.508,687.012,0.000
1737551546.002,70.801,-32.227,-23.438,-634.766,0.000
1737551546.006,100.586,-34.180,-20.996,-1000.000,0.000
1737551546.010,59.570,-37.598,-11.719,-662.598,0.000
1737551546.014,74.219,-34.180,-9.766,784.180,0.000
1737551546.018,93.750,-24.902,-18.555,801.270,0.000
1737551546.021,60.059,-24.414,-18.555,-710.938,0.000
1737551546.025,54.688,-25.879,-11.719,-1000.000,0.000
1737551546.029,60.059,-17.578,-14.160,-625.977,0.000
1737551546.033,104.492,-8.301,-17.090,773.926,0.000
1737551546.037,106.934,-11.230,-13.672,968.262,0.000
1737551546.041,66.406,-16.113,-10.254,-568.848,0.000
1737551546.045,62.012,-16.602,-9.277,-1000.000,0.000
1737551546.049,82.031,-17.090,-8.301,-124.023,0.000
1737551546.053,94.727,-14.648,-2.441,974.121,0.000
1737551546.057,67.383,-11.719,-5.859,933.105,0.000
1737551546.061,31.738,-16.113,-14.648,-411.133,0.000
1737551546.064,15.137,-18.555,-9.277,-1000.000,0.000
1737551546.068,34.180,-16.602,-12.695,-439.941,0.000
1737551546.072,75.195,-9.766,-17.090,841.309,0.000
1737551546.076,61.523,-13.184,-12.695,983.398,0.000
1737551546.080,15.625,-17.578,-17.578,-411.133,0.000
1737551546.084,6.836,-17.090,-20.020,-1000.000,0.000
1737551546.088,21.973,-5.859,-21.484,-502.930,0.000
1737551546.092,64.941,3.418,-16.602,732.910,0.000
1737551546.096,47.363,-6.348,-12.695,999.512,0.000
1737551546.100,-0.488,-20.996,-19.043,84.473,0.000
1737551546.103,0.488,-25.391,-17.578,-1000.000,0.000
1737551546.107,0.977,-21.484,-13.184,-730.469,0.000
1737551546.111,25.391,-6.348,-10.742,627.930,0.000
1737551546.115,36.133,-2.930,-13.184,999.512,0.000
1737551546.119,9.277,-3.906,-18.555,490.234,0.000
1737551546.123,-31.250,-2.930,-6.348,-752.930,0.000
1737551546.127,-68.359,-3.418,-9.766,-1000.000,0.000
1737551546.131,-79.102,2.441,-5.859,-375.000,0.000
1737551546.135,-83.008,11.719,-0.488,943.848,0.000
1737551546.139,-150.879,11.719,-8.789,336.914,0.000
1737551546.143,-216.309,7.812,-9.766,-934.570,0.000
1737551546.146,-221.680,18.066,-10.254,-1000.000,0.000
1737551546.150,-259.766,19.531,-7.324,-894.531,0.000
1737551546.154,-298.340,9.277,-3.418,569.336,0.000
1737551546.158,-337.891,0.488,-2.930,871.582,0.000
1737551546.162,-395.996,0.000,-8.301,-725.586,0.000
1737551546.166,-412.598,8.789,-4.395,-1000.000,0.000
1737551546.170,-397.461,6.348,0.000,-189.453,0.000
1737551546.174,-366.699,2.930,-4.883,959.961,0.000
1737551546.178,-354.980,4.395,-3.906,922.363,0.000
1737551546.182,-372.559,-0.977,-9.277,-565.918,0.000
1737551546.186,-358.398,5.859,-14.160,-1000.000,0.000
1737551546.189,-313.477,9.766,-11.230,251.465,0.000
1737551546.193,-282.715,-5.371,-10.254,999.512,0.000
1737551546.197,-262.207,-5.859,-12.207,873.047,0.000
1737551546.201,-272.949,-3.418,-15.137,-533.691,0.000
1737551546.205,-273.926,-4.395,-14.648,-1000.000,0.000
1737551546.209,-229.980,-5.371,-18.066,286.621,0.000
1737551546.213,-182.617,-0.488,-19.043,999.512,0.000
1737551546.217,-161.621,1.465,-21.484,973.633,0.000
1737551546.221,-176.270,-5.371,-26.855,114.746,0.000
1737551546.225,-180.176,-10.742,-26.367,-1000.000,0.000
1737551546.228,-142.578,-10.254,-24.902,-482.910,0.000
1737551546.232,-90.332,-3.418,-24.414,817.871,0.000
1737551546.236,-64.941,-1.465,-24.414,999.512,0.000
1737551546.240,-67.383,-13.184,-22.949,5.371,0.000
1737551546.244,-73.730,-14.648,-24.902,-1000.000,0.000
1737551546.248,-39.551,-13.672,-26.367,-878.418,0.000
1737551546.252,3.418,-13.184,-25.391,478.027,0.000
1737551546.256,30.273,-11.230,-27.344,999.512,0.000
1737551546.260,42.480,-19.043,-23.926,446.777,0.000
1737551546.264,33.203,-27.344,-20.996,-897.949,0.000
1737551546.268,69.824,-19.043,-21.973,-896.484,0.000
1737551546.271,112.305,-17.090,-19.531,545.410,0.000
1737551546.275,112.793,-20.996,-16.602,999.512,0.000
1737551546.279,94.727,-19.043,-15.137,487.793,0.000
1737551546.283,72.754,-27.344,-21.484,-765.137,0.000
1737551546.287,86.426,-34.668,-27.344,-1000.000,0.000
1737551546.291,106.445,-29.785,-24.414,-223.145,0.000
1737551546.295,133.301,-21.484,-15.625,998.535,0.000
1737551546.299,128.906,-25.879,-19.043,723.145,0.000
1737551546.303,97.168,-38.574,-28.320,-735.840,0.000
1737551546.307,97.168,-42.969,-28.320,-1000.000,0.000
1737551546.311,127.930,-35.156,-19.043,-64.453,0.000
1737551546.314,159.180,-26.367,-18.066,999.512,0.000
1737551546.318,145.508,-24.414,-20.020,741.699,0.000
1737551546.322,108.398,-27.832,-22.949,-675.781,0.000
1737551546.326,105.957,-28.809,-23.926,-1000.000,0.000
1737551546.330,126.465,-35.645,-27.344,-366.211,0.000
1737551546.334,151.855,-33.691,-26.855,867.676,0.000
1737551546.338,130.859,-32.715,-28.320,922.852,0.000
1737551546.342,86.426,-46.387,-31.738,-514.648,0.000
1737551546.346,74.707,-47.363,-28.320,-1000.000,0.000
1737551546.350,91.309,-34.180,-21.484,-582.031,0.000
1737551546.353,107.910,-28.809,-19.043,739.258,0.000
1737551546.357,99.121,-28.320,-24.902,999.512,0.000
1737551546.361,71.289,-28.320,-25.391,-265.137,0.000
1737551546.365,48.340,-30.273,-24.902,-1000.000,0.000
1737551546.369,57.129,-27.344,-24.414,-582.031,0.000
1737551546.373,88.379,-21.973,-19.531,801.270,0.000
1737551546.377,69.824,-23.438,-16.113,977.051,0.000
1737551546.381,37.598,-33.691,-19.043,-476.074,0.000
1737551546.385,24.414,-38.574,-24.902,-1000.000,0.000
1737551546.389,18.555,-40.039,-28.320,-874.512,0.000
1737551546.393,54.199,-38.574,-22.949,382.324,0.000
1737551546.396,59.570,-31.738,-17.578,999.512,0.000
1737551546.400,35.645,-31.738,-19.043,221.191,0.000
1737551546.404,29.297,-35.156,-22.461,-1000.000,0.000
1737551546.408,32.227,-33.691,-23.926,-892.090,0.000
1737551546.412,65.430,-22.949,-12.207,527.832,0.000
1737551546.416,73.242,-17.090,-8.789,999.512,0.000
1737551546.420,45.410,-19.531,-19.531,413.086,0.000
1737551546.424,24.414,-27.344,-24.414,-847.656,0.000
1737551546.428,18.555,-30.273,-26.367,-1000.000,0.000
1737551546.432,43.945,-17.578,-20.996,228.027,0.000
1737551546.435,73.730,-13.672,-17.578,999.512,0.000
1737551546.439,54.199,-22.949,-20.020,315.430,0.000
1737551546.443,13.672,-25.879,-24.414,-960.449,0.000
1737551546.447,14.160,-21.973,-23.926,-979.004,0.000
1737551546.451,43.457,-13.672,-21.484,344.238,0.000
1737551546.455,53.223,-15.625,-21.973,999.512,0.000
1737551546.459,36.621,-23.926,-21.484,573.730,0.000
1737551546.463,11.719,-25.391,-21.973,-801.758,0.000
1737551546.467,14.648,-21.484,-20.508,-1000.000,0.000
1737551546.471,43.945,-9.277,-17.578,328.125,0.000
1737551546.475,43.457,-11.719,-16.602,999.512,0.000
1737551546.478,27.832,-20.508,-18.555,486.328,0.000
1737551546.482,19.531,-21.484,-22.949,-778.809,0.000
1737551546.486,8.301,-20.508,-24.902,-1000.000,0.000
1737551546.490,27.344,-20.508,-23.438,-316.895,0.000
1737551546.494,72.266,-19.043,-21.484,955.078,0.000
1737551546.498,74.219,-14.648,-19.043,841.309,0.000
1737551546.502,51.270,-18.555,-20.020,-626.465,0.000
1737551546.506,58.105,-19.043,-17.578,-1000.000,0.000
1737551546.510,54.199,-16.113,-12.695,-384.277,0.000
1737551546.514,59.570,-10.254,-9.277,878.418,0.000
1737551546.518,46.387,-15.137,-7.324,936.523,0.000
1737551546.521,-2.441,-32.227,-10.742,-480.469,0.000
1737551546.525,-6.836,-37.109,-4.395,-1000.000,0.000
1737551546.529,12.695,-32.715,5.371,-640.625,0.000
1737551546.533,30.762,-29.785,3.418,671.875,0.000
1737551546.537,27.832,-27.344,-1.465,999.512,0.000
1737551546.541,4.395,-29.297,-7.324,-40.527,0.000
1737551546.545,-24.414,-36.621,-11.719,-1000.000,0.000
1737551546.549,-19.043,-31.738,-9.277,-958.984,0.000
1737551546.553,-2.441,-28.809,-7.812,350.098,0.000
1737551546.557,14.648,-26.367,-4.395,999.512,0.000
1737551546.560,-4.883,-27.832,-9.766,-48.340,0.000
1737551546.564,-23.926,-29.785,-18.066,-1000.000,0.000
1737551546.568,1.953,-25.391,-18.066,-668.945,0.000
1737551546.572,27.832,-21.973,-16.602,661.621,0.000
1737551546.576,21.973,-23.438,-19.531,999.512,0.000
1737551546.580,8.301,-25.879,-19.043,346.191,0.000
1737551546.584,-16.113,-28.320,-20.020,-888.672,0.000
1737551546.588,-27.832,-34.668,-22.949,-1000.000,0.000
1737551546.592,-8.789,-35.156,-18.066,149.902,0.000
1737551546.596,13.184,-26.855,-15.137,999.512,0.000
1737551546.600,-0.977,-25.879,-12.695,518.066,0.000
1737551546.603,-41.504,-27.832,-10.742,-863.770,0.000
1737551546.607,-36.133,-21.973,-9.766,-998.535,0.000
1737551546.611,0.488,-22.461,-15.137,413.574,0.000
1737551546.615,-1.953,-26.855,-13.184,999.512,0.000
1737551546.619,-35.645,-28.320,-6.348,388.184,0.000
1737551546.623,-48.340,-32.227,-11.230,-842.773,0.000
1737551546.627,-29.785,-25.879,-13.672,-1000.000,0.000
1737551546.631,-2.930,-17.578,-15.137,-103.027,0.000
1737551546.635,19.531,-16.602,-16.602,999.512,0.000
1737551546.639,-0.977,-18.066,-13.184,825.195,0.000
1737551546.643,-38.086,-21.484,-11.230,-587.891,0.000
1737551546.646,-10.742,-22.949,-18.066,-1000.000,0.000
1737551546.650,4.883,-20.508,-20.996,-417.969,0.000
1737551546.654,8.789,-7.324,-15.137,888.672,0.000
1737551546.658,-4.883,-11.719,-13.184,860.840,0.000
1737551546.662,-34.180,-29.785,-22.461,-603.027,0.000
1737551546.666,-39.062,-29.785,-22.461,-1000.000,0.000
1737551546.670,-36.133,-28.320,-12.695,-784.668,0.000
1737551546.674,-9.277,-21.973,-16.602,622.559,0.000
1737551546.678,-6.348,-13.672,-20.508,999.512,0.000
1737551546.682,-8.301,-19.531,-19.043,-390.137,0.000
1737551546.685,-24.414,-25.391,-19.043,-1000.000,0.000
1737551546.689,-20.020,-23.438,-18.066,-649.902,0.000
1737551546.693,16.602,-19.043,-17.090,725.098,0.000
1737551546.697,21.973,-16.602,-21.973,999.512,0.000
1737551546.701,-12.207,-18.555,-21.973,-375.977,0.000
1737551546.705,-30.762,-29.297,-22.949,-1000.000,0.000
1737551546.709,-27.832,-31.738,-23.926,-916.016,0.000
1737551546.713,0.000,-27.832,-21.973,362.305,0.000
1737551546.717,-3.418,-18.555,-20.996,999.512,0.000
1737551546.721,-31.250,-14.648,-28.809,-146.484,0.000
1737551546.725,-25.391,-25.391,-29.785,-1000.000,0.000
1737551546.728,-34.668,-29.785,-27.344,-980.957,0.000
1737551546.732,-24.902,-24.902,-23.438,114.258,0.000
1737551546.736,7.812,-19.531,-17.578,999.512,0.000
1737551546.740,-18.066,-21.973,-16.602,284.180,0.000
1737551546.744,-39.551,-23.438,-11.719,-1000.000,0.000
1737551546.748,2.441,-16.113,-12.695,-611.816,0.000
1737551546.752,17.090,-12.207,-11.230,747.559,0.000
1737551546.756,0.000,-15.625,-12.695,999.512,0.000
1737551546.760,7.812,-17.578,-20.508,365.234,0.000
1737551546.764,-12.695,-22.461,-20.996,-859.863,0.000
1737551546.767,-19.043,-27.344,-16.113,-1000.000,0.000
1737551546.771,4.395,-22.949,-16.602,-46.875,0.000
1737551546.775,29.297,-13.184,-20.508,999.512,0.000
1737551546.779,12.207,-19.531,-20.996,716.797,0.000
1737551546.783,-32.227,-31.738,-15.137,-729.980,0.000
1737551546.787,-34.180,-32.715,-14.160,-1000.000,0.000
1737551546.791,0.000,-19.531,-13.184,97.656,0.000
1737551546.795,12.695,-4.883,-11.230,999.512,0.000
1737551546.799,-8.789,-10.742,-17.578,738.281,0.000
1737551546.803,-35.156,-26.855,-16.113,-657.715,0.000
1737551546.807,-34.668,-24.414,-14.160,-1000.000,0.000
1737551546.810,-21.484,-14.648,-14.160,-170.410,0.000
1737551546.814,-15.625,-18.066,-11.230,940.430,0.000
1737551546.818,3.906,-13.672,-12.207,974.609,0.000
1737551546.822,-11.719,-6.836,-15.625,-287.109,0.000
1737551546.826,-44.434,-16.113,-19.043,-1000.000,0.000
1737551546.830,-34.180,-21.973,-15.625,-312.500,0.000
1737551546.834,-10.254,-12.695,-12.695,932.617,0.000
1737551546.838,-11.719,-16.113,-19.043,920.898,0.000
1737551546.842,-56.641,-25.879,-22.461,-463.867,0.000
1737551546.846,-91.309,-31.250,-24.414,-1000.000,0.000
1737551546.850,-76.660,-31.250,-27.832,-734.863,0.000
1737551546.853,-34.668,-25.879,-27.344,618.164,0.000
1737551546.857,-32.715,-25.391,-23.926,999.512,0.000
1737551546.861,-73.730,-26.367,-21.973,-38.574,0.000
1737551546.865,-57.617,-31.250,-20.996,-1000.000,0.000
1737551546.869,-19.531,-28.320,-19.531,-778.809,0.000
1737551546.873,-27.344,-20.508,-14.160,637.695,0.000
1737551546.877,-36.621,-25.391,-17.090,999.512,0.000
1737551546.881,-16.113,-24.902,-18.555,-13.184,0.000
1737551546.885,-21.973,-20.508,-18.066,-1000.000,0.000
1737551546.889,-44.434,-23.926,-22.949,-958.984,0.000
1737551546.892,-6.348,-16.602,-22.949,375.977,0.000
1737551546.896,29.297,-16.113,-23.926,999.512,0.000
1737551546.900,-5.859,-20.508,-25.391,-62.988,0.000
1737551546.904,-36.621,-19.531,-27.832,-1000.000,0.000
1737551546.908,-27.344,-21.973,-26.855,-948.242,0.000
1737551546.912,0.977,-14.160,-22.461,261.230,0.000
1737551546.916,-15.137,-8.789,-18.066,999.512,0.000
1737551546.920,-59.082,-11.719,-12.207,490.723,0.000
1737551546.924,-16.602,-16.602,-20.020,-841.309,0.000
1737551546.928,-12.207,-19.531,-21.484,-1000.000,0.000
1737551546.932,-16.113,-17.578,-17.090,233.887,0.000
1737551546.935,17.578,-13.672,-15.137,999.512,0.000
1737551546.939,17.090,-11.230,-17.090,656.738,0.000
1737551546.943,-46.387,-14.160,-15.625,-686.035,0.000
1737551546.947,-46.875,-18.066,-11.230,-1000.000,0.000
1737551546.951,15.137,-14.160,-11.719,-249.512,0.000
1737551546.955,1.953,1.465,0.000,974.121,0.000
1737551546.959,-21.973,2.930,3.418,775.391,0.000
1737551546.963,-42.969,-1.465,-2.441,-657.715,0.000
1737551546.967,-95.703,6.836,-11.230,-1000.000,0.000
1737551546.971,-109.375,-2.441,-4.883,-659.668,0.000
1737551546.975,-124.023,15.137,2.441,777.832,0.000
1737551546.978,-170.410,25.879,-3.906,707.031,0.000
1737551546.982,-213.867,19.043,-3.906,-841.797,0.000
1737551546.986,-238.770,5.371,5.859,-1000.000,0.000
1737551546.990,-287.598,9.277,13.184,-939.941,0.000
1737551546.994,-350.586,18.066,3.418,-1000.000,0.000
1737551546.998,-371.582,9.277,5.859,-1000.000,0.000
1737551547.002,-402.832,14.160,8.789,-955.078,0.000
1737551547.006,-435.059,13.184,5.859,-1000.000,0.000
1737551547.010,-404.785,9.766,-5.371,-460.938,0.000
1737551547.014,-328.613,13.672,-13.184,909.668,0.000
1737551547.017,-315.430,9.766,-16.113,868.652,0.000
1737551547.021,-363.281,7.812,-28.320,-594.238,0.000
1737551547.025,-361.816,20.020,-32.715,-1000.000,0.000
1737551547.029,-319.824,23.926,-29.297,-639.160,0.000
1737551547.033,-287.598,20.996,-22.949,713.867,0.000
1737551547.037,-294.434,20.996,-23.926,999.512,0.000
1737551547.041,-297.852,8.789,-26.855,-305.176,0.000
1737551547.045,-281.250,6.348,-20.508,-1000.000,0.000
1737551547.049,-258.789,14.648,-20.508,-500.000,0.000
1737551547.053,-241.211,13.672,-17.090,715.820,0.000
1737551547.057,-213.867,11.230,-20.020,999.512,0.000
1737551547.060,-177.246,16.602,-20.996,759.766,0.000
1737551547.064,-184.082,3.906,-19.531,-708.496,0.000
1737551547.068,-161.133,-8.301,-32.715,-960.938,0.000
1737551547.072,-120.117,1.465,-36.133,603.027,0.000
1737551547.076,-105.469,-7.812,-28.320,999.512,0.000
1737551547.080,-104.980,-25.879,-20.996,937.012,0.000
1737551547.084,-98.145,-20.996,-20.020,97.656,0.000
1737551547.088,-44.922,-11.719,-8.301,-221.191,0.000
1737551547.092,-36.621,-20.996,-8.789,791.992,0.000
1737551547.096,-28.809,-44.922,-29.785,999.512,0.000
1737551547.100,0.000,-41.016,-37.598,265.137,0.000
1737551547.103,-31.738,-42.480,-32.715,-879.395,0.000
1737551547.107,-6.348,-59.570,-28.320,-1000.000,0.000
1737551547.111,49.805,-55.664,-30.273,-505.371,0.000
1737551547.115,49.805,-47.363,-29.785,882.324,0.000
1737551547.119,83.008,-40.039,-25.879,823.730,0.000
1737551547.123,96.191,-41.016,-27.832,-664.551,0.000
1737551547.127,59.082,-38.574,-24.902,-1000.000,0.000
1737551547.131,74.707,-32.227,-21.973,-577.148,0.000
1737551547.135,111.328,-32.715,-20.508,792.480,0.000
1737551547.139,102.051,-45.410,-31.738,929.688,0.000
1737551547.142,95.215,-57.617,-42.480,-563.477,0.000
1737551547.146,87.891,-47.363,-40.039,-1000.000,0.000
1737551547.150,91.309,-39.062,-36.621,-590.820,0.000
1737551547.154,132.812,-36.133,-38.574,772.949,0.000
1737551547.158,134.277,-37.109,-36.621,965.332,0.000
1737551547.162,102.051,-41.016,-31.250,-495.605,0.000
1737551547.166,101.074,-39.062,-32.715,-1000.000,0.000
1737551547.170,84.473,-34.180,-33.203,-801.270,0.000
1737551547.174,50.781,-30.762,-27.344,608.887,0.000
1737551547.178,142.090,-31.738,-34.180,999.512,0.000
1737551547.182,157.227,-33.203,-37.109,-428.223,0.000
1737551547.185,120.117,-31.250,-29.297,-1000.000,0.000
1737551547.189,148.926,-32.227,-32.227,-801.758,0.000
1737551547.193,113.281,-29.785,-33.203,526.367,0.000
1737551547.197,107.422,-20.996,-18.555,999.512,0.000
1737551547.201,120.117,-30.762,-27.344,-66.406,0.000
1737551547.205,77.637,-40.039,-39.551,-1000.000,0.000
1737551547.209,83.008,-25.391,-31.738,-1000.000,0.000
1737551547.213,103.516,-13.184,-15.625,-5.371,0.000
1737551547.217,116.699,-25.879,-17.578,999.512,0.000
1737551547.221,67.871,-20.020,-36.133,207.520,0.000
1737551547.224,24.902,-43.457,-26.367,-939.941,0.000
1737551547.228,84.961,-53.223,-33.203,-1000.000,0.000
1737551547.232,115.234,-32.227,-40.527,-429.688,0.000
1737551547.236,113.281,-23.438,-39.062,930.176,0.000
1737551547.240,97.168,-11.230,-41.504,514.648,0.000
1737551547.244,84.961,-20.020,-44.434,-827.637,0.000
1737551547.248,67.383,-38.086,-50.293,-1000.000,0.000
1737551547.252,30.762,-33.203,-39.551,-765.625,0.000
1737551547.256,51.758,-21.973,-27.344,709.961,0.000
1737551547.260,100.098,-30.762,-31.250,783.691,0.000
1737551547.264,71.777,-28.320,-30.273,-761.719,0.000
1737551547.267,64.453,-17.090,-27.344,-1000.000,0.000
1737551547.271,69.824,-18.066,-30.762,-291.992,0.000
1737551547.275,62.988,-20.996,-31.738,966.797,0.000
1737551547.279,77.148,-15.625,-33.691,688.965,0.000
1737551547.283,73.730,-21.484,-36.621,-723.633,0.000
1737551547.287,18.555,-28.320,-40.527,-1000.000,0.000
1737551547.291,-9.766,-26.367,-43.945,-544.922,0.000
1737551547.295,54.199,-20.996,-35.156,847.168,0.000
1737551547.299,65.430,-17.090,-28.809,813.965,0.000
1737551547.303,45.410,-19.043,-28.320,-674.316,0.000
1737551547.307,12.695,-9.277,-30.273,-1000.000,0.000
1737551547.310,22.461,-7.812,-35.645,-733.887,0.000
1737551547.314,62.988,-8.301,-26.855,723.633,0.000
1737551547.318,52.246,-5.859,-27.832,923.828,0.000
1737551547.322,-13.184,-19.531,-42.969,-612.305,0.000
1737551547.326,-29.297,-29.785,-47.852,-1000.000,0.000
1737551547.330,8.301,-18.555,-41.016,-815.430,0.000
1737551547.334,36.621,3.906,-35.156,563.965,0.000
1737551547.338,19.531,4.883,-34.668,999.512,0.000
1737551547.342,-23.926,-16.602,-37.109,-285.645,0.000
1737551547.346,-53.711,-30.273,-35.645,-1000.000,0.000
1737551547.349,-0.977,-33.691,-46.387,-549.805,0.000
1737551547.353,52.734,-9.766,-41.504,734.375,0.000
1737551547.357,69.824,15.137,-31.250,999.512,0.000
1737551547.361,29.785,1.953,-37.109,-8.789,0.000
1737551547.365,-16.602,-11.719,-41.016,-979.980,0.000
1737551547.369,7.812,-5.371,-44.922,-1000.000,0.000
1737551547.373,9.277,-0.977,-49.316,-218.750,0.000
1737551547.377,31.738,4.395,-45.898,999.512,0.000
1737551547.381,-15.625,-3.418,-41.504,240.723,0.000
1737551547.385,-64.941,-8.789,-43.457,-1000.000,0.000
1737551547.389,-22.949,-10.254,-55.176,-951.172,0.000
1737551547.392,25.879,7.812,-49.805,351.562,0.000
1737551547.396,33.691,21.484,-36.133,999.512,0.000
1737551547.400,-32.227,-11.230,-43.457,750.977,0.000
1737551547.404,-42.480,-26.367,-55.176,-713.867,0.000
1737551547.408,1.953,-11.719,-50.781,-990.234,0.000
1737551547.412,0.000,-9.277,-49.805,504.883,0.000
1737551547.416,-9.766,-5.859,-42.480,999.512,0.000
1737551547.420,-13.672,-1.465,-44.434,512.695,0.000
1737551547.424,-35.156,-4.883,-41.016,-754.883,0.000
1737551547.428,-16.602,-11.719,-24.414,-1000.000,0.000
1737551547.432,23.438,-8.301,-28.320,-267.578,0.000
1737551547.435,18.066,-0.488,-42.969,973.145,0.000
1737551547.439,-8.789,-9.277,-48.340,756.348,0.000
1737551547.443,-21.973,-1.465,-42.969,-695.312,0.000
1737551547.447,-24.414,4.883,-42.480,-1000.000,0.000
1737551547.451,-9.766,14.160,-31.738,-250.000,0.000
1737551547.455,10.742,14.160,-32.715,987.305,0.000
1737551547.459,-13.672,-11.230,-46.387,783.691,0.000
1737551547.463,-41.992,-3.418,-40.039,-670.898,0.000
1737551547.467,-45.898,-2.441,-41.992,-1000.000,0.000
1737551547.471,-34.180,-20.020,-49.805,-329.102,0.000
1737551547.474,60.059,-4.883,-46.387,842.773,0.000
1737551547.478,55.664,2.930,-42.969,999.512,0.000
1737551547.482,-9.277,-3.906,-44.434,-143.066,0.000
1737551547.486,-35.645,-9.766,-39.551,-1000.000,0.000
1737551547.490,0.000,-12.207,-38.086,-633.789,0.000
1737551547.494,35.156,1.953,-50.781,704.590,0.000
1737551547.498,41.016,4.883,-46.387,999.512,0.000
1737551547.502,-31.250,-10.742,-42.480,95.703,0.000
1737551547.506,-99.609,-22.949,-38.086,-1000.000,0.000
1737551547.510,-49.805,-25.879,-34.180,-721.191,0.000
1737551547.514,55.176,-4.395,-27.832,679.688,0.000
1737551547.517,64.941,13.672,-13.184,999.512,0.000
1737551547.521,-1.953,21.484,-9.766,91.797,0.000
1737551547.525,-7.812,1.465,-24.414,-950.684,0.000
1737551547.529,-0.488,-31.738,-39.062,-1000.000,0.000
1737551547.533,7.324,-21.973,-33.203,-245.117,0.000
1737551547.537,31.738,-9.766,-27.344,960.449,0.000
1737551547.541,18.066,-12.207,-25.391,414.062,0.000
1737551547.545,-43.457,-20.508,-33.691,-854.004,0.000
1737551547.549,-20.508,-23.438,-41.016,-1000.000,0.000
1737551547.553,33.691,-14.160,-27.832,-763.672,0.000
1737551547.557,9.277,-7.812,-24.902,563.965,0.000
1737551547.560,16.113,-3.906,-27.344,582.520,0.000
1737551547.564,-9.766,-9.766,-16.113,-879.395,0.000
1737551547.568,-12.207,-13.184,-19.043,-1000.000,0.000
1737551547.572,8.789,-15.625,-26.855,-947.266,0.000
1737551547.576,-20.996,-20.996,-24.902,-1000.000,0.000
1737551547.580,1.465,-14.160,-30.762,-942.383,0.000
1737551547.584,-9.277,-4.395,-28.320,-1000.000,0.000
1737551547.588,-27.832,4.883,-25.391,-716.309,0.000
1737551547.592,23.926,1.465,-19.043,648.926,0.000
1737551547.596,47.363,-7.324,-19.531,999.512,0.000
1737551547.599,20.020,-14.648,-26.367,147.461,0.000
1737551547.603,-25.879,-26.367,-22.949,-906.738,0.000
1737551547.607,-20.996,-24.902,-20.508,-1000.000,0.000
1737551547.611,2.441,-14.160,-21.973,-700.684,0.000
1737551547.615,3.906,-3.906,-20.996,711.914,0.000
1737551547.619,-12.207,-4.883,-16.113,999.512,0.000
1737551547.623,19.043,-11.719,-18.555,-404.297,0.000
1737551547.627,3.418,-13.184,-17.578,-1000.000,0.000
1737551547.631,-14.648,-7.324,-14.160,78.613,0.000
1737551547.635,23.926,-4.883,-14.160,977.051,0.000
1737551547.639,12.207,-3.906,-19.043,990.234,0.000
1737551547.642,-27.832,-12.695,-20.508,377.930,0.000
1737551547.646,-25.879,-19.531,-17.578,-933.594,0.000
1737551547.650,-8.301,-18.555,-19.531,-688.477,0.000
1737551547.654,26.367,-9.277,-21.973,791.992,0.000
1737551547.658,20.508,-7.324,-22.461,999.512,0.000
1737551547.662,-15.137,-17.578,-17.578,-298.340,0.000
1737551547.666,-30.762,-19.043,-17.578,-1000.000,0.000
1737551547.670,-32.227,-6.348,-15.137,-597.656,0.000
1737551547.674,12.207,-5.859,-10.742,709.473,0.000
1737551547.678,16.602,-18.555,-13.184,999.512,0.000
1737551547.682,-21.973,-24.902,-14.160,-36.621,0.000
1737551547.685,-57.617,-15.137,-11.230,-1000.000,0.000
1737551547.689,-15.625,1.953,-13.184,-124.023,0.000
1737551547.693,40.039,-8.789,-22.461,944.824,0.000
1737551547.697,-14.160,-24.902,-19.043,999.512,0.000
1737551547.701,-80.078,-35.645,-18.555,265.137,0.000
1737551547.705,-97.168,-30.762,-18.066,-1000.000,0.000
1737551547.709,-77.637,-21.973,-20.020,-625.977,0.000
1737551547.713,-57.617,-27.344,-23.438,717.285,0.000
1737551547.717,17.090,-17.578,-20.996,999.512,0.000
1737551547.721,29.297,-5.859,-21.973,718.262,0.000
1737551547.724,-19.043,-25.879,-18.066,-706.055,0.000
1737551547.728,-17.090,-30.762,-17.090,-1000.000,0.000
1737551547.732,-22.461,-25.879,-8.301,499.512,0.000
1737551547.736,2.441,-20.996,-6.348,999.512,0.000
1737551547.740,-28.320,-20.508,-15.137,438.965,0.000
1737551547.744,-71.777,-27.344,-13.672,-915.527,0.000
1737551547.748,-23.926,-24.902,-8.301,-858.398,0.000
1737551547.752,9.277,-16.602,-13.672,606.445,0.000
1737551547.756,17.090,-18.066,-21.973,999.512,0.000
1737551547.760,-29.785,-33.691,-20.020,622.559,0.000
1737551547.764,-39.062,-36.133,-20.020,-726.562,0.000
1737551547.767,-5.859,-23.438,-17.090,-1000.000,0.000
1737551547.771,9.277,-12.207,-12.207,162.109,0.000
1737551547.775,2.930,-7.812,-15.137,999.512,0.000
1737551547.779,-28.320,-9.766,-19.531,818.359,0.000
1737551547.783,-64.941,-9.766,-19.531,-521.484,0.000
1737551547.787,-66.406,-27.344,-12.207,-1000.000,0.000
1737551547.791,8.301,-27.832,-9.766,-488.770,0.000
1737551547.795,34.180,-11.230,-5.859,798.340,0.000
1737551547.799,2.441,-10.254,-8.789,981.445,0.000
1737551547.803,-28.809,-7.812,-14.648,-486.816,0.000
1737551547.806,-33.203,-5.859,-15.137,-1000.000,0.000
1737551547.810,-34.180,-19.043,-18.066,-202.637,0.000
1737551547.814,-14.648,-19.043,-14.648,948.730,0.000
1737551547.818,-12.695,-13.184,-19.531,912.109,0.000
1737551547.822,-46.875,-14.648,-23.438,-512.695,0.000
1737551547.826,-47.363,-22.949,-22.461,-1000.000,0.000
1737551547.830,-24.414,-23.926,-16.602,-919.434,0.000
1737551547.834,-11.230,-9.766,-9.766,-57.129,0.000
1737551547.838,-4.883,-14.160,-18.555,973.633,0.000
1737551547.842,-36.621,-14.160,-20.996,-20.996,0.000
1737551547.846,-44.434,-14.160,-11.230,-1000.000,0.000
1737551547.849,-30.762,-17.578,-13.184,-974.121,0.000
1737551547.853,-14.160,-8.301,-14.648,205.566,0.000
1737551547.857,0.488,8.301,-10.742,999.512,0.000
1737551547.861,-48.340,6.348,-11.719,-68.359,0.000
1737551547.865,-61.523,-8.789,-2.441,-1000.000,0.000
1737551547.869,-49.805,-6.348,-5.371,-1000.000,0.000
1737551547.873,-61.523,2.930,-5.371,-122.559,0.000
1737551547.877,-99.609,-3.906,0.488,902.344,0.000
1737551547.881,-175.293,-0.488,-13.184,-435.059,0.000
1737551547.885,-203.125,13.184,-10.742,-1000.000,0.000
1737551547.889,-217.285,10.254,-9.766,-920.898,0.000
1737551547.892,-238.770,12.695,-6.348,-1000.000,0.000
1737551547.896,-319.824,2.930,-1.953,-1000.000,0.000
1737551547.900,-366.699,-8.301,0.977,-1000.000,0.000
1737551547.904,-366.211,7.324,-0.488,-1000.000,0.000
1737551547.908,-409.668,7.812,-2.930,-1000.000,0.000
1737551547.912,-407.227,12.207,-3.418,-1000.000,0.000
1737551547.916,-373.535,21.484,-11.719,-1000.000,0.000
1737551547.920,-371.582,25.391,-10.742,-1000.000,0.000
1737551547.924,-350.586,29.297,-0.488,-1000.000,0.000
1737551547.928,-324.707,26.367,-3.418,-1000.000,0.000
1737551547.931,-296.387,17.090,-11.230,-1000.000,0.000
1737551547.935,-290.039,7.812,-10.742,-1000.000,0.000
1737551547.939,-292.969,-0.488,-7.324,-1000.000,0.000
1737551547.943,-256.348,3.906,-1.953,-1000.000,0.000
1737551547.947,-237.793,0.488,-5.859,-1000.000,0.000
1737551547.951,-218.262,-8.301,-12.695,-1000.000,0.000
1737551547.955,-168.945,-1.465,-13.672,-1000.000,0.000
1737551547.959,-164.062,0.000,-12.207,-1000.000,0.000
1737551547.963,-169.922,-10.254,-10.742,-950.195,0.000
1737551547.967,-144.043,-7.812,-6.836,-1000.000,0.000
1737551547.971,-99.609,-1.465,-6.836,-655.273,0.000
1737551547.974,-39.551,-4.883,-6.836,803.711,0.000
1737551547.978,-49.316,-10.254,-10.254,879.395,0.000
1737551547.982,-77.637,-24.902,-11.719,-707.520,0.000
1737551547.986,-48.340,-27.832,-6.836,-1000.000,0.000
1737551547.990,-12.695,-25.879,-3.906,-927.734,0.000
1737551547.994,6.348,-28.320,-10.254,-1000.000,0.000
1737551547.998,23.438,-23.438,-22.461,-1000.000,0.000
1737551548.002,29.785,-18.066,-21.484,-1000.000,0.000
1737551548.006,35.645,-31.738,-17.578,-941.406,0.000
1737551548.010,53.223,-34.180,-17.578,-1000.000,0.000
1737551548.014,83.008,-25.391,-9.766,-683.105,0.000
1737551548.017,120.605,-24.902,-10.742,756.836,0.000
1737551548.021,103.516,-29.297,-13.672,1.953,0.000
1737551548.025,79.102,-29.785,-17.578,-1000.000,0.000
1737551548.029,96.191,-32.715,-24.902,-951.660,0.000
1737551548.033,94.238,-36.133,-20.996,-988.281,0.000
1737551548.037,89.844,-30.273,-9.766,-1000.000,0.000
1737551548.041,106.445,-26.367,-18.555,-1000.000,0.000
1737551548.045,112.793,-20.996,-29.297,-1000.000,0.000
1737551548.049,136.230,-21.484,-19.531,-1000.000,0.000
1737551548.053,132.324,-22.949,-6.348,-1000.000,0.000
1737551548.056,84.961,-31.250,-10.742,-1000.000,0.000
1737551548.060,118.164,-28.809,-20.020,-1000.000,0.000
1737551548.064,114.258,-23.438,-31.738,-1000.000,0.000
1737551548.068,78.125,-37.109,-38.086,-1000.000,0.000
1737551548.072,78.613,-40.039,-32.227,-1000.000,0.000
1737551548.076,123.535,-39.551,-33.203,-1000.000,0.000
1737551548.080,117.188,-43.945,-31.250,-1000.000,0.000
1737551548.084,83.984,-42.969,-22.461,-1000.000,0.000
1737551548.088,89.844,-31.738,-19.531,-1000.000,0.000
1737551548.092,82.031,-22.461,-12.207,-1000.000,0.000
1737551548.096,79.102,-31.738,-15.137,-1000.000,0.000
1737551548.099,98.633,-36.621,-23.438,-1000.000,0.000
1737551548.103,93.750,-29.785,-21.973,-1000.000,0.000
1737551548.107,79.590,-22.949,-22.461,-1000.000,0.000
1737551548.111,74.707,-30.762,-28.320,-1000.000,0.000
1737551548.115,83.496,-31.738,-20.508,-1000.000,0.000
1737551548.119,66.895,-31.250,-10.254,-1000.000,0.000
1737551548.123,59.570,-24.414,-24.414,-1000.000,0.000
1737551548.127,67.383,-22.461,-33.203,-1000.000,0.000
1737551548.131,62.012,-30.762,-29.297,-1000.000,0.000
1737551548.135,71.777,-31.738,-23.438,-1000.000,0.000
1737551548.139,69.336,-30.762,-25.391,-1000.000,0.000
1737551548.142,54.199,-28.320,-36.621,-1000.000,0.000
1737551548.146,23.438,-36.133,-34.180,-1000.000,0.000
1737551548.150,38.086,-32.715,-23.438,-1000.000,0.000
1737551548.154,75.684,-17.578,-24.902,-1000.000,0.000
1737551548.158,67.383,-23.438,-17.090,-1000.000,0.000
1737551548.162,44.922,-32.715,-16.602,-1000.000,0.000
1737551548.166,35.645,-25.391,-20.508,-1000.000,0.000
1737551548.170,40.039,-29.785,-21.484,-1000.000,0.000
1737551548.174,17.090,-33.203,-19.043,-1000.000,0.000
1737551548.178,16.113,-27.832,-14.160,-1000.000,0.000
1737551548.181,19.531,-20.996,-9.766,-1000.000,0.000
1737551548.185,15.625,-19.043,-4.883,-947.266,0.000
1737551548.189,15.137,-26.367,-1.465,-1000.000,0.000
1737551548.193,23.926,-23.926,-4.883,-753.906,0.000
1737551548.197,47.852,-12.695,-15.137,737.793,0.000
1737551548.201,23.438,-15.625,-25.879,479.004,0.000
1737551548.205,-2.930,-21.484,-27.832,-948.242,0.000
1737551548.209,16.602,-20.996,-21.973,-1000.000,0.000
1737551548.213,14.648,-14.160,-17.090,-942.871,0.000
1737551548.217,6.836,-11.719,-25.391,-922.363,0.000
1737551548.221,-11.230,-23.926,-28.320,-961.426,0.000
1737551548.224,-1.953,-22.461,-21.484,-982.422,0.000
1737551548.228,-2.441,-17.578,-23.926,-1000.000,0.000
1737551548.232,-26.367,-15.625,-23.926,-166.016,0.000
1737551548.236,22.461,-12.207,-15.625,999.512,0.000
1737551548.240,39.062,-4.883,-12.207,787.109,0.000
1737551548.244,5.371,-9.766,-15.137,-614.258,0.000
1737551548.248,-4.395,-21.484,-17.578,-1000.000,0.000
1737551548.252,-6.348,-21.484,-20.508,-697.754,0.000
1737551548.256,27.344,-15.137,-18.066,703.613,0.000
1737551548.260,52.734,-15.625,-20.508,722.168,0.000
1737551548.263,0.000,-21.973,-24.902,-828.613,0.000
1737551548.267,-8.789,-18.066,-23.926,-1000.000,0.000
1737551548.271,-2.930,-15.137,-22.461,-952.637,0.000
1737551548.275,-1.465,-8.789,-24.414,-909.668,0.000
1737551548.279,2.441,-2.441,-20.508,-924.805,0.000
1737551548.283,-2.930,-7.324,-11.230,-962.402,0.000
1737551548.287,-1.465,-15.137,-18.555,-1000.000,0.000
1737551548.291,2.930,-11.230,-23.438,-863.281,0.000
1737551548.295,39.551,5.859,-6.836,639.648,0.000
1737551548.299,40.527,0.488,-9.766,999.512,0.000
1737551548.303,-9.277,-18.555,-17.578,-544.434,0.000
1737551548.306,-17.578,-13.672,-5.859,-1000.000,0.000
1737551548.310,-6.348,-2.930,-10.254,-1000.000,0.000
1737551548.314,1.953,-6.348,-20.508,-641.602,0.000
1737551548.318,27.344,-10.254,-20.508,633.789,0.000
1737551548.322,-6.836,-15.625,-17.578,-250.488,0.000
1737551548.326,-29.785,-14.160,-16.113,-1000.000,0.000
1737551548.330,-23.926,-19.043,-13.184,-984.863,0.000
1737551548.334,-0.488,-19.043,-14.648,-808.105,0.000
1737551548.338,35.156,-9.766,-13.184,699.707,0.000
1737551548.342,15.625,-1.953,-5.859,530.273,0.000
1737551548.346,-6.348,-5.371,-0.977,-931.152,0.000
1737551548.349,-5.371,-19.531,-13.672,-1000.000,0.000
1737551548.353,1.953,-20.508,-12.695,-953.125,0.000
1737551548.357,5.859,-25.879,-10.742,-1000.000,0.000
1737551548.361,-5.859,-28.809,-23.926,-994.141,0.000
1737551548.365,-14.160,-24.902,-25.391,-963.867,0.000
1737551548.369,-24.902,-19.043,-17.090,-1000.000,0.000
1737551548.373,-10.742,-12.695,-12.207,-314.941,0.000
1737551548.377,20.020,-0.977,-10.254,898.438,0.000
1737551548.381,3.418,0.488,-11.719,981.445,0.000
1737551548.385,-7.324,-8.789,-11.719,-205.078,0.000
1737551548.388,-14.160,-15.625,-11.719,-1000.000,0.000
1737551548.392,-16.602,-14.160,-6.836,-423.828,0.000
1737551548.396,-6.836,-8.301,-8.301,948.242,0.000
1737551548.400,-15.137,-13.672,-17.090,637.207,0.000
1737551548.404,-31.250,-20.508,-18.066,-824.707,0.000
1737551548.408,-34.180,-20.508,-19.531,-1000.000,0.000
1737551548.412,-35.645,-24.902,-21.973,-984.375,0.000
1737551548.416,-23.438,-19.531,-15.137,-546.387,0.000
1737551548.420,-18.066,-14.160,-13.184,-427.246,0.000
1737551548.424,-26.855,-20.020,-22.461,-941.895,0.000
1737551548.428,-28.320,-20.508,-19.531,-1000.000,0.000
1737551548.431,-14.160,-19.043,-16.113,-592.773,0.000
1737551548.435,12.207,-5.371,-14.648,781.250,0.000
1737551548.439,11.230,-1.953,-16.602,999.512,0.000
1737551548.443,-11.230,-20.020,-17.578,-310.059,0.000
1737551548.447,-25.879,-25.879,-16.113,-1000.000,0.000
1737551548.451,-16.113,-25.879,-20.020,-1000.000,0.000
1737551548.455,-0.977,-20.020,-20.020,-600.098,0.000
1737551548.459,-3.906,-10.254,-13.672,210.449,0.000
1737551548.463,-29.297,-20.020,-18.555,-629.883,0.000
1737551548.467,-40.039,-24.414,-15.137,-1000.000,0.000
1737551548.471,-17.578,-14.160,-5.859,-655.762,0.000
1737551548.474,9.277,-18.066,-17.090,608.887,0.000
1737551548.478,7.324,-27.832,-21.973,999.512,0.000
1737551548.482,3.906,-19.043,-12.207,601.562,0.000
1737551548.486,-23.438,-18.555,-21.484,-775.879,0.000
1737551548.490,-29.297,-25.391,-32.715,-967.285,0.000
1737551548.494,-0.977,-21.484,-22.949,559.570,0.000
1737551548.498,19.531,-19.043,-18.555,999.512,0.000
1737551548.502,-17.090,-20.020,-20.996,75.684,0.000
1737551548.506,-58.105,-17.090,-13.184,-1000.000,0.000
1737551548.510,-47.852,-6.348,-5.859,-973.145,0.000
1737551548.513,-25.879,-22.949,-20.996,240.234,0.000
1737551548.517,-11.230,-34.180,-27.832,999.512,0.000
1737551548.521,-12.207,-24.902,-23.438,649.414,0.000
1737551548.525,-33.203,-26.855,-18.555,-799.805,0.000
1737551548.529,-21.973,-10.742,-9.277,-953.613,0.000
1737551548.533,2.441,-7.324,-5.859,547.852,0.000
1737551548.537,-5.371,-24.414,-10.254,999.512,0.000
1737551548.541,-27.344,-27.832,-16.113,471.680,0.000
1737551548.545,-59.570,-32.715,-21.973,-794.434,0.000
1737551548.549,-52.734,-26.855,-24.902,-1000.000,0.000
1737551548.553,-28.320,-18.066,-20.996,-7.812,0.000
1737551548.556,3.906,-2.441,-11.719,999.512,0.000
1737551548.560,14.160,8.301,-1.953,665.527,0.000
1737551548.564,-39.551,-20.020,-12.207,-724.121,0.000
1737551548.568,-49.805,-31.250,-24.414,-1000.000,0.000
1737551548.572,-20.996,-16.113,-15.137,-200.684,0.000
1737551548.576,-3.418,-8.789,-13.184,980.957,0.000
1737551548.580,-13.184,-10.742,-20.020,860.352,0.000
1737551548.584,-57.617,-23.438,-17.090,-548.828,0.000
1737551548.588,-53.223,-21.484,-0.977,-1000.000,0.000
1737551548.592,-18.555,-7.324,0.000,-743.164,0.000
1737551548.595,1.465,-10.254,-16.113,656.738,0.000
1737551548.599,-6.348,-14.160,-21.484,931.152,0.000
1737551548.603,-35.645,-18.555,-14.648,-638.672,0.000
1737551548.607,-36.621,-19.531,-12.695,-1000.000,0.000
1737551548.611,-17.090,-12.207,-18.555,-966.797,0.000
1737551548.615,18.555,-1.465,-8.789,84.473,0.000
1737551548.619,34.180,12.695,-1.953,999.512,0.000
1737551548.623,-11.719,0.000,-17.578,-161.621,0.000
1737551548.627,-45.410,-25.391,-24.902,-1000.000,0.000
1737551548.631,-37.109,-27.832,-20.996,-982.910,0.000
1737551548.635,-13.184,-11.230,-16.113,211.914,0.000
1737551548.638,0.488,-1.953,-10.742,999.512,0.000
1737551548.642,-28.809,-17.090,-21.484,-245.605,0.000
1737551548.646,-41.992,-23.926,-21.973,-1000.000,0.000
1737551548.650,-25.391,-19.531,-17.578,-948.242,0.000
1737551548.654,-14.648,-17.090,-16.113,203.613,0.000
1737551548.658,-20.996,-12.695,-11.719,999.512,0.000
1737551548.662,-15.137,-14.648,-20.508,461.914,0.000
1737551548.666,-29.297,-18.555,-26.367,-909.668,0.000
1737551548.670,-36.621,-11.719,-16.113,-845.215,0.000
1737551548.674,-18.066,-7.324,-9.277,699.219,0.000
1737551548.678,-32.227,-26.855,-8.301,999.512,0.000
1737551548.681,-48.340,-34.180,-3.906,-325.195,0.000
1737551548.685,-62.012,-28.320,-5.371,-1000.000,0.000
1737551548.689,-62.500,-33.203,-5.371,-1000.000,0.000
1737551548.693,-42.969,-30.762,0.488,-424.316,0.000
1737551548.697,-10.254,-23.926,3.906,942.383,0.000
1737551548.701,-14.160,-25.391,-6.836,532.227,0.000
1737551548.705,-51.758,-39.551,-20.996,-879.395,0.000
1737551548.709,-61.523,-41.992,-28.320,-1000.000,0.000
1737551548.713,-34.180,-30.273,-21.973,99.609,0.000
1737551548.717,-10.742,-28.320,-11.230,999.512,0.000
1737551548.720,-35.156,-30.762,-10.254,632.324,0.000
1737551548.724,-64.941,-26.367,-9.277,-697.754,0.000
1737551548.728,-62.012,-25.879,-11.230,-1000.000,0.000
1737551548.732,-35.156,-24.414,-10.254,-533.691,0.000
1737551548.736,-3.906,-24.902,-1.953,813.477,0.000
1737551548.740,-13.184,-25.879,-8.301,954.590,0.000
1737551548.744,-43.457,-29.785,-10.742,-480.469,0.000
1737551548.748,-52.734,-34.180,-9.766,-1000.000,0.000
1737551548.752,-23.438,-26.855,-20.020,-573.242,0.000
1737551548.756,12.695,-15.625,-16.113,732.910,0.000
1737551548.760,-9.277,-24.414,-17.090,999.512,0.000
1737551548.763,-33.203,-25.391,-19.043,-181.641,0.000
1737551548.767,-38.574,-28.809,-18.555,-1000.000,0.000
1737551548.771,-15.625,-27.832,-21.484,-348.633,0.000
1737551548.775,-4.883,-18.555,-22.949,850.586,0.000
1737551548.779,-11.719,-19.531,-23.926,999.512,0.000
1737551548.783,-15.137,-20.996,-27.832,247.070,0.000
1737551548.787,-30.273,-26.367,-26.367,-996.094,0.000
1737551548.791,-28.809,-20.020,-17.090,-832.031,0.000
1737551548.795,-10.254,-11.719,-14.648,611.816,0.000
1737551548.799,0.977,-15.137,-16.113,999.512,0.000
1737551548.803,-29.297,-18.066,-18.066,268.555,0.000
1737551548.806,-46.387,-21.484,-17.578,-976.562,0.000
1737551548.810,-18.066,-12.207,-10.742,-519.043,0.000
1737551548.814,-2.441,-10.254,-16.113,815.430,0.000
1737551548.818,-16.602,-16.602,-20.996,999.512,0.000
1737551548.822,-37.109,-19.043,-22.949,250.488,0.000
1737551548.826,-48.828,-25.879,-18.555,-979.980,0.000
1737551548.830,-22.949,-23.926,-12.695,-924.316,0.000
1737551548.834,13.184,-11.719,-14.648,475.098,0.000
1737551548.838,19.043,-4.883,-11.230,999.512,0.000
1737551548.842,-15.137,-15.137,-16.602,693.848,0.000
1737551548.845,-48.340,-20.996,-14.160,-696.777,0.000
1737551548.849,-58.594,-23.926,-15.625,-1000.000,0.000
1737551548.853,-35.645,-17.578,-14.160,470.703,0.000
1737551548.857,-16.602,-13.184,-11.230,999.512,0.000
1737551548.861,-34.180,-18.555,-14.160,829.102,0.000
1737551548.865,-60.059,-18.555,-11.230,-570.312,0.000
1737551548.869,-64.453,-15.625,-8.789,-1000.000,0.000
1737551548.873,-34.668,-17.578,-7.812,401.855,0.000
1737551548.877,-9.277,-8.789,-10.742,999.512,0.000
1737551548.881,-15.625,-12.207,-18.066,764.648,0.000
1737551548.885,-44.434,-21.973,-13.672,-626.465,0.000
1737551548.888,-51.270,-16.602,-7.812,-1000.000,0.000
1737551548.892,-17.578,-16.113,-16.602,282.715,0.000
1737551548.896,-16.602,-21.484,-20.996,999.512,0.000
1737551548.900,-25.879,-18.555,-17.090,925.293,0.000
1737551548.904,-34.180,-19.531,-20.020,-181.641,0.000
1737551548.908,-44.434,-26.367,-25.879,-1000.000,0.000
1737551548.912,-15.137,-25.391,-26.855,-31.250,0.000
1737551548.916,12.207,-17.578,-24.414,999.512,0.000
1737551548.920,-2.441,-18.555,-23.926,978.027,0.000
1737551548.924,-27.344,-17.578,-16.113,-285.645,0.000
1737551548.928,-35.156,-12.695,-13.672,-1000.000,0.000
1737551548.931,-21.484,-8.789,-17.578,192.871,0.000
1737551548.935,-8.301,-15.137,-16.602,999.512,0.000
1737551548.939,1.465,-14.160,-14.160,915.527,0.000
1737551548.943,-26.855,-12.695,-11.230,-213.379,0.000
1737551548.947,-59.570,-21.484,-13.184,-1000.000,0.000
1737551548.951,-37.598,-22.949,-16.602,-705.078,0.000
1737551548.955,-5.371,-3.906,-11.719,651.855,0.000
1737551548.959,0.488,-5.371,-13.672,999.512,0.000
1737551548.963,-30.273,-12.695,-17.578,92.773,0.000
1737551548.967,-48.340,-18.066,-17.090,-1000.000,0.000
1737551548.970,-30.762,-29.297,-18.066,-820.312,0.000
1737551548.974,0.977,-20.996,-17.090,590.332,0.000
1737551548.978,12.207,-15.137,-10.254,999.512,0.000
1737551548.982,-14.160,-13.672,-4.883,311.035,0.000
1737551548.986,-41.504,-15.137,-11.719,-952.637,0.000
1737551548.990,-33.691,-19.531,-14.648,-835.938,0.000
1737551548.994,-1.953,-14.160,-7.812,613.281,0.000
1737551548.998,13.184,-12.207,-9.766,999.512,0.000
1737551549.002,-15.625,-17.090,-13.184,747.559,0.000
1737551549.006,-33.691,-16.113,-12.207,-670.898,0.000
1737551549.010,-18.066,-10.254,-8.789,-868.652,0.000
1737551549.013,-1.953,-20.020,-19.531,650.879,0.000
1737551549.017,3.418,-25.879,-27.832,999.512,0.000
1737551549.021,-16.602,-11.719,-21.484,786.621,0.000
1737551549.025,-25.879,-7.324,-21.484,-609.375,0.000
1737551549.029,-21.973,-14.648,-21.973,-938.477,0.000
1737551549.033,3.418,-10.254,-21.973,601.562,0.000
1737551549.037,0.488,-8.301,-26.367,999.512,0.000
1737551549.041,-28.320,-15.137,-13.672,817.871,0.000
1737551549.045,-49.805,-15.137,-7.812,-454.102,0.000
1737551549.049,-53.223,-16.113,-8.301,-1000.000,0.000
1737551549.052,-27.832,-19.531,-5.859,-109.863,0.000
1737551549.056,-3.418,-15.625,-11.719,978.027,0.000
1737551549.060,-4.883,-19.531,-14.160,941.406,0.000
1737551549.064,-34.668,-26.367,-7.324,-396.973,0.000
1737551549.068,-50.781,-23.438,-11.719,-1000.000,0.000
1737551549.072,-12.207,-10.742,-20.508,33.691,0.000
1737551549.076,16.113,-11.230,-16.113,954.590,0.000
1737551549.080,-9.766,-17.578,-14.648,999.512,0.000
1737551549.084,-37.109,-22.949,-10.742,487.305,0.000
1737551549.088,-68.848,-40.039,-10.254,-766.602,0.000
1737551549.092,-55.176,-40.039,-12.695,-65.430,0.000
1737551549.095,-21.973,-28.320,-6.348,999.512,0.000
1737551549.099,-31.738,-29.297,-1.465,974.609,0.000
1737551549.103,-53.711,-30.273,-2.930,-145.508,0.000
1737551549.107,-64.941,-36.133,0.977,-1000.000,0.000
1737551549.111,-43.945,-33.691,-3.906,-68.359,0.000
1737551549.115,-25.879,-31.738,-6.348,961.914,0.000
1737551549.119,-21.484,-35.156,-5.371,999.023,0.000
1737551549.123,-38.086,-32.715,-13.672,199.707,0.000
1737551549.127,-51.270,-29.297,-12.207,-1000.000,0.000
1737551549.131,-47.852,-36.621,-12.695,-878.418,0.000
1737551549.135,-33.203,-31.250,-17.090,549.316,0.000
1737551549.138,-35.645,-20.996,-12.207,999.512,0.000
1737551549.142,-49.805,-24.414,-12.695,736.328,0.000
1737551549.146,-41.504,-33.691,-16.602,-300.781,0.000
1737551549.150,-48.340,-38.086,-13.184,-1000.000,0.000
1737551549.154,-31.738,-29.297,-6.348,17.090,0.000
1737551549.158,-7.812,-25.391,-11.230,999.512,0.000
1737551549.162,-23.926,-23.926,-13.672,534.668,0.000
1737551549.166,-35.645,-22.949,-11.719,-853.027,0.000
1737551549.170,-25.391,-25.879,-15.625,-1000.000,0.000
1737551549.174,-8.789,-19.043,-20.996,388.672,0.000
1737551549.177,7.324,-10.254,-14.648,999.512,0.000
1737551549.181,-7.812,-14.160,-8.301,876.953,0.000
1737551549.185,-26.367,-19.043,-10.742,214.844,0.000
1737551549.189,-18.066,-15.625,-7.812,443.848,0.000
1737551549.193,-3.906,-12.695,1.465,997.559,0.000
1737551549.197,0.488,-18.066,-5.859,999.512,0.000
1737551549.201,-33.691,-33.203,-20.996,252.930,0.000
1737551549.205,-66.895,-36.133,-21.484,-938.477,0.000
1737551549.209,-43.457,-24.902,-14.648,-1000.000,0.000
1737551549.213,-14.648,-20.996,-14.160,-142.090,0.000
1737551549.217,3.418,-15.625,-6.836,999.512,0.000
1737551549.220,-11.719,-20.020,-10.254,747.559,0.000
1737551549.224,-38.086,-26.855,-21.484,-720.215,0.000
1737551549.228,-29.297,-11.719,-13.672,-1000.000,0.000
1737551549.232,-9.277,-4.395,-14.160,94.727,0.000
1737551549.236,7.812,-15.137,-24.902,999.512,0.000
1737551549.240,-2.930,-21.973,-21.484,762.695,0.000
1737551549.244,-32.715,-19.043,-10.254,-598.633,0.000
1737551549.248,-34.180,-18.555,-6.836,-1000.000,0.000
1737551549.252,-20.508,-17.578,-13.672,-622.070,0.000
1737551549.256,10.254,-6.836,-13.184,708.008,0.000
1737551549.260,7.324,-0.977,-8.789,999.512,0.000
1737551549.263,-7.324,-1.465,-2.930,-200.195,0.000
1737551549.267,-9.277,-8.301,-8.301,-1000.000,0.000
1737551549.271,-26.367,-17.090,-20.996,-644.531,0.000
1737551549.275,-9.766,-13.672,-19.531,669.922,0.000
1737551549.279,-8.789,-10.742,-14.160,999.512,0.000
1737551549.283,-23.438,-6.836,-8.301,282.227,0.000
1737551549.287,-40.527,-4.883,-7.324,-949.219,0.000
1737551549.291,-21.484,-10.742,-15.137,-727.051,0.000
1737551549.295,5.859,-12.695,-18.066,732.910,0.000
1737551549.299,6.348,-11.230,-18.555,999.512,0.000
1737551549.302,-14.160,-18.555,-17.090,-71.777,0.000
1737551549.306,-39.062,-21.973,-12.695,-1000.000,0.000
1737551549.310,-34.180,-17.090,-11.719,-910.645,0.000
1737551549.314,5.371,-14.160,-12.207,406.250,0.000
1737551549.318,9.766,-9.766,-10.742,999.512,0.000
1737551549.322,-38.086,-17.090,-15.137,333.496,0.000
1737551549.326,-47.852,-23.926,-16.113,-944.824,0.000
1737551549.330,-23.926,-20.020,-13.184,-843.262,0.000
1737551549.334,-19.531,-12.207,-7.812,562.988,0.000
1737551549.338,-14.160,-8.789,-8.301,999.512,0.000
1737551549.342,-11.719,-16.113,-11.230,592.285,0.000
1737551549.345,-30.762,-20.508,-17.090,-758.301,0.000
1737551549.349,-34.180,-14.160,-16.113,-1000.000,0.000
1737551549.353,-12.695,0.488,-13.184,338.867,0.000
1737551549.357,3.906,-4.395,-8.301,999.512,0.000
1737551549.361,-12.695,-15.625,-1.953,569.824,0.000
1737551549.365,-32.227,-23.438,-11.719,-742.676,0.000
1737551549.369,-39.062,-28.320,-22.949,-1000.000,0.000
1737551549.373,-29.297,-11.230,-14.160,28.809,0.000
1737551549.377,-7.812,-8.301,-18.555,999.512,0.000
1737551549.381,-9.766,-20.020,-27.832,911.133,0.000
1737551549.385,-35.156,-20.508,-21.484,-326.660,0.000
1737551549.388,-52.734,-21.973,-13.184,-1000.000,0.000
1737551549.392,-36.621,-22.461,-13.672,-382.812,0.000
1737551549.396,6.836,-15.137,-12.207,886.230,0.000
1737551549.400,19.531,-9.277,-11.230,955.566,0.000
1737551549.404,-16.602,-13.672,-19.531,-470.215,0.000
1737551549.408,-41.016,-14.648,-20.508,-1000.000,0.000
1737551549.412,-25.879,-10.254,-20.020,-204.102,0.000
1737551549.416,-9.277,-11.230,-19.531,868.164,0.000
1737551549.420,-4.883,-6.836,-17.578,999.512,0.000
1737551549.424,-14.160,-12.207,-19.043,278.320,0.000
1737551549.427,-37.598,-20.996,-16.602,-978.027,0.000
1737551549.431,-18.555,-14.648,-10.742,-621.094,0.000
1737551549.435,-1.953,-11.230,-18.555,769.043,0.000
1737551549.439,-9.766,-14.160,-19.043,999.512,0.000
1737551549.443,-24.902,-11.230,-15.137,191.406,0.000
1737551549.447,-43.945,-15.625,-18.555,-1000.000,0.000
1737551549.451,-43.457,-22.949,-16.602,-801.758,0.000
1737551549.455,-8.301,-14.160,-9.277,625.000,0.000
1737551549.459,8.789,-7.812,-11.719,999.512,0.000
1737551549.463,-14.648,-15.137,-20.996,501.465,0.000
1737551549.467,-38.574,-15.625,-20.996,-784.668,0.000
1737551549.470,-32.715,-7.812,-20.508,-631.836,0.000
1737551549.474,5.371,-7.812,-18.066,765.625,0.000
1737551549.478,4.395,-14.648,-20.020,999.512,0.000
1737551549.482,-26.367,-20.508,-25.391,468.750,0.000
1737551549.486,-40.039,-27.832,-18.066,-871.582,0.000
1737551549.490,-13.672,-20.996,-13.672,-959.961,0.000
1737551549.494,9.766,-8.301,-13.672,480.957,0.000
1737551549.498,16.113,-10.254,-12.207,999.512,0.000
1737551549.502,-6.836,-11.230,-13.672,746.582,0.000
1737551549.506,-29.785,-3.906,-15.137,-663.574,0.000
1737551549.509,-22.461,-13.672,-20.020,-1000.000,0.000
1737551549.513,0.000,-13.184,-12.207,504.395,0.000
1737551549.517,2.930,-2.930,-5.859,999.512,0.000
1737551549.521,-14.648,-11.719,-16.602,843.262,0.000
1737551549.525,-34.668,-20.996,-20.020,-395.508,0.000
1737551549.529,-61.523,-19.531,-17.090,-1000.000,0.000
1737551549.533,-33.691,-7.812,-12.695,105.957,0.000
1737551549.537,-7.812,-10.742,-15.137,999.512,0.000
1737551549.541,-10.742,-19.043,-15.625,857.910,0.000
1737551549.545,-27.832,-14.160,-14.648,-475.586,0.000
1737551549.549,-49.316,-22.949,-23.438,-1000.000,0.000
1737551549.552,-30.762,-23.926,-22.949,-205.078,0.000
1737551549.556,-6.348,-15.137,-19.043,890.625,0.000
1737551549.560,-12.207,-18.066,-19.531,999.512,0.000
1737551549.564,-32.227,-21.484,-21.484,108.398,0.000
1737551549.568,-43.945,-31.250,-22.949,-1000.000,0.000
1737551549.572,-40.527,-29.785,-17.090,-707.520,0.000
1737551549.576,-12.207,-20.020,-14.160,729.980,0.000
1737551549.580,-7.324,-19.531,-18.555,999.512,0.000
1737551549.584,-36.133,-18.555,-15.137,-143.555,0.000
1737551549.588,-47.852,-20.996,-13.672,-1000.000,0.000
1737551549.592,-29.297,-20.020,-12.695,-664.062,0.000
1737551549.595,2.930,-14.648,-10.254,692.383,0.000
1737551549.599,-8.789,-16.602,-16.113,999.512,0.000
1737551549.603,-30.273,-21.484,-16.113,583.496,0.000
1737551549.607,-22.949,-15.625,-8.301,482.422,0.000
1737551549.611,-15.625,-17.090,-10.254,890.625,0.000
1737551549.615,-29.297,-24.902,-16.113,999.512,0.000
1737551549.619,-34.180,-16.602,-15.625,849.121,0.000
1737551549.623,-51.758,-18.066,-15.625,-506.836,0.000
1737551549.627,-49.805,-17.090,-16.602,-1000.000,0.000
1737551549.631,-22.949,-20.508,-16.602,-892.578,0.000
1737551549.634,-4.883,-10.254,-10.742,272.461,0.000
1737551549.638,-4.395,-2.441,-14.160,999.512,0.000
1737551549.642,-19.043,-13.184,-20.508,556.641,0.000
1737551549.646,-51.270,-23.926,-17.578,-807.617,0.000
1737551549.650,-66.406,-24.414,-24.414,-1000.000,0.000
1737551549.654,-32.227,-10.742,-25.879,415.527,0.000
1737551549.658,-8.789,-9.766,-30.762,999.512,0.000
1737551549.662,-15.625,-16.602,-26.367,437.012,0.000
1737551549.666,-39.062,-22.949,-14.648,-871.582,0.000
1737551549.670,-47.363,-22.461,-14.648,-983.887,0.000
1737551549.674,-7.812,-11.719,-12.695,429.199,0.000
1737551549.677,-7.324,-8.301,-17.578,999.512,0.000
1737551549.681,-41.992,-16.602,-20.996,783.691,0.000
1737551549.685,-62.988,-21.484,-16.602,-583.496,0.000
1737551549.689,-49.805,-22.461,-16.602,-1000.000,0.000
1737551549.693,-19.043,-21.973,-19.043,291.016,0.000
1737551549.697,1.953,-9.766,-18.555,999.512,0.000
1737551549.701,-14.160,-7.812,-18.066,926.270,0.000
1737551549.705,-34.180,-20.508,-16.602,260.742,0.000
1737551549.709,-48.340,-25.391,-13.672,-934.082,0.000
1737551549.713,-42.480,-25.879,-10.742,-823.730,0.000
1737551549.717,-6.348,-20.508,-15.625,684.082,0.000
1737551549.720,-8.789,-23.438,-17.578,999.512,0.000
1737551549.724,-20.996,-23.438,-15.625,-335.938,0.000
1737551549.728,-36.133,-16.113,-21.484,-1000.000,0.000
1737551549.732,-19.531,-16.602,-20.508,-247.559,0.000
1737551549.736,7.324,-16.113,-12.695,953.125,0.000
1737551549.740,-6.836,-18.555,-16.602,928.711,0.000
1737551549.744,-21.973,-23.438,-17.578,-494.141,0.000
1737551549.748,-34.668,-20.020,-19.531,-1000.000,0.000
1737551549.752,-23.438,-12.207,-24.414,-115.723,0.000
1737551549.756,-3.418,-16.113,-20.020,975.586,0.000
1737551549.759,-18.066,-20.020,-20.020,933.105,0.000
1737551549.763,-47.852,-18.555,-25.391,-349.609,0.000
1737551549.767,-43.945,-18.555,-24.902,-1000.000,0.000
1737551549.771,-31.250,-16.113,-20.020,-692.871,0.000
1737551549.775,-8.789,-15.625,-18.555,620.605,0.000
1737551549.779,-5.859,-18.066,-27.344,999.512,0.000
1737551549.783,-23.438,-22.461,-32.715,353.516,0.000
1737551549.787,-32.715,-24.414,-23.438,-909.668,0.000
1737551549.791,-24.902,-20.020,-16.113,-916.016,0.000
1737551549.795,0.488,-7.324,-15.625,528.320,0.000
1737551549.799,22.949,-1.465,-20.020,999.512,0.000
1737551549.802,11.230,-7.324,-15.625,606.445,0.000
1737551549.806,-21.973,-14.648,-9.766,-801.758,0.000
1737551549.810,-27.344,-18.555,-15.137,-875.488,0.000
1737551549.814,2.930,-10.254,-18.066,645.020,0.000
1737551549.818,4.395,-12.207,-17.090,999.512,0.000
1737551549.822,-14.648,-20.996,-15.625,479.492,0.000
1737551549.826,-36.133,-21.484,-18.066,-823.730,0.000
1737551549.830,-32.227,-27.344,-12.695,-1000.000,0.000
1737551549.834,8.301,-26.855,-10.742,325.195,0.000
1737551549.838,31.250,-10.742,-22.461,999.512,0.000
1737551549.842,3.906,-1.953,-19.531,729.492,0.000
1737551549.845,-40.039,-5.859,-19.043,-628.906,0.000
1737551549.849,-49.316,-15.137,-34.180,-1000.000,0.000
1737551549.853,-43.457,-9.277,-37.598,-1.465,0.000
1737551549.857,-43.945,2.441,-38.086,999.512,0.000
1737551549.861,-46.387,2.441,-38.086,730.469,0.000
1737551549.865,-59.082,-0.488,-34.668,-650.879,0.000
1737551549.869,-57.129,0.488,-34.180,-1000.000,0.000
1737551549.873,-52.246,-3.418,-40.039,-432.129,0.000
1737551549.877,-24.902,0.488,-34.668,830.566,0.000
1737551549.881,-23.926,3.418,-31.738,974.121,0.000
1737551549.884,-50.293,-7.812,-35.156,-444.336,0.000
1737551549.888,-53.223,-11.719,-24.414,-1000.000,0.000
1737551549.892,-44.922,-7.324,-22.461,-197.754,0.000
1737551549.896,-16.113,-12.695,-29.297,955.078,0.000
1737551549.900,-12.207,-11.230,-35.156,921.387,0.000
1737551549.904,-40.039,-10.742,-30.762,-434.570,0.000
1737551549.908,-52.734,-15.625,-19.531,-1000.000,0.000
1737551549.912,-28.809,-15.137,-17.578,-541.992,0.000
1737551549.916,-0.488,-10.254,-20.020,815.918,0.000
1737551549.920,-15.137,-14.160,-29.297,916.504,0.000
1737551549.924,-26.855,-13.672,-20.508,-568.359,0.000
1737551549.927,-15.137,-7.324,-2.441,-1000.000,0.000
1737551549.931,-12.207,-14.648,-19.531,-773.926,0.000
1737551549.935,-6.348,-11.230,-32.715,569.336,0.000
1737551549.939,-0.977,-12.695,-21.973,999.512,0.000
1737551549.943,-26.855,-24.414,-27.344,-336.426,0.000
1737551549.947,-62.500,-26.367,-38.574,-1000.000,0.000
1737551549.951,-47.852,-19.531,-24.902,-1000.000,0.000
1737551549.955,-9.277,-19.043,-17.090,-41.992,0.000
1737551549.959,-10.742,-25.391,-31.738,944.336,0.000
1737551549.963,-56.152,-22.949,-35.156,-450.195,0.000
1737551549.966,-76.172,-28.320,-38.086,-1000.000,0.000
1737551549.970,-69.824,-20.996,-22.461,-923.340,0.000
1737551549.974,-53.711,-6.836,-12.695,-1000.000,0.000
1737551549.978,-67.383,-9.277,-20.020,-1000.000,0.000
1737551549.982,-90.820,-2.441,-20.996,-1000.000,0.000
1737551549.986,-107.422,4.883,-24.414,-1000.000,0.000
1737551549.990,-130.859,0.000,-23.926,-1000.000,0.000
1737551549.994,-159.668,-1.953,-15.137,-1000.000,0.000
1737551549.998,-168.945,17.090,-15.625,-1000.000,0.000
1737551550.002,-207.520,4.883,-29.785,-1000.000,0.000
1737551550.006,-251.465,-5.859,-36.621,-1000.000,0.000
1737551550.009,-265.137,8.789,-29.785,-1000.000,0.000
1737551550.013,-286.621,1.953,-13.184,-1000.000,0.000
1737551550.017,-312.988,-7.324,-19.531,-1000.000,0.000
1737551550.021,-328.125,-11.230,-28.320,-962.402,0.000
1737551550.025,-321.777,-10.254,-27.344,-1000.000,0.000
1737551550.029,-301.270,3.418,-17.090,-965.820,0.000
1737551550.033,-270.996,14.648,-1.465,242.188,0.000
1737551550.037,-259.766,7.812,-9.277,999.512,0.000
1737551550.041,-274.902,-5.371,-26.367,784.180,0.000
1737551550.045,-291.504,-15.625,-45.410,-531.738,0.000
1737551550.049,-275.391,-12.695,-29.297,-1000.000,0.000
1737551550.052,-232.422,-6.348,-5.371,-812.500,0.000
1737551550.056,-188.477,-7.324,-15.137,548.340,0.000
1737551550.060,-170.898,-22.461,-39.551,999.512,0.000
1737551550.064,-174.805,-31.738,-32.227,-267.578,0.000
1737551550.068,-166.992,-14.648,-26.367,-1000.000,0.000
1737551550.072,-117.188,-1.953,-29.297,-108.887,0.000
1737551550.076,-66.895,4.395,-15.137,946.777,0.000
1737551550.080,-43.945,-7.324,-20.508,999.512,0.000
1737551550.084,-41.016,-26.367,-32.715,183.594,0.000
1737551550.088,-42.969,-12.207,-26.855,-1000.000,0.000
1737551550.091,-20.020,-2.441,-38.086,-437.012,0.000
1737551550.095,8.301,0.488,-53.223,831.543,0.000
1737551550.099,26.855,8.789,-49.805,999.512,0.000
1737551550.103,26.367,11.230,-39.551,397.949,0.000
1737551550.107,12.695,22.949,-30.273,-921.387,0.000
1737551550.111,46.387,40.527,-29.297,-629.883,0.000
1737551550.115,102.051,52.734,-30.273,755.371,0.000
1737551550.119,102.539,50.781,-35.645,999.512,0.000
1737551550.123,69.824,31.738,-50.781,656.250,0.000
1737551550.127,54.688,25.879,-46.875,-733.398,0.000
1737551550.131,45.898,34.180,-39.551,-925.293,0.000
1737551550.134,71.777,37.109,-41.504,575.684,0.000
1737551550.138,88.379,44.922,-36.621,999.512,0.000
1737551550.142,73.730,53.711,-41.992,564.453,0.000
1737551550.146,68.848,52.246,-47.363,-770.508,0.000
1737551550.150,78.613,49.805,-44.434,-1000.000,0.000
1737551550.154,99.609,62.500,-46.387,308.105,0.000
1737551550.158,109.375,62.988,-51.270,999.512,0.000
1737551550.162,94.727,53.223,-43.457,487.305,0.000
1737551550.166,71.289,50.781,-32.715,-869.141,0.000
1737551550.170,64.453,52.246,-33.691,-958.496,0.000
1737551550.174,90.332,58.594,-33.691,486.816,0.000
1737551550.177,122.070,57.129,-29.785,999.512,0.000
1737551550.181,80.078,32.715,-36.133,492.676,0.000
1737551550.185,52.246,36.133,-30.762,-785.645,0.000
1737551550.189,70.312,63.965,-19.531,-1000.000,0.000
1737551550.193,92.285,50.781,-13.672,14.160,0.000
1737551550.197,100.098,30.273,-26.367,999.512,0.000
1737551550.201,82.520,36.133,-30.273,811.523,0.000
1737551550.205,50.781,37.598,-25.879,-577.148,0.000
1737551550.209,49.805,41.992,-30.273,-1000.000,0.000
1737551550.213,70.801,48.828,-32.227,-344.238,0.000
1737551550.216,72.266,34.180,-28.320,924.316,0.000
1737551550.220,74.707,28.809,-19.043,860.840,0.000
1737551550.224,58.594,8.789,-26.367,-660.156,0.000
1737551550.228,30.273,-3.906,-43.945,-1000.000,0.000
1737551550.232,38.574,20.508,-34.180,-930.664,0.000
1737551550.236,66.406,24.414,-17.090,-1000.000,0.000
1737551550.240,52.734,12.207,-16.602,-979.492,0.000
1737551550.244,25.879,13.672,-31.738,-962.891,0.000
1737551550.248,25.391,12.695,-40.039,-1000.000,0.000
1737551550.252,52.246,28.320,-24.902,-306.641,0.000
1737551550.256,70.312,35.645,-18.555,911.133,0.000
1737551550.259,49.316,24.414,-25.391,999.512,0.000
1737551550.263,33.691,21.973,-19.531,-168.945,0.000
1737551550.267,22.949,14.648,-33.691,-1000.000,0.000
1737551550.271,22.949,11.719,-38.086,-1000.000,0.000
1737551550.275,49.316,25.879,-15.625,-162.598,0.000
1737551550.279,53.223,31.738,-13.672,980.469,0.000
1737551550.283,29.785,17.578,-15.625,69.336,0.000
1737551550.287,23.438,-4.883,-23.438,-1000.000,0.000
1737551550.291,10.742,0.000,-29.297,-949.707,0.000
1737551550.295,25.391,12.207,-25.879,306.641,0.000
1737551550.298,48.340,18.555,-24.902,999.512,0.000
1737551550.302,15.137,14.160,-23.926,430.176,0.000
1737551550.306,-7.812,7.324,-16.113,-909.668,0.000
1737551550.310,24.902,27.344,-5.371,-860.840,0.000
1737551550.314,36.133,21.484,-7.324,595.215,0.000
1737551550.318,7.324,-10.742,-23.438,999.512,0.000
1737551550.322,-15.137,-17.578,-31.738,359.375,0.000
1737551550.326,-30.273,-11.719,-28.809,-901.367,0.000
1737551550.330,-13.672,-5.371,-28.809,-940.430,0.000
1737551550.334,20.020,0.488,-24.414,460.449,0.000
1737551550.338,26.855,3.418,-18.555,999.512,0.000
1737551550.341,14.648,0.977,-17.578,606.934,0.000
1737551550.345,-17.578,-9.766,-14.160,-714.844,0.000
1737551550.349,-37.598,-5.859,-16.113,-1000.000,0.000
1737551550.353,-11.230,8.789,-14.160,1.465,0.000
1737551550.357,9.766,0.977,-19.043,999.512,0.000
1737551550.361,6.348,8.789,-19.531,932.617,0.000
1737551550.365,-19.531,-3.418,-17.090,-242.676,0.000
1737551550.369,-46.875,-23.926,-32.715,-1000.000,0.000
1737551550.373,-14.648,3.906,-36.621,-620.117,0.000
1737551550.377,21.484,33.203,-24.902,731.445,0.000
1737551550.381,7.812,9.766,-31.738,980.957,0.000
1737551550.384,-32.715,-9.277,-39.062,-229.980,0.000
1737551550.388,-45.898,-1.953,-28.809,-1000.000,0.000
1737551550.392,-22.461,-13.184,-23.926,-1000.000,0.000
1737551550.396,-18.555,-18.555,-36.133,76.660,0.000
1737551550.400,-22.949,-6.836,-37.598,885.254,0.000
1737551550.404,-50.293,-6.836,-39.062,-547.852,0.000
1737551550.408,-45.898,-10.254,-43.945,-1000.000,0.000
1737551550.412,-24.414,3.906,-37.598,-951.660,0.000
1737551550.416,-16.602,6.348,-36.621,166.016,0.000
1737551550.420,-15.137,-14.160,-39.551,999.512,0.000
1737551550.423,-39.551,-9.766,-40.039,-302.734,0.000
1737551550.427,-44.434,4.883,-44.434,-1000.000,0.000
1737551550.431,-15.137,3.418,-33.691,-650.391,0.000
1737551550.435,11.230,0.000,-27.344,650.879,0.000
1737551550.439,-0.977,-1.465,-40.039,999.512,0.000
1737551550.443,-25.391,-6.348,-41.016,350.098,0.000
1737551550.447,-30.273,-10.742,-40.527,-914.062,0.000
1737551550.451,1.465,4.883,-28.809,-947.266,0.000
1737551550.455,31.738,11.719,-28.320,527.344,0.000
1737551550.459,15.137,3.418,-39.551,999.512,0.000
1737551550.463,-36.621,-1.465,-31.738,-90.332,0.000
1737551550.466,-68.359,2.441,-26.855,-1000.000,0.000
1737551550.470,-67.383,-8.789,-30.273,-971.191,0.000
1737551550.474,-32.715,-19.531,-20.508,143.066,0.000
1737551550.478,0.000,-15.625,-14.648,999.512,0.000
1737551550.482,-7.324,-11.230,-17.578,523.926,0.000
1737551550.486,-40.039,-17.578,-17.578,-788.086,0.000
1737551550.490,-61.035,-27.832,-22.949,-1000.000,0.000
1737551550.494,-29.785,-17.090,-22.949,-38.086,0.000
1737551550.498,-10.254,-13.672,-21.484,999.512,0.000
1737551550.502,-14.160,-20.020,-22.949,656.738,0.000
1737551550.506,-27.832,-20.020,-21.484,-706.543,0.000
1737551550.509,-32.227,-19.043,-19.531,-1000.000,0.000
1737551550.513,-21.484,-19.531,-31.738,-420.410,0.000
1737551550.517,12.207,-8.789,-29.785,854.492,0.000
1737551550.521,11.230,-1.465,-20.996,943.359,0.000
1737551550.525,-15.137,-1.953,-17.090,-487.793,0.000
1737551550.529,-29.297,-3.418,-13.184,-1000.000,0.000
1737551550.533,-9.277,0.000,-9.277,-406.250,0.000
1737551550.537,14.160,3.418,-4.395,864.746,0.000
1737551550.541,-10.254,-1.953,-9.277,940.430,0.000
1737551550.545,-28.809,-7.812,-13.672,-447.754,0.000
1737551550.548,-38.574,-21.973,-28.320,-1000.000,0.000
1737551550.552,-23.438,-16.602,-22.461,-828.613,0.000
1737551550.556,17.578,3.906,-11.719,636.230,0.000
1737551550.560,-9.277,-5.859,-19.043,921.387,0.000
1737551550.564,-38.086,-9.277,-15.137,-677.246,0.000
1737551550.568,-30.273,-15.625,-20.996,-1000.000,0.000
1737551550.572,-35.156,-24.902,-36.621,-984.863,0.000
1737551550.576,-21.484,-4.395,-34.668,-12.207,0.000
1737551550.580,6.348,5.371,-20.996,999.023,0.000
1737551550.584,-10.254,-9.766,-15.625,-208.496,0.000
1737551550.588,-41.992,-21.484,-22.949,-1000.000,0.000
1737551550.591,-26.855,-10.254,-21.484,-790.527,0.000
1737551550.595,10.254,11.230,-9.766,585.938,0.000
1737551550.599,12.207,10.742,-11.719,999.512,0.000
1737551550.603,-20.996,-7.324,-24.902,-31.250,0.000
1737551550.607,-38.574,-14.160,-30.762,-1000.000,0.000
1737551550.611,-14.648,-6.348,-23.438,-821.289,0.000
1737551550.615,23.438,2.441,-16.602,577.148,0.000
1737551550.619,30.273,0.000,-20.508,999.512,0.000
1737551550.623,14.160,-5.859,-20.996,166.016,0.000
1737551550.627,-6.836,-12.207,-20.508,-931.641,0.000
1737551550.631,-32.715,-11.719,-22.949,-1000.000,0.000
1737551550.634,-26.855,-7.324,-18.066,44.434,0.000
1737551550.638,1.465,9.766,-6.348,999.512,0.000
1737551550.642,-9.277,4.395,-9.766,823.242,0.000
1737551550.646,-39.062,-6.348,-13.672,-498.047,0.000
1737551550.650,-40.039,-14.160,-13.672,-1000.000,0.000
1737551550.654,-30.273,-22.949,-13.184,-296.387,0.000
1737551550.658,0.000,-4.883,-4.883,929.199,0.000
1737551550.662,2.930,-0.977,-11.230,785.645,0.000
1737551550.666,-45.410,-11.230,-26.367,-722.168,0.000
1737551550.670,-45.410,-2.441,-23.438,-1000.000,0.000
1737551550.673,-13.672,9.277,-13.184,198.242,0.000
1737551550.677,1.953,0.000,-12.207,999.512,0.000
1737551550.681,-26.855,-24.414,-25.391,521.484,0.000
1737551550.685,-46.875,-21.973,-22.949,-791.992,0.000
1737551550.689,-37.109,-6.836,-6.836,-1000.000,0.000
1737551550.693,-19.531,-1.953,-11.719,-104.004,0.000
1737551550.697,-2.441,-13.184,-32.227,999.512,0.000
1737551550.701,-16.602,-18.066,-23.926,623.535,0.000
1737551550.705,-21.484,-6.836,-19.531,-790.527,0.000
1737551550.709,-22.461,-19.043,-39.062,-1000.000,0.000
1737551550.713,-27.832,-29.785,-37.109,-943.359,0.000
1737551550.716,-16.113,-17.578,-29.297,-916.016,0.000
1737551550.720,-9.277,-8.789,-26.855,-950.684,0.000
1737551550.724,-34.668,-10.742,-30.273,-964.355,0.000
1737551550.728,-37.598,-5.859,-23.926,-1000.000,0.000
1737551550.732,-18.555,1.953,-19.531,-640.625,0.000
1737551550.736,-10.742,-9.766,-16.602,822.754,0.000
1737551550.740,-16.602,-26.367,-13.184,895.996,0.000
1737551550.744,-44.434,-18.555,-7.812,-664.551,0.000
1737551550.748,-47.852,0.977,-14.648,-1000.000,0.000
1737551550.752,-29.297,2.930,-29.297,-1000.000,0.000
1737551550.755,-14.648,7.812,-29.785,-297.852,0.000
1737551550.759,6.836,20.020,-21.973,917.969,0.000
1737551550.763,-4.395,31.250,-16.113,-58.594,0.000
1737551550.767,-26.367,23.926,-29.785,-1000.000,0.000
1737551550.771,-15.137,15.137,-40.527,-880.859,0.000
1737551550.775,5.859,38.086,-38.086,394.043,0.000
1737551550.779,18.066,43.945,-37.598,999.512,0.000
1737551550.783,-2.930,17.578,-46.387,457.520,0.000
1737551550.787,-43.457,6.348,-54.199,-781.250,0.000
1737551550.791,-26.367,9.277,-45.898,-1000.000,0.000
1737551550.795,10.254,16.602,-32.715,-95.215,0.000
1737551550.798,4.883,16.602,-30.273,999.512,0.000
1737551550.802,-11.719,22.461,-25.879,304.688,0.000
1737551550.806,-17.578,26.367,-19.043,-945.312,0.000
1737551550.810,-16.602,4.883,-41.992,-1000.000,0.000
1737551550.814,9.766,1.953,-43.457,1.465,0.000
1737551550.818,31.250,15.137,-27.344,999.512,0.000
1737551550.822,-1.953,8.301,-32.715,669.922,0.000
1737551550.826,-32.715,7.324,-26.367,-700.684,0.000
1737551550.830,-26.367,17.090,-22.461,-1000.000,0.000
1737551550.834,-10.742,4.395,-39.062,-328.125,0.000
1737551550.838,19.043,4.883,-38.086,924.316,0.000
1737551550.841,8.789,16.602,-21.484,723.633,0.000
1737551550.845,-28.320,3.418,-25.391,-711.914,0.000
1737551550.849,-39.062,-14.160,-38.086,-1000.000,0.000
1737551550.853,-16.113,5.371,-30.762,-337.891,0.000
1737551550.857,12.207,14.160,-22.949,960.449,0.000
1737551550.861,-5.371,-4.883,-26.367,645.508,0.000
1737551550.865,-39.062,-3.418,-26.367,-752.441,0.000
1737551550.869,-30.762,1.953,-25.391,-1000.000,0.000
1737551550.873,-4.395,0.488,-24.414,-645.020,0.000
1737551550.877,15.625,11.719,-22.949,758.301,0.000
1737551550.880,16.113,9.277,-18.066,965.332,0.000
1737551550.884,-4.395,-0.488,-20.996,-501.953,0.000
1737551550.888,-21.973,-10.254,-23.438,-1000.000,0.000
1737551550.892,-11.719,-13.184,-20.996,-678.223,0.000
1737551550.896,10.742,2.441,-15.625,630.371,0.000
1737551550.900,9.277,13.672,-4.395,999.512,0.000
1737551550.904,-0.488,12.695,-4.395,178.223,0.000
1737551550.908,-15.625,3.906,-8.789,-1000.000,0.000
1737551550.912,-12.695,9.277,-6.836,-682.129,0.000
1737551550.916,17.090,24.902,-6.348,714.844,0.000
1737551550.920,21.973,14.160,-4.883,999.512,0.000
1737551550.923,-9.766,2.441,-10.742,308.105,0.000
1737551550.927,-24.414,0.488,-9.766,-948.730,0.000
1737551550.931,-16.113,-0.488,-5.859,-837.891,0.000
1737551550.935,11.230,12.695,0.977,626.465,0.000
1737551550.939,20.508,16.602,3.418,999.512,0.000
1737551550.943,-10.254,1.953,-4.395,120.117,0.000
1737551550.947,-26.855,-2.441,-6.836,-1000.000,0.000
1737551550.951,-14.160,4.883,-2.930,-870.605,0.000
1737551550.955,37.598,16.602,-1.953,529.297,0.000
1737551550.959,38.574,11.230,-8.789,999.512,0.000
1737551550.963,-22.949,-8.789,-21.973,339.844,0.000
1737551550.966,-51.270,-4.395,-20.020,-859.863,0.000
1737551550.970,-45.898,-6.836,-19.043,-1000.000,0.000
1737551550.974,-19.043,-7.812,-16.602,48.828,0.000
1737551550.978,4.883,9.277,-4.883,999.512,0.000
1737551550.982,-10.254,6.348,-6.836,652.344,0.000
1737551550.986,-39.062,-12.207,-15.625,-838.867,0.000
1737551550.990,-15.625,-2.930,-18.555,-851.074,0.000
1737551550.994,25.879,22.461,-11.719,624.023,0.000
1737551550.998,14.648,12.207,-15.137,999.512,0.000
1737551551.002,-7.812,-7.324,-28.320,698.730,0.000
1737551551.005,-19.531,-3.906,-15.137,-592.285,0.000
1737551551.009,-30.273,-4.883,-7.324,-1000.000,0.000
1737551551.013,-29.785,-6.836,-30.762,-656.250,0.000
1737551551.017,2.930,2.441,-32.715,763.672,0.000
1737551551.021,-0.488,3.418,-27.832,824.219,0.000
1737551551.025,-38.086,-9.766,-30.273,-698.730,0.000
1737551551.029,-23.926,-2.930,-13.184,-1000.000,0.000
1737551551.033,-0.977,7.812,-10.742,-838.867,0.000
1737551551.037,15.625,7.812,-15.625,574.707,0.000
1737551551.041,-2.441,-0.488,-15.137,980.469,0.000
1737551551.045,-40.039,-7.812,-20.020,-553.223,0.000
1737551551.048,-36.133,-4.883,-17.578,-1000.000,0.000
1737551551.052,-12.207,-1.953,-12.695,-668.945,0.000
1737551551.056,14.648,4.395,-9.766,637.695,0.000
1737551551.060,14.648,13.184,-1.953,999.512,0.000
1737551551.064,-23.438,5.859,-9.766,92.285,0.000
1737551551.068,-37.598,-1.953,-22.949,-1000.000,0.000
1737551551.072,-20.508,7.324,-12.695,-908.691,0.000
1737551551.076,-3.418,6.348,-5.859,595.215,0.000
1737551551.080,0.000,-12.207,-20.508,999.512,0.000
1737551551.084,-13.672,-10.742,-22.949,-474.121,0.000
1737551551.088,-12.695,-6.836,-16.602,-1000.000,0.000
1737551551.091,-22.949,-13.672,-19.531,-818.848,0.000
1737551551.095,-25.391,-16.113,-14.648,471.191,0.000
1737551551.099,-16.602,-17.090,-9.277,999.512,0.000
1737551551.103,-34.180,-20.020,-12.207,282.227,0.000
1737551551.107,-60.547,-27.832,-14.648,-880.371,0.000
1737551551.111,-61.523,-35.645,-16.602,-1000.000,0.000
1737551551.115,-45.410,-41.016,-1.953,125.000,0.000
1737551551.119,-34.668,-30.762,1.953,999.512,0.000
1737551551.123,-52.734,-26.855,-6.836,293.945,0.000
1737551551.127,-80.078,-32.227,-11.719,-923.828,0.000
1737551551.130,-58.105,-23.438,-8.301,-1000.000,0.000
1737551551.134,-24.902,-15.625,2.930,62.988,0.000
1737551551.138,-9.766,-18.066,1.953,999.512,0.000
1737551551.142,-30.762,-21.973,-10.254,581.055,0.000
1737551551.146,-60.059,-33.691,-12.207,-774.902,0.000
1737551551.150,-53.711,-31.738,-7.324,-1000.000,0.000
1737551551.154,-29.297,-18.066,-11.230,80.078,0.000
1737551551.158,-10.742,-14.160,-12.207,999.512,0.000
1737551551.162,-7.812,-13.672,-5.859,620.605,0.000
1737551551.166,-40.039,-20.996,-3.418,-745.117,0.000
1737551551.170,-35.645,-20.996,-5.859,-1000.000,0.000
1737551551.173,-18.066,-10.254,-3.418,-105.957,0.000
1737551551.177,-14.648,-9.277,-4.883,999.512,0.000
1737551551.181,-20.508,-3.418,-5.371,700.195,0.000
1737551551.185,-35.156,-6.348,-8.301,-707.520,0.000
1737551551.189,-41.504,-15.625,-6.348,-1000.000,0.000
1737551551.193,-22.461,-18.555,-14.160,-234.375,0.000
1737551551.197,9.766,-6.348,-17.578,966.797,0.000
1737551551.201,-6.836,-9.766,-20.996,873.535,0.000
1737551551.205,-48.828,-14.160,-21.484,-532.715,0.000
1737551551.209,-31.738,-3.906,-12.695,-1000.000,0.000
1737551551.212,-10.742,-10.742,-17.578,-667.480,0.000
1737551551.216,-7.812,-11.719,-21.973,744.629,0.000
1737551551.220,3.418,-6.836,-15.137,916.016,0.000
1737551551.224,-38.086,-21.484,-10.742,-605.957,0.000
1737551551.228,-62.012,-22.461,-18.066,-1000.000,0.000
1737551551.232,-38.086,-14.648,-19.531,-814.453,0.000
1737551551.236,-11.719,-6.836,-6.836,504.883,0.000
1737551551.240,5.859,9.766,0.488,999.512,0.000
1737551551.244,-19.531,0.488,-17.578,43.457,0.000
1737551551.248,-54.199,-20.508,-26.367,-1000.000,0.000
1737551551.252,-35.156,-17.090,-19.531,-803.223,0.000
1737551551.255,-12.207,-15.137,-17.578,581.543,0.000
1737551551.259,-4.395,-6.348,-10.742,999.512,0.000
1737551551.263,-25.391,-1.465,-10.254,106.934,0.000
1737551551.267,-48.828,-8.301,-14.160,-985.352,0.000
1737551551.271,-15.137,0.488,0.000,-1000.000,0.000
1737551551.275,12.695,4.395,4.883,213.867,0.000
1737551551.279,3.418,-0.977,-10.254,999.512,0.000
1737551551.283,-19.531,-9.766,-16.602,405.762,0.000
1737551551.287,-48.828,-5.859,-1.953,-806.152,0.000
1737551551.291,-45.410,-0.488,2.441,-1000.000,0.000
1737551551.295,-12.695,-11.230,-16.602,-326.172,0.000
1737551551.298,-1.953,-9.277,-20.996,959.473,0.000
1737551551.302,-29.785,-21.484,-23.438,386.719,0.000
1737551551.306,-50.293,-35.645,-26.367,-917.480,0.000
1737551551.310,-51.270,-28.809,-19.043,-1000.000,0.000
1737551551.314,-25.391,-14.160,-11.230,-232.910,0.000
1737551551.318,8.301,-11.230,-14.648,994.141,0.000
1737551551.322,-8.789,-17.578,-18.555,659.668,0.000
1737551551.326,-50.781,-22.461,-21.973,-757.812,0.000
1737551551.330,-28.809,-13.184,-22.461,-1000.000,0.000
1737551551.334,2.441,-11.719,-16.113,-141.113,0.000
1737551551.337,8.789,-10.254,-12.207,952.148,0.000
1737551551.341,-4.395,-9.277,-16.602,952.637,0.000
1737551551.345,-38.086,-21.973,-20.020,-291.016,0.000
1737551551.349,-61.035,-28.809,-15.625,-1000.000,0.000
1737551551.353,-45.898,-25.391,-16.113,-301.270,0.000
1737551551.357,-16.113,-15.625,-14.648,940.918,0.000
1737551551.361,-10.254,-9.277,-12.207,890.625,0.000
1737551551.365,-25.391,-5.859,-15.625,-533.691,0.000
1737551551.369,-19.531,-5.859,-12.695,-1000.000,0.000
1737551551.373,-6.836,-3.906,-7.324,-517.578,0.000
1737551551.377,23.926,7.812,-7.324,791.504,0.000
1737551551.380,18.555,0.488,-4.395,999.512,0.000
1737551551.384,-28.809,-11.719,-11.230,-460.938,0.000
1737551551.388,-41.504,-2.441,-19.531,-1000.000,0.000
1737551551.392,-17.578,0.977,-9.277,62.988,0.000
1737551551.396,13.672,-5.859,-6.348,990.723,0.000
1737551551.400,7.812,-7.324,-11.230,978.516,0.000
1737551551.404,-23.438,-13.672,-17.578,21.973,0.000
1737551551.408,-49.805,-20.996,-23.926,-1000.000,0.000
1737551551.412,-36.133,-10.254,-13.672,-1000.000,0.000
1737551551.416,-4.883,-3.418,-8.789,270.508,0.000
1737551551.420,4.883,-5.371,-6.348,999.512,0.000
1737551551.423,-9.277,-3.418,-5.859,-192.871,0.000
1737551551.427,-20.996,-17.090,-13.184,-1000.000,0.000
1737551551.431,-19.531,-13.184,-8.789,-625.000,0.000
1737551551.435,-4.883,-4.883,-6.348,682.617,0.000
1737551551.439,7.812,-6.836,-10.742,999.512,0.000
1737551551.443,-24.902,-12.207,-10.742,114.258,0.000
1737551551.447,-41.504,-15.137,-5.859,-1000.000,0.000
1737551551.451,-27.344,-10.254,-12.207,-781.738,0.000
1737551551.455,-2.441,-4.883,-12.695,628.418,0.000
1737551551.459,0.488,-3.418,-9.277,999.512,0.000
1737551551.462,-20.508,-12.207,-17.578,342.773,0.000
1737551551.466,-30.762,-21.484,-21.973,-876.465,0.000
1737551551.470,-36.621,-14.160,-19.531,-1000.000,0.000
1737551551.474,-9.766,0.977,-14.648,160.156,0.000
1737551551.478,10.254,-2.930,-13.672,999.512,0.000
1737551551.482,-8.301,-6.836,1.953,749.023,0.000
1737551551.486,-51.758,-18.555,2.930,-573.730,0.000
1737551551.490,-77.148,-20.996,-7.812,-1000.000,0.000
1737551551.494,-50.293,-25.879,-7.324,-331.055,0.000
1737551551.498,-20.508,-31.250,1.465,940.918,0.000
1737551551.502,-29.785,-28.320,6.836,804.199,0.000
1737551551.505,-43.945,-29.297,-3.418,-639.648,0.000
1737551551.509,-34.668,-29.297,-4.883,-1000.000,0.000
1737551551.513,-21.973,-29.785,-7.324,-433.594,0.000
1737551551.517,10.742,-22.949,-13.184,851.074,0.000
1737551551.521,-7.812,-18.555,-10.254,950.195,0.000
1737551551.525,-43.457,-16.602,-9.766,-522.949,0.000
1737551551.529,-39.062,-13.184,-10.254,-1000.000,0.000
1737551551.533,-24.414,-9.277,-1.465,-138.184,0.000
1737551551.537,-3.906,-3.906,4.395,976.562,0.000
1737551551.541,-2.441,-6.348,4.883,927.246,0.000
1737551551.545,-38.086,-19.043,0.977,-395.020,0.000
1737551551.548,-50.293,-23.926,-12.207,-1000.000,0.000
1737551551.552,-26.367,-18.555,-10.742,-441.406,0.000
1737551551.556,14.160,-5.859,2.930,801.758,0.000
1737551551.560,-3.418,-3.906,-2.930,999.512,0.000
1737551551.564,-33.203,-13.672,-11.230,-211.426,0.000
1737551551.568,-20.508,-15.137,-6.836,-1000.000,0.000
1737551551.572,-17.578,-11.230,-3.906,-982.910,0.000
1737551551.576,-5.859,-3.418,6.348,257.324,0.000
1737551551.580,5.859,-0.488,-3.418,999.512,0.000
1737551551.584,-2.930,-4.395,-13.672,-191.895,0.000
1737551551.587,-13.184,-13.184,-10.742,-1000.000,0.000
1737551551.591,-14.160,-21.973,-13.672,-896.484,0.000
1737551551.595,10.254,-18.066,-12.695,436.035,0.000
1737551551.599,10.254,-12.207,-11.230,999.512,0.000
1737551551.603,-8.301,-10.254,-6.348,-65.918,0.000
1737551551.607,-29.785,-12.207,-8.789,-1000.000,0.000
1737551551.611,-39.062,-14.160,-10.742,-901.855,0.000
1737551551.615,1.953,2.441,0.000,397.949,0.000
1737551551.619,18.555,7.324,0.488,999.512,0.000
1737551551.623,-9.277,6.836,-0.488,610.840,0.000
1737551551.627,-22.461,-4.883,-10.254,-743.652,0.000
1737551551.630,-17.578,-20.996,-21.484,-1000.000,0.000
1737551551.634,11.230,-13.672,-17.090,303.223,0.000
1737551551.638,19.043,-12.695,-19.531,999.512,0.000
1737551551.642,1.465,-13.184,-16.113,551.270,0.000
1737551551.646,-10.254,-8.789,-14.648,-732.422,0.000
1737551551.650,-26.367,-15.137,-20.996,-1000.000,0.000
1737551551.654,-16.113,-18.066,-15.625,-317.383,0.000
1737551551.658,2.930,-4.883,-11.230,933.594,0.000
1737551551.662,-0.977,-1.465,-6.348,796.387,0.000
1737551551.666,-19.043,-7.812,-3.906,-711.914,0.000
1737551551.669,-14.160,-9.277,-10.254,-1000.000,0.000
1737551551.673,-8.301,-12.695,-15.137,125.488,0.000
1737551551.677,-16.602,-14.648,-15.137,999.512,0.000
1737551551.681,-21.973,-18.555,-15.137,763.672,0.000
1737551551.685,-45.898,-18.066,-18.066,-585.449,0.000
1737551551.689,-53.711,-7.812,-14.160,-1000.000,0.000
1737551551.693,-24.414,-13.672,-5.371,-690.918,0.000
1737551551.697,10.254,-17.578,-7.324,690.918,0.000
1737551551.701,4.395,-22.461,-21.973,999.512,0.000
1737551551.705,-22.949,-22.461,-24.902,-457.031,0.000
1737551551.709,-22.461,-14.648,-25.391,-1000.000,0.000
1737551551.712,-10.742,-14.160,-21.484,-632.324,0.000
1737551551.716,23.438,-7.812,-14.648,687.988,0.000
1737551551.720,29.297,-4.883,-15.625,999.512,0.000
1737551551.724,-20.996,-14.160,-15.625,-61.035,0.000
1737551551.728,-44.922,-21.973,-15.137,-1000.000,0.000
1737551551.732,-28.809,-18.555,-10.254,-550.293,0.000
1737551551.736,-18.555,-9.277,-17.578,775.391,0.000
1737551551.740,-22.461,-15.137,-20.508,999.512,0.000
1737551551.744,-35.645,-18.066,-14.648,124.023,0.000
1737551551.748,-48.340,-13.672,-14.160,-1000.000,0.000
1737551551.752,-43.457,-19.531,-14.160,-643.066,0.000
1737551551.755,-33.203,-18.066,-8.789,716.797,0.000
1737551551.759,-20.996,-7.812,-7.324,999.512,0.000
1737551551.763,-33.203,-15.137,-14.648,685.059,0.000
1737551551.767,-47.852,-20.996,-13.184,-577.637,0.000
1737551551.771,-37.598,-21.484,-15.625,-908.691,0.000
1737551551.775,0.000,-18.066,-13.672,549.316,0.000
1737551551.779,12.695,-12.207,-10.742,999.512,0.000
1737551551.783,-11.230,-13.184,-21.973,411.621,0.000
1737551551.787,-21.973,-14.160,-25.879,-809.570,0.000
1737551551.791,-18.066,-12.695,-19.043,-1000.000,0.000
1737551551.794,-5.859,-9.766,-14.160,-144.043,0.000
1737551551.798,4.395,-2.930,-12.207,999.512,0.000
1737551551.802,-16.113,-5.371,-14.648,633.789,0.000
1737551551.806,-39.551,-6.348,-4.395,-805.664,0.000
1737551551.810,-38.086,-6.836,-9.277,-1000.000,0.000
1737551551.814,-20.996,-3.906,-19.531,254.395,0.000
1737551551.818,1.465,4.395,-14.160,999.512,0.000
1737551551.822,-20.996,-11.230,-21.484,377.441,0.000
1737551551.826,-40.527,-28.809,-21.973,-827.637,0.000
1737551551.830,-39.551,-20.020,-16.113,-1000.000,0.000
1737551551.834,-32.227,-26.367,-17.090,-529.785,0.000
1737551551.837,-3.906,-22.461,-14.160,863.281,0.000
1737551551.841,-8.301,-15.137,-20.508,642.578,0.000
1737551551.845,-33.691,-20.020,-21.973,-791.504,0.000
1737551551.849,-39.551,-24.414,-13.672,-1000.000,0.000
1737551551.853,-20.996,-28.809,-10.742,-961.426,0.000
1737551551.857,8.301,-8.301,-13.184,414.062,0.000
1737551551.861,-0.977,0.488,-23.926,937.012,0.000
1737551551.865,-23.438,-10.742,-29.785,-623.047,0.000
1737551551.869,-41.504,-9.766,-27.344,-1000.000,0.000
1737551551.873,-40.039,-1.953,-29.297,-888.672,0.000
1737551551.877,-13.184,6.348,-35.156,501.953,0.000
1737551551.880,-15.137,14.160,-47.363,999.512,0.000
1737551551.884,-41.016,18.066,-44.922,-574.219,0.000
1737551551.888,-46.387,6.836,-32.227,-1000.000,0.000
1737551551.892,-49.805,-4.395,-36.133,-995.117,0.000
1737551551.896,-27.344,0.977,-37.598,-194.824,0.000
1737551551.900,3.418,3.906,-31.738,962.402,0.000
1737551551.904,-23.926,-5.859,-34.180,0.977,0.000
1737551551.908,-40.527,-17.090,-35.156,-1000.000,0.000
1737551551.912,-29.297,-19.531,-27.832,-935.059,0.000
1737551551.916,-0.977,-6.836,-24.414,399.414,0.000
1737551551.919,30.273,-0.977,-21.973,999.512,0.000
1737551551.923,9.766,-0.488,-18.066,-194.336,0.000
1737551551.927,-35.645,-3.906,-25.391,-1000.000,0.000
1737551551.931,-27.344,-0.977,-23.438,-781.738,0.000
1737551551.935,0.488,0.000,-16.602,575.195,0.000
1737551551.939,-7.812,-5.371,-20.508,999.512,0.000
1737551551.943,-24.902,-8.301,-20.508,184.570,0.000
1737551551.947,-27.832,-13.672,-21.973,-1000.000,0.000
1737551551.951,-19.043,-4.395,-22.461,-846.191,0.000
1737551551.955,-5.859,-6.348,-24.902,601.074,0.000
1737551551.959,14.160,-13.184,-24.414,999.512,0.000
1737551551.962,-12.695,0.488,-14.648,118.164,0.000
1737551551.966,-46.875,-11.230,-16.602,-952.637,0.000
1737551551.970,-23.438,-17.578,-19.043,-1000.000,0.000
1737551551.974,-2.441,-8.789,-21.484,-86.914,0.000
1737551551.978,11.230,-4.883,-24.902,999.512,0.000
1737551551.982,6.348,-2.441,-21.973,664.062,0.000
1737551551.986,-27.344,-3.906,-17.578,-684.082,0.000
1737551551.990,-39.551,-7.324,-14.648,-1000.000,0.000
1737551551.994,-20.020,-8.301,-18.066,-693.359,0.000
1737551551.998,17.090,-1.465,-15.625,712.402,0.000
1737551552.002,7.812,-0.977,-11.719,952.637,0.000
1737551552.005,-26.367,-7.812,-4.395,-523.926,0.000
1737551552.009,-37.598,-16.113,-15.137,-1000.000,0.000
1737551552.013,-23.926,-21.484,-30.273,-570.312,0.000
1737551552.017,9.277,-12.207,-23.438,751.953,0.000
1737551552.021,5.371,-7.324,-18.555,999.512,0.000
1737551552.025,-18.066,-11.230,-14.160,-244.141,0.000
1737551552.029,-50.293,-13.672,-17.090,-1000.000,0.000
1737551552.033,-35.645,-8.301,-23.438,-550.781,0.000
1737551552.037,4.883,-2.930,-22.949,751.465,0.000
1737551552.041,3.906,-8.789,-24.902,958.496,0.000
1737551552.044,-21.973,-11.230,-26.855,-68.359,0.000
1737551552.048,-42.480,-16.602,-20.508,-1000.000,0.000
1737551552.052,-20.996,-20.996,-22.949,-358.887,0.000
1737551552.056,0.977,-17.090,-32.227,867.188,0.000
1737551552.060,-11.230,-5.859,-25.391,999.512,0.000
1737551552.064,-32.227,-9.766,-19.531,101.074,0.000
1737551552.068,-35.156,-20.996,-20.508,-1000.000,0.000
1737551552.072,-41.992,-16.602,-8.789,-845.215,0.000
1737551552.076,-22.461,-15.137,-11.230,574.707,0.000
1737551552.080,-3.418,-19.043,-20.508,999.512,0.000
1737551552.084,-13.672,-20.508,-21.484,246.094,0.000
1737551552.087,-41.504,-23.438,-25.391,-987.793,0.000
1737551552.091,-20.996,-13.672,-17.578,-544.922,0.000
1737551552.095,16.113,-5.859,-14.648,774.414,0.000
1737551552.099,5.859,-6.836,-19.531,999.512,0.000
1737551552.103,-26.855,-11.719,-16.113,627.930,0.000
1737551552.107,-48.340,-25.391,-17.090,-730.957,0.000
1737551552.111,-25.879,-23.926,-11.230,-1000.000,0.000
1737551552.115,-16.113,-14.648,-2.930,158.691,0.000
1737551552.119,-18.066,-14.648,-3.906,999.512,0.000
1737551552.123,-23.926,-17.578,-8.789,571.777,0.000
1737551552.126,-35.156,-13.672,-13.672,-833.984,0.000
1737551552.130,-26.855,-21.484,-19.531,-998.535,0.000
1737551552.134,-1.953,-22.461,-18.555,419.434,0.000
1737551552.138,9.766,-8.789,-16.113,999.512,0.000
1737551552.142,-8.789,-9.277,-12.695,658.203,0.000
1737551552.146,-45.898,-16.113,-11.230,-725.098,0.000
1737551552.150,-48.340,-21.973,-23.926,-1000.000,0.000
1737551552.154,-25.391,-20.996,-18.555,313.965,0.000
1737551552.158,-2.930,-6.836,-13.672,999.512,0.000
1737551552.162,-13.184,-13.672,-24.414,752.441,0.000
1737551552.166,-47.363,-35.156,-31.250,-587.891,0.000
1737551552.169,-47.363,-32.715,-29.297,-1000.000,0.000
1737551552.173,-28.809,-23.438,-21.973,-312.500,0.000
1737551552.177,-5.371,-15.625,-17.090,859.375,0.000
1737551552.181,3.418,-2.441,-5.371,997.559,0.000
1737551552.185,-35.156,-7.324,-12.207,-44.922,0.000
1737551552.189,-52.734,-20.996,-25.879,-1000.000,0.000
1737551552.193,-46.387,-25.391,-22.949,-419.922,0.000
1737551552.197,-10.254,-13.184,-13.672,830.566,0.000
1737551552.201,2.441,-8.301,-15.625,999.512,0.000
1737551552.205,-13.672,-13.672,-11.719,206.543,0.000
1737551552.209,-34.180,-17.090,-8.301,-974.121,0.000
1737551552.212,-24.414,-13.672,-18.555,-387.207,0.000
1737551552.216,-6.836,0.000,-11.230,866.211,0.000
1737551552.220,-31.250,0.000,-11.719,999.512,0.000
1737551552.224,-40.527,-8.789,-9.766,323.730,0.000
1737551552.228,-43.945,-16.113,-4.395,-958.984,0.000
1737551552.232,-36.621,-19.531,-18.555,-498.535,0.000
1737551552.236,-8.789,-13.672,-21.484,828.125,0.000
1737551552.240,4.395,-14.648,-14.160,999.512,0.000
