timestamps,TP9,AF7,AF8,TP10,Right AUX
1737562878.878,0.000,-9.766,0.000,0.000,0.000
1737562878.881,0.000,-26.367,0.000,0.000,0.000
1737562878.885,0.000,-33.691,0.000,0.000,0.000
1737562878.889,0.000,-32.715,0.000,0.000,0.000
1737562878.893,0.000,-7.324,0.000,0.000,0.000
1737562878.897,0.000,-6.836,0.000,0.000,0.000
1737562878.901,0.000,-13.672,0.000,0.000,0.000
1737562878.905,0.000,6.348,0.000,0.000,0.000
1737562878.909,0.000,5.371,0.000,0.000,0.000
1737562878.913,0.000,-11.719,0.000,0.000,0.000
1737562878.917,0.000,-10.742,0.000,0.000,0.000
1737562878.920,0.000,-1.953,0.000,0.000,0.000
1737562878.924,-7.324,-5.859,-29.785,3.418,0.000
1737562878.928,-93.262,-9.277,-33.691,28.320,0.000
1737562878.932,17.090,-13.184,-27.344,43.457,0.000
1737562878.936,48.828,-15.137,-8.789,-39.062,0.000
1737562878.940,-15.137,-11.230,-9.766,-107.910,0.000
1737562878.944,-16.602,-7.812,-23.438,-39.062,0.000
1737562878.948,46.387,0.000,-13.672,75.684,0.000
1737562878.952,41.504,-10.254,-4.395,62.012,0.000
1737562878.956,-54.688,-24.902,5.371,-11.719,0.000
1737562878.960,-56.641,-22.461,7.812,-54.199,0.000
1737562878.963,-15.137,-18.555,-4.883,-64.941,0.000
1737562878.967,-18.555,-25.879,-7.324,-3.418,0.000
1737562878.971,42.480,-27.344,-37.109,60.547,0.000
1737562878.975,-41.016,-14.160,-30.762,5.371,0.000
1737562878.979,-95.703,-4.395,11.230,-84.961,0.000
1737562878.983,-5.371,-9.766,14.160,-77.637,0.000
1737562878.987,31.250,-15.625,12.695,50.781,0.000
1737562878.991,82.520,10.742,12.695,178.711,0.000
1737562878.995,83.008,9.766,-6.348,130.371,0.000
1737562878.999,-55.176,-28.809,-15.137,-38.574,0.000
1737562879.002,-103.027,-27.344,8.789,-98.633,0.000
1737562879.006,-19.531,-17.090,14.160,-21.973,0.000
1737562879.010,-4.395,-10.254,0.977,53.223,0.000
1737562879.014,-23.926,-1.953,-8.789,41.504,0.000
1737562879.018,-4.883,-4.883,-12.695,-56.152,0.000
1737562879.022,-28.809,-3.418,-3.418,-111.816,0.000
1737562879.026,-1.953,-4.395,-4.395,4.883,0.000
1737562879.030,39.551,-15.625,-4.395,103.516,0.000
1737562879.034,1.953,-13.672,0.488,66.406,0.000
1737562879.038,-13.672,1.953,-5.371,-61.523,0.000
1737562879.042,-69.336,0.000,-15.625,-100.586,0.000
1737562879.045,-106.934,-20.020,-19.043,-24.902,0.000
1737562879.049,-1.953,-11.230,-7.812,69.824,0.000
1737562879.053,8.789,-4.883,15.137,53.223,0.000
1737562879.057,-9.766,-13.184,16.602,-56.152,0.000
1737562879.061,-24.902,-10.254,4.883,-87.891,0.000
1737562879.065,0.000,2.930,0.000,-71.777,0.000
1737562879.069,0.000,3.906,0.000,6.836,0.000
1737562879.073,0.000,-2.930,0.000,111.816,0.000
1737562879.077,0.000,-12.695,0.000,-23.438,0.000
1737562879.081,0.000,-13.184,0.000,-94.238,0.000
1737562879.085,0.000,-9.766,0.000,22.949,0.000
1737562879.088,0.000,-14.648,0.000,139.160,0.000
1737562879.092,0.000,-15.625,0.000,125.000,0.000
1737562879.096,0.000,-6.348,0.000,-60.547,0.000
1737562879.100,0.000,9.277,0.000,-140.625,0.000
1737562879.104,0.000,15.137,0.000,-61.523,0.000
1737562879.108,0.000,6.836,0.000,17.090,0.000
1737562879.112,32.715,-12.207,0.488,82.520,0.000
1737562879.116,-51.270,-27.832,10.254,21.484,0.000
1737562879.120,-106.934,-35.156,4.883,-123.535,0.000
1737562879.124,-18.555,-21.484,-10.742,-61.035,0.000
1737562879.127,71.777,-7.812,-15.137,103.027,0.000
1737562879.131,5.859,-5.859,-11.719,95.215,0.000
1737562879.135,-65.918,-1.953,-9.766,-60.547,0.000
1737562879.139,-64.941,-12.695,-9.766,-128.906,0.000
1737562879.143,-10.254,-13.672,-5.859,-55.176,0.000
1737562879.147,-4.883,-4.883,-3.418,44.434,0.000
1737562879.151,-11.230,-16.602,-2.930,53.711,0.000
1737562879.155,-39.551,-30.273,-6.836,-26.855,0.000
1737562879.159,-38.086,-14.160,-28.809,-83.008,0.000
1737562879.163,-10.742,-11.719,-32.715,-30.273,0.000
1737562879.167,19.043,-29.297,-3.906,23.438,0.000
1737562879.170,-24.902,-12.207,10.742,110.352,0.000
1737562879.174,-87.402,13.672,5.371,37.109,0.000
1737562879.178,-24.414,10.254,4.395,-113.770,0.000
1737562879.182,32.227,-7.812,-13.672,-76.172,0.000
1737562879.186,-13.184,-11.230,-20.996,-32.227,0.000
1737562879.190,5.371,-13.672,-7.812,44.922,0.000
1737562879.194,-11.719,-20.508,-14.648,37.598,0.000
1737562879.198,-111.328,-20.020,-23.926,-76.172,0.000
1737562879.202,-82.031,-5.371,-31.738,-59.082,0.000
1737562879.206,-28.320,-6.348,-24.902,-21.484,0.000
1737562879.210,0.488,-25.391,3.906,39.062,0.000
1737562879.213,51.758,-20.996,3.418,26.367,0.000
1737562879.217,8.301,-9.277,-7.812,-111.816,0.000
1737562879.221,-73.730,-13.672,4.883,-106.934,0.000
1737562879.225,-64.941,0.977,0.488,-1.465,0.000
1737562879.229,-6.348,-8.789,-19.531,55.176,0.000
1737562879.233,-46.875,-23.438,-27.832,29.297,0.000
1737562879.237,-65.918,-10.254,-29.785,-83.496,0.000
1737562879.241,-45.410,0.000,-28.320,-100.098,0.000
1737562879.245,-27.344,2.930,-10.742,-39.062,0.000
1737562879.249,41.016,-6.836,14.160,40.039,0.000
1737562879.253,-8.789,-18.066,9.277,81.055,0.000
1737562879.256,-91.797,-15.137,-4.883,-53.223,0.000
1737562879.260,-5.371,-10.254,-4.883,-122.070,0.000
1737562879.264,-40.527,-9.277,-13.672,-49.316,0.000
1737562879.268,-21.973,-24.414,-30.273,49.805,0.000
1737562879.272,68.359,-21.973,-19.043,120.605,0.000
1737562879.276,-14.648,-14.160,-11.230,-14.648,0.000
1737562879.280,-121.094,-20.508,-9.277,-157.715,0.000
1737562879.284,-86.914,-10.254,-6.348,-101.562,0.000
1737562879.288,20.996,-15.625,-10.254,8.301,0.000
1737562879.292,47.852,-10.254,-7.812,100.586,0.000
1737562879.295,-23.438,0.000,-17.578,-25.879,0.000
1737562879.299,-121.582,-7.324,-18.066,-166.992,0.000
1737562879.303,-83.008,-20.020,-8.789,-94.238,0.000
1737562879.307,25.879,-35.645,-4.883,62.988,0.000
1737562879.311,22.949,-24.902,-6.836,128.906,0.000
1737562879.315,-45.410,-6.348,-7.324,8.301,0.000
1737562879.319,-48.340,-6.836,-8.301,-103.027,0.000
1737562879.323,-74.707,-13.184,-18.555,-84.473,0.000
1737562879.327,-52.246,0.977,-11.719,-17.578,0.000
1737562879.331,36.621,9.277,-3.906,40.527,0.000
1737562879.334,10.742,-17.090,-0.977,-41.504,0.000
1737562879.338,-38.086,-30.762,-1.465,-143.555,0.000
1737562879.342,-59.082,-13.672,-11.719,-74.707,0.000
1737562879.346,-15.137,-9.277,-20.020,23.926,0.000
1737562879.350,20.020,-8.789,-20.508,51.270,0.000
1737562879.354,-81.543,-14.160,-2.930,-2.930,0.000
1737562879.358,-101.074,-20.020,9.277,-76.660,0.000
1737562879.362,-43.945,-15.137,-8.301,-125.977,0.000
1737562879.366,-13.672,-7.812,-21.484,-59.570,0.000
1737562879.370,68.848,7.812,-21.973,85.938,0.000
1737562879.374,39.062,0.977,-20.508,18.066,0.000
1737562879.377,-92.773,-18.555,0.000,-58.594,0.000
1737562879.381,-126.465,-20.996,6.348,-72.266,0.000
1737562879.385,-65.918,-25.879,-4.395,-84.473,0.000
1737562879.389,19.043,-18.555,-11.230,-1.953,0.000
1737562879.393,-3.418,-8.301,-18.066,21.484,0.000
1737562879.397,-29.785,-1.953,-9.766,-83.008,0.000
1737562879.401,-6.836,-4.395,1.953,-93.262,0.000
1737562879.405,-30.762,-15.137,-20.996,-17.578,0.000
1737562879.409,-49.805,-20.508,-33.691,40.039,0.000
1737562879.413,15.137,-13.184,-8.789,45.410,0.000
1737562879.417,3.418,0.977,2.930,-38.574,0.000
1737562879.420,-54.199,-2.441,-7.324,-81.543,0.000
1737562879.424,-78.613,-21.973,-12.207,-57.617,0.000
1737562879.428,-4.883,-25.391,-15.137,-16.113,0.000
1737562879.432,38.574,-29.785,-16.602,13.184,0.000
1737562879.436,-35.156,-16.602,-18.555,-37.109,0.000
1737562879.440,-68.359,2.930,-12.695,-84.961,0.000
1737562879.444,-4.395,-2.930,4.883,-27.832,0.000
1737562879.448,-3.906,-14.648,-0.488,36.133,0.000
1737562879.452,-12.207,-14.160,-3.906,73.730,0.000
1737562879.456,12.207,-8.789,-1.953,8.789,0.000
1737562879.459,-35.645,-2.930,-14.648,-101.074,0.000
1737562879.463,-88.379,-3.906,-28.320,-82.520,0.000
1737562879.467,-64.453,-18.555,-14.648,-12.695,0.000
1737562879.471,-13.672,-15.137,13.672,32.227,0.000
1737562879.475,-4.395,-11.719,9.766,-16.602,0.000
1737562879.479,-37.598,-17.578,-10.742,-110.840,0.000
1737562879.483,-51.758,-11.719,-26.855,-106.445,0.000
1737562879.487,-26.367,-11.230,-23.438,14.648,0.000
1737562879.491,-33.203,-23.926,-26.367,61.523,0.000
1737562879.495,-20.020,-19.043,-40.039,-21.484,0.000
1737562879.499,0.000,-15.625,-35.156,-89.355,0.000
1737562879.502,-5.859,-21.973,-3.418,-57.617,0.000
1737562879.506,44.434,-11.230,15.625,47.363,0.000
1737562879.510,27.832,-13.184,0.977,137.207,0.000
1737562879.514,-19.043,-22.461,-10.254,27.344,0.000
1737562879.518,-45.898,-20.508,-21.484,-134.277,0.000
1737562879.522,-56.641,-16.602,-26.855,-120.605,0.000
1737562879.526,-19.531,-23.438,-11.230,-24.414,0.000
1737562879.530,49.316,-16.113,-3.906,47.363,0.000
1737562879.534,39.062,-5.859,-16.602,28.320,0.000
1737562879.538,-81.055,-10.742,-23.438,-64.941,0.000
1737562879.542,-59.570,-18.555,-12.695,-61.035,0.000
1737562879.545,39.551,-18.555,7.812,23.438,0.000
1737562879.549,24.902,-11.719,13.184,55.176,0.000
1737562879.553,13.184,-10.742,3.906,9.277,0.000
1737562879.557,-60.059,-17.090,-13.184,-63.965,0.000
1737562879.561,-122.559,-21.973,-17.578,-87.891,0.000
1737562879.565,-29.785,-20.020,-12.695,-22.949,0.000
1737562879.569,25.879,-13.672,-17.090,52.246,0.000
1737562879.573,51.270,-14.648,-19.043,90.332,0.000
1737562879.577,2.930,-21.484,-24.902,-8.789,0.000
1737562879.581,-55.176,-17.090,-27.832,-84.473,0.000
1737562879.585,-45.410,-9.766,-16.113,-25.391,0.000
1737562879.588,-16.113,-16.602,-4.395,56.152,0.000
1737562879.592,29.785,-28.809,-2.930,34.180,0.000
1737562879.596,-16.113,-18.555,-3.906,-82.031,0.000
1737562879.600,-90.332,-6.348,-16.113,-124.512,0.000
1737562879.604,-33.203,-15.625,-25.391,-49.805,0.000
1737562879.608,-16.602,-36.133,-28.320,33.203,0.000
1737562879.612,-22.949,-12.207,-18.066,82.031,0.000
1737562879.616,5.859,3.906,-16.602,6.348,0.000
1737562879.620,-44.922,-4.395,-15.625,-94.238,0.000
1737562879.623,-49.805,-5.371,-6.836,-36.133,0.000
1737562879.627,-1.953,-14.648,-9.766,48.340,0.000
1737562879.631,25.391,-12.695,-1.465,18.066,0.000
1737562879.635,-9.766,4.883,5.371,-29.297,0.000
1737562879.639,-35.156,-5.371,-4.883,-69.336,0.000
1737562879.643,-35.645,-21.973,-28.320,-71.289,0.000
1737562879.647,-36.133,-16.602,-35.156,1.953,0.000
1737562879.651,-19.043,-10.254,-26.367,86.426,0.000
1737562879.655,-24.414,-10.254,-20.020,16.113,0.000
1737562879.659,-44.434,-15.625,-17.090,-127.930,0.000
1737562879.663,-28.809,-15.625,-19.043,-130.859,0.000
1737562879.666,8.301,0.488,-16.602,3.906,0.000
1737562879.670,25.391,-5.371,-23.926,98.145,0.000
1737562879.674,7.324,-18.555,-26.855,51.270,0.000
1737562879.678,-71.777,-17.090,-21.973,-44.922,0.000
1737562879.682,-93.750,-10.742,-20.996,-117.188,0.000
1737562879.686,-15.137,-15.625,-19.531,-38.086,0.000
1737562879.690,0.000,-30.273,-32.227,58.105,0.000
1737562879.694,3.418,-16.602,-31.738,9.277,0.000
1737562879.698,-12.695,-4.883,-20.020,-54.199,0.000
1737562879.702,-69.824,-11.230,-21.484,-102.539,0.000
1737562879.706,-53.223,-9.766,-36.621,0.977,0.000
1737562879.709,-4.883,-11.230,-33.691,89.844,0.000
1737562879.713,-37.598,-12.207,-21.484,25.879,0.000
1737562879.717,-112.305,-4.395,-22.949,-99.121,0.000
1737562879.721,-94.238,-19.043,-11.230,-157.715,0.000
1737562879.725,29.297,-25.879,2.930,-49.805,0.000
1737562879.729,77.637,-10.254,-0.488,63.477,0.000
1737562879.733,45.898,-5.371,-20.996,89.844,0.000
1737562879.737,-26.855,-10.742,-27.832,53.711,0.000
1737562879.741,-73.242,1.465,-15.625,-75.684,0.000
1737562879.745,-42.480,11.719,-19.531,-90.332,0.000
1737562879.749,-7.812,-8.789,-33.203,12.207,0.000
1737562879.752,-24.414,-16.602,-33.691,21.484,0.000
1737562879.756,-59.082,-9.277,-25.879,-84.473,0.000
1737562879.760,-81.543,-18.066,-20.020,-155.762,0.000
1737562879.764,-45.410,-36.133,-32.715,-47.852,0.000
1737562879.768,26.367,-15.137,-36.133,57.617,0.000
1737562879.772,8.301,-0.977,-20.020,93.262,0.000
1737562879.776,-47.363,-23.438,-29.785,9.766,0.000
1737562879.780,-72.754,-27.344,-50.293,-115.723,0.000
1737562879.784,-45.898,-14.160,-32.715,-101.074,0.000
1737562879.788,18.555,0.488,-25.391,19.531,0.000
1737562879.792,40.039,3.418,-28.809,107.422,0.000
1737562879.795,10.254,-11.719,-3.906,-13.672,0.000
1737562879.799,-94.727,-21.484,-3.906,-172.363,0.000
1737562879.803,-145.508,-24.902,-21.484,-131.836,0.000
1737562879.807,-22.461,-34.668,-32.227,28.320,0.000
1737562879.811,56.641,-32.227,-33.691,119.141,0.000
1737562879.815,1.953,-17.090,-38.574,45.410,0.000
1737562879.819,-41.504,-5.859,-31.250,-56.152,0.000
1737562879.823,-21.484,8.301,-12.695,-81.055,0.000
1737562879.827,-10.254,2.930,-34.668,-0.977,0.000
1737562879.831,7.324,-16.113,-39.062,47.363,0.000
1737562879.834,-5.371,-24.414,-28.320,-64.941,0.000
1737562879.838,-119.629,-14.160,-36.621,-111.816,0.000
1737562879.842,-92.285,-10.254,-32.227,-32.715,0.000
1737562879.846,20.020,-7.324,-23.438,39.062,0.000
1737562879.850,1.953,-6.348,-13.184,98.145,0.000
1737562879.854,-19.531,-15.137,-12.695,73.242,0.000
1737562879.858,-24.414,-26.855,-25.879,-77.637,0.000
1737562879.862,-72.266,-30.762,-30.273,-111.328,0.000
1737562879.866,-55.176,-14.648,-28.320,-35.645,0.000
1737562879.870,38.574,-20.996,-24.902,10.742,0.000
1737562879.874,24.414,-18.066,-32.715,0.000,0.000
1737562879.877,-90.820,-8.789,-45.898,-49.316,0.000
1737562879.881,-65.918,-9.766,-42.480,-58.594,0.000
1737562879.885,26.855,-6.836,-41.504,-10.254,0.000
1737562879.889,-1.465,-11.719,-29.297,58.594,0.000
1737562879.893,-7.812,-23.438,-17.578,40.039,0.000
1737562879.897,-57.129,-33.691,-20.508,-60.547,0.000
1737562879.901,-72.266,-27.344,-12.695,-84.473,0.000
1737562879.905,-23.926,-30.273,-11.719,-44.922,0.000
1737562879.909,-53.223,-20.508,-32.715,27.832,0.000
1737562879.913,-40.039,-1.465,-46.875,84.961,0.000
1737562879.917,13.672,-8.789,-44.922,-6.348,0.000
1737562879.920,-35.156,-19.043,-37.109,-134.277,0.000
1737562879.924,-42.480,-21.973,-22.949,-125.000,0.000
1737562879.928,-11.719,-12.695,-13.672,9.766,0.000
1737562879.932,29.785,-13.672,-23.438,97.656,0.000
1737562879.936,-9.766,-20.508,-28.809,17.578,0.000
1737562879.940,-88.379,-13.672,-20.508,-59.082,0.000
1737562879.944,-63.965,-9.277,-29.297,-46.875,0.000
1737562879.948,-18.066,-13.672,-39.062,21.973,0.000
1737562879.952,21.484,-14.160,-29.785,77.148,0.000
1737562879.956,-16.602,-20.508,-26.855,13.184,0.000
1737562879.959,-87.402,-5.371,-20.996,-112.793,0.000
1737562879.963,-59.570,1.953,-18.066,-102.051,0.000
1737562879.967,3.906,-19.043,-22.949,4.883,0.000
1737562879.971,18.066,-28.320,-22.949,60.547,0.000
1737562879.975,-51.270,-20.020,-27.344,14.160,0.000
1737562879.979,-53.711,-5.859,-27.832,-93.262,0.000
1737562879.983,-5.859,-9.277,-29.785,-105.957,0.000
1737562879.987,17.578,-18.066,-41.016,21.484,0.000
1737562879.991,-9.766,-7.812,-39.551,127.930,0.000
1737562879.995,-46.387,-3.906,-25.391,40.039,0.000
1737562879.998,-66.406,-11.719,-13.672,-74.219,0.000
1737562880.002,-21.973,-25.391,-10.254,-83.496,0.000
1737562880.006,32.227,-21.484,-14.160,-23.926,0.000
1737562880.010,50.293,-1.465,-29.297,54.688,0.000
1737562880.014,-16.113,5.371,-51.270,17.578,0.000
1737562880.018,-96.680,-7.324,-52.734,-92.773,0.000
1737562880.022,-22.949,-3.906,-35.645,-80.566,0.000
1737562880.026,26.855,-0.488,-25.391,-4.883,0.000
1737562880.030,12.207,-17.578,-25.391,80.566,0.000
1737562880.034,-32.227,-24.902,-38.574,39.062,0.000
1737562880.038,-29.785,-15.625,-34.180,-69.336,0.000
1737562880.041,-36.133,-11.719,-11.230,-98.145,0.000
1737562880.045,-37.598,-12.207,-20.508,-20.020,0.000
1737562880.049,-20.996,-12.695,-35.156,91.797,0.000
1737562880.053,-33.691,-17.090,-34.668,72.754,0.000
1737562880.057,-0.977,-7.812,-50.781,-76.660,0.000
1737562880.061,-6.348,-12.695,-43.457,-177.246,0.000
1737562880.065,-24.902,-17.578,-20.020,-69.824,0.000
1737562880.069,2.930,0.488,-14.160,98.633,0.000
1737562880.073,4.395,1.953,-14.648,103.027,0.000
1737562880.077,-41.504,-8.789,-24.414,-13.672,0.000
1737562880.081,-89.355,-18.555,-40.527,-74.707,0.000
1737562880.084,-29.785,-24.414,-46.875,-18.066,0.000
1737562880.088,13.672,-16.113,-30.273,32.227,0.000
1737562880.092,-31.738,-16.113,-49.316,20.020,0.000
1737562880.096,-74.219,-30.762,-62.500,-64.453,0.000
1737562880.100,-51.758,-12.207,-41.504,-128.418,0.000
1737562880.104,9.766,4.395,-32.715,-59.082,0.000
1737562880.108,13.184,-9.766,-22.949,50.781,0.000
1737562880.112,-15.137,-14.648,-26.367,64.941,0.000
1737562880.116,-73.730,-13.672,-32.715,-58.105,0.000
1737562880.120,-89.844,-22.949,-41.992,-138.184,0.000
1737562880.123,-71.289,-35.156,-57.129,-54.199,0.000
1737562880.127,-42.480,-33.203,-63.965,71.777,0.000
1737562880.131,20.508,-21.484,-48.828,93.750,0.000
1737562880.135,-8.789,-8.301,-41.504,-11.230,0.000
1737562880.139,-59.082,2.930,-45.898,-103.027,0.000
1737562880.143,-11.230,8.789,-37.109,-98.145,0.000
1737562880.147,28.320,-13.672,-35.645,-24.902,0.000
1737562880.151,-17.090,-33.691,-30.762,56.641,0.000
1737562880.155,-59.570,-18.555,-24.414,17.090,0.000
1737562880.159,-89.844,-9.766,-37.109,-81.543,0.000
1737562880.163,-46.387,-2.441,-48.340,-42.480,0.000
1737562880.166,15.625,-7.812,-42.969,45.898,0.000
1737562880.170,23.438,-17.090,-35.156,85.449,0.000
1737562880.174,28.809,-4.883,-27.344,37.598,0.000
1737562880.178,-21.973,-1.465,-39.062,-52.734,0.000
1737562880.182,-70.312,-10.742,-61.035,-63.477,0.000
1737562880.186,-49.805,-22.461,-53.223,-35.645,0.000
1737562880.190,12.695,-30.762,-37.109,35.156,0.000
1737562880.194,25.879,-26.855,-36.133,34.668,0.000
1737562880.198,-40.527,-27.344,-44.434,-65.918,0.000
1737562880.202,-79.102,-27.832,-33.691,-72.266,0.000
1737562880.206,-50.293,-15.137,-29.785,1.465,0.000
1737562880.209,-0.488,-9.277,-45.898,60.059,0.000
1737562880.213,33.203,-16.113,-56.641,43.945,0.000
1737562880.217,1.465,-15.137,-60.547,-48.340,0.000
1737562880.221,-96.680,-5.371,-58.105,-122.070,0.000
1737562880.225,-41.016,-4.883,-50.781,-80.566,0.000
1737562880.229,64.941,-13.184,-33.203,39.551,0.000
1737562880.233,-21.484,-26.855,-32.715,63.477,0.000
1737562880.237,-90.820,-21.973,-41.504,-40.039,0.000
1737562880.241,-38.086,-19.043,-37.109,-87.891,0.000
1737562880.245,-17.578,-26.367,-31.738,-14.648,0.000
1737562880.249,4.883,-7.812,-27.832,68.848,0.000
1737562880.252,45.898,2.441,-31.250,103.516,0.000
1737562880.256,5.859,1.465,-37.109,22.461,0.000
1737562880.260,-72.754,-13.672,-58.105,-129.395,0.000
1737562880.264,-36.133,-20.020,-56.641,-106.445,0.000
1737562880.268,29.785,-13.184,-46.875,35.156,0.000
1737562880.272,23.926,-17.578,-55.664,102.051,0.000
1737562880.276,-28.809,-22.461,-47.363,26.855,0.000
1737562880.280,-108.398,-19.043,-38.086,-52.246,0.000
1737562880.284,-53.711,-30.762,-38.086,-29.785,0.000
1737562880.288,5.371,-37.109,-27.344,46.387,0.000
1737562880.291,-20.508,-19.531,-29.785,28.809,0.000
1737562880.295,-70.312,-24.414,-47.363,-64.941,0.000
1737562880.299,-69.336,-31.250,-41.992,-112.793,0.000
1737562880.303,-26.367,-31.738,-32.227,-58.594,0.000
1737562880.307,-19.531,-25.879,-32.715,24.902,0.000
1737562880.311,-13.672,-0.488,-43.457,96.191,0.000
1737562880.315,7.812,0.488,-64.941,39.062,0.000
1737562880.319,-51.270,-23.926,-74.219,-94.727,0.000
1737562880.323,5.371,-14.648,-61.523,-83.496,0.000
1737562880.327,35.645,-1.953,-46.387,-29.297,0.000
1737562880.331,-36.133,-1.465,-51.270,63.477,0.000
1737562880.334,-55.176,-3.906,-58.594,36.621,0.000
1737562880.338,-90.820,-26.855,-49.805,-89.844,0.000
1737562880.342,-43.945,-39.062,-47.363,-78.125,0.000
1737562880.346,10.254,-30.273,-69.336,-38.086,0.000
1737562880.350,27.344,-7.324,-94.727,23.926,0.000
1737562880.354,-1.953,0.977,-91.309,33.203,0.000
1737562880.358,-65.430,-30.273,-69.336,-55.664,0.000
1737562880.362,-64.453,-34.668,-64.941,-52.246,0.000
1737562880.366,-58.594,-5.859,-72.266,8.301,0.000
1737562880.370,-24.902,-4.883,-70.801,-10.742,0.000
1737562880.373,44.922,-3.906,-79.102,10.254,0.000
1737562880.377,0.000,-11.230,-89.844,-29.785,0.000
1737562880.381,0.000,-12.207,-87.402,-81.055,0.000
1737562880.385,0.000,-6.348,-90.820,-10.742,0.000
1737562880.389,0.000,-21.973,-108.887,84.473,0.000
1737562880.393,0.000,-18.555,-131.348,95.703,0.000
1737562880.397,0.000,0.000,-115.723,-38.086,0.000
1737562880.401,0.000,-0.977,-101.562,-109.375,0.000
1737562880.405,0.000,-21.484,-114.258,-31.738,0.000
1737562880.409,0.000,-30.273,-121.582,56.152,0.000
1737562880.413,0.000,-14.648,-105.957,98.145,0.000
1737562880.416,0.000,-12.207,-96.680,-23.438,0.000
1737562880.420,0.000,-16.602,-113.770,-109.863,0.000
1737562880.424,1.953,-4.395,-111.328,-63.477,0.000
1737562880.428,39.062,2.441,-95.215,22.949,0.000
1737562880.432,27.344,-4.883,-81.543,103.516,0.000
1737562880.436,-68.359,-14.160,-70.801,-44.434,0.000
1737562880.440,-120.117,-18.066,-75.195,-135.742,0.000
1737562880.444,-26.367,-26.367,-82.520,-30.762,0.000
1737562880.448,81.543,-14.160,-78.125,69.336,0.000
1737562880.452,73.730,9.277,-80.078,128.906,0.000
1737562880.455,-21.484,-7.812,-100.586,35.156,0.000
1737562880.459,-69.824,-16.602,-114.258,-84.473,0.000
1737562880.463,-7.812,-9.277,-100.098,-41.016,0.000
1737562880.467,7.324,-16.113,-64.941,50.293,0.000
1737562880.471,-29.297,-25.879,-58.594,24.414,0.000
1737562880.475,-56.152,-15.625,-79.590,-86.914,0.000
1737562880.479,-66.406,-13.184,-79.102,-131.836,0.000
1737562880.483,-14.648,-11.719,-78.125,-33.203,0.000
1737562880.487,21.484,5.371,-88.379,68.359,0.000
1737562880.491,15.137,-7.812,-98.633,86.914,0.000
1737562880.495,-44.922,-20.508,-104.492,17.578,0.000
1737562880.498,-93.750,-15.625,-84.473,-85.449,0.000
1737562880.502,-23.438,-12.207,-71.777,-49.805,0.000
1737562880.506,5.859,-25.391,-82.520,-7.812,0.000
1737562880.510,-57.129,-32.715,-77.637,-60.547,0.000
1737562880.514,-81.055,-15.625,-74.219,-46.387,0.000
1737562880.518,-90.820,-15.137,-73.242,-67.871,0.000
1737562880.522,-34.180,-5.859,-75.195,-47.852,0.000
1737562880.526,4.883,7.812,-76.172,36.133,0.000
1737562880.530,27.344,-6.348,-66.406,70.312,0.000
1737562880.534,9.766,-27.344,-64.453,39.551,0.000
1737562880.538,-41.504,-33.203,-62.012,-71.777,0.000
1737562880.541,-69.336,-23.438,-62.500,-134.766,0.000
1737562880.545,-40.039,-13.672,-59.570,-64.941,0.000
1737562880.549,-7.812,-10.742,-43.945,47.852,0.000
1737562880.553,-15.625,-19.531,-55.176,34.668,0.000
1737562880.557,-54.688,-11.230,-62.500,-69.336,0.000
1737562880.561,-60.059,2.441,-46.387,-90.332,0.000
1737562880.565,-21.973,-18.066,-42.480,-64.453,0.000
1737562880.569,-22.949,-29.297,-38.574,-16.113,0.000
1737562880.573,-27.344,-11.230,-29.297,49.805,0.000
1737562880.577,-70.312,-10.742,-32.227,-32.715,0.000
1737562880.581,-98.145,-22.461,-41.504,-127.441,0.000
1737562880.584,-19.531,-22.461,-43.945,-63.477,0.000
1737562880.588,13.672,-18.555,-50.293,42.969,0.000
1737562880.592,-14.648,-26.855,-48.340,85.449,0.000
1737562880.596,-80.566,-24.414,-29.785,-40.527,0.000
1737562880.600,-110.840,-19.043,-29.785,-161.621,0.000
1737562880.604,-61.523,-23.438,-47.363,-91.309,0.000
1737562880.608,-1.953,-19.531,-48.340,42.480,0.000
1737562880.612,-10.254,-13.184,-40.039,75.684,0.000
1737562880.616,-31.738,-4.883,-37.109,-0.977,0.000
1737562880.620,-47.363,-7.324,-56.152,-75.684,0.000
1737562880.623,-46.387,-17.090,-63.965,-62.500,0.000
1737562880.627,3.418,-22.461,-52.734,20.020,0.000
1737562880.631,-9.277,-24.902,-47.363,54.688,0.000
1737562880.635,-81.543,-20.508,-44.434,-41.992,0.000
1737562880.639,-88.379,-18.555,-47.852,-123.535,0.000
1737562880.643,-61.523,-24.902,-41.992,-47.363,0.000
1737562880.647,-18.555,-24.902,-39.062,25.391,0.000
1737562880.651,19.043,-11.719,-53.223,41.992,0.000
1737562880.655,-62.012,2.930,-62.988,6.836,0.000
1737562880.659,-104.980,5.371,-73.730,-80.078,0.000
1737562880.663,-46.875,-13.184,-79.590,-103.516,0.000
1737562880.666,-10.742,-30.762,-71.289,-41.504,0.000
1737562880.670,21.973,-19.043,-72.754,54.199,0.000
1737562880.674,27.344,-5.859,-82.520,41.992,0.000
1737562880.678,-11.719,-14.160,-84.961,-40.527,0.000
1737562880.682,-72.754,-16.113,-83.496,-89.844,0.000
1737562880.686,-47.363,4.883,-81.055,-38.086,0.000
1737562880.690,46.387,9.277,-99.121,44.434,0.000
1737562880.694,11.719,2.930,-104.980,13.672,0.000
1737562880.698,-76.172,-8.301,-95.703,-43.457,0.000
1737562880.702,-67.383,-14.648,-100.586,-63.477,0.000
1737562880.706,-29.297,-16.113,-106.934,0.000,0.000
1737562880.709,30.273,-30.762,-98.633,0.000,0.000
1737562880.713,13.672,-25.879,-87.891,0.000,0.000
1737562880.717,-53.711,-20.020,-85.449,0.000,0.000
1737562880.721,-68.359,-23.438,-81.543,0.000,0.000
1737562880.725,-14.160,-4.883,-81.055,0.000,0.000
1737562880.729,-25.391,0.977,-85.938,0.000,0.000
1737562880.733,-42.969,-6.836,-107.910,0.000,0.000
1737562880.737,-46.387,-19.043,-111.816,0.000,0.000
1737562880.741,-95.703,-31.738,-92.285,0.000,0.000
1737562880.745,-36.621,-26.367,-78.613,0.000,0.000
1737562880.748,11.719,-22.461,-80.566,0.000,0.000
1737562880.752,0.000,-19.043,-95.215,20.996,0.000
1737562880.756,0.000,-18.066,-106.934,-59.570,0.000
1737562880.760,0.000,-8.789,-109.863,-137.695,0.000
1737562880.764,0.000,0.977,-102.539,-65.918,0.000
1737562880.768,0.000,-10.742,-99.121,65.430,0.000
1737562880.772,0.000,-27.832,-113.770,72.266,0.000
1737562880.776,0.000,-32.715,-122.559,-12.695,0.000
1737562880.780,0.000,-27.344,-101.562,-92.285,0.000
1737562880.784,0.000,-28.320,-98.633,-105.957,0.000
1737562880.787,0.000,-25.391,-96.191,20.996,0.000
1737562880.791,0.000,-14.648,-88.379,91.797,0.000
1737562880.795,0.000,-13.184,-103.027,-35.645,0.000
1737562880.799,-30.762,-14.160,-99.609,-126.953,0.000
1737562880.803,-33.691,-11.230,-94.727,-73.730,0.000
1737562880.807,-37.109,-10.254,-98.633,40.039,0.000
1737562880.811,-34.180,-25.391,-93.750,138.672,0.000
1737562880.815,-80.078,-33.691,-85.449,30.762,0.000
1737562880.819,-57.617,-25.879,-77.148,-171.387,0.000
1737562880.823,-8.301,-28.320,-76.172,-121.582,0.000
1737562880.827,-15.137,-20.508,-70.801,38.086,0.000
1737562880.830,16.602,-3.906,-71.289,85.938,0.000
1737562880.834,-2.441,-3.906,-69.824,40.527,0.000
1737562880.838,-20.996,-4.883,-59.570,-58.105,0.000
1737562880.842,-11.719,-2.930,-74.219,-71.777,0.000
1737562880.846,-10.742,-0.488,-82.520,0.000,0.000
1737562880.850,-14.648,-12.207,-72.754,42.480,0.000
1737562880.854,-39.062,-25.391,-66.895,49.805,0.000
1737562880.858,-72.266,-14.648,-65.430,-41.992,0.000
1737562880.862,-53.711,-5.859,-69.824,-115.723,0.000
1737562880.866,18.066,-19.043,-79.590,-27.832,0.000
1737562880.870,33.691,-26.367,-80.078,63.477,0.000
1737562880.873,-0.977,-18.555,-69.336,28.809,0.000
1737562880.877,-70.312,-16.113,-71.289,-71.289,0.000
1737562880.881,-54.688,-11.719,-60.059,-72.266,0.000
1737562880.885,-46.387,-15.137,-46.387,-6.348,0.000
1737562880.889,-76.172,-18.066,-50.781,9.766,0.000
1737562880.893,-7.812,-9.766,-36.133,-0.977,0.000
1737562880.897,10.254,-9.277,-27.344,-48.828,0.000
1737562880.901,-65.918,-21.484,-38.086,-79.102,0.000
1737562880.905,-47.363,-27.344,-49.316,-1.953,0.000
1737562880.909,16.113,-15.137,-51.758,88.867,0.000
1737562880.913,0.977,0.977,-50.293,61.523,0.000
1737562880.916,-53.223,-2.441,-40.527,-79.590,0.000
1737562880.920,-73.730,-9.766,-18.066,-128.906,0.000
1737562880.924,-40.527,-10.254,-19.531,-17.578,0.000
1737562880.928,-8.301,-10.254,-44.434,64.453,0.000
1737562880.932,-3.906,-6.836,-41.992,65.918,0.000
1737562880.936,-56.152,-11.230,-41.504,-16.602,0.000
1737562880.940,-68.359,-25.391,-39.551,-115.723,0.000
1737562880.944,-24.414,-16.113,-22.461,-83.496,0.000
1737562880.948,16.113,-10.254,-20.996,56.152,0.000
1737562880.952,3.906,-13.672,-25.391,88.379,0.000
1737562880.955,-48.340,-8.301,-35.645,-14.160,0.000
1737562880.959,-62.988,-17.578,-36.133,-73.730,0.000
1737562880.963,-35.645,-16.602,-24.902,-84.473,0.000
1737562880.967,-10.254,-13.672,-39.062,-6.836,0.000
1737562880.971,28.809,-14.648,-51.270,91.309,0.000
1737562880.975,-24.414,-22.949,-50.293,16.113,0.000
1737562880.979,-106.934,-38.086,-45.898,-114.746,0.000
1737562880.983,-88.867,-25.391,-35.645,-82.520,0.000
1737562880.987,0.000,-14.160,-37.598,-12.207,0.000
1737562880.991,0.000,-12.207,-42.480,29.297,0.000
1737562880.995,0.000,-8.301,-50.293,6.348,0.000
1737562880.998,0.000,-13.184,-47.363,-63.477,0.000
1737562881.002,0.000,-15.137,-25.879,-83.984,0.000
1737562881.006,0.000,-12.695,-23.926,-25.879,0.000
1737562881.010,0.000,-27.344,-32.227,101.074,0.000
1737562881.014,0.000,-30.273,-25.879,43.945,0.000
1737562881.018,0.000,-6.348,-25.879,-110.840,0.000
1737562881.022,0.000,-0.488,-32.227,-112.793,0.000
1737562881.026,0.000,-3.418,-18.066,-66.895,0.000
1737562881.030,0.000,-3.418,-11.230,21.973,0.000
1737562881.034,-6.836,-10.742,-18.066,58.594,0.000
1737562881.038,-69.336,-14.648,-25.391,-48.340,0.000
1737562881.041,-68.359,-19.531,-34.668,-78.613,0.000
1737562881.045,-16.602,-24.414,-33.203,-52.246,0.000
1737562881.049,-27.344,-22.461,-21.484,-0.977,0.000
1737562881.053,-29.785,-16.602,-11.230,52.734,0.000
1737562881.057,-38.574,-26.855,-28.809,-40.527,0.000
1737562881.061,-68.848,-34.668,-34.668,-116.699,0.000
1737562881.065,-24.414,-15.137,-11.230,-47.363,0.000
1737562881.069,53.223,-3.418,-9.766,84.961,0.000
1737562881.073,30.762,-12.207,-17.090,72.266,0.000
1737562881.076,-55.664,-13.672,-13.672,-54.688,0.000
1737562881.080,-32.715,-2.930,-7.324,-91.309,0.000
1737562881.084,-31.250,-5.371,-0.488,-60.059,0.000
1737562881.088,-51.270,-27.832,0.977,24.902,0.000
1737562881.092,-14.648,-24.414,5.859,74.219,0.000
1737562881.096,-63.477,-5.859,3.418,-23.926,0.000
1737562881.100,-68.359,3.418,-6.348,-111.328,0.000
1737562881.104,2.930,-8.789,-14.160,-57.617,0.000
1737562881.108,47.363,-20.508,-19.043,30.762,0.000
1737562881.112,0.000,-16.113,-10.254,38.574,0.000
1737562881.116,-84.473,-25.879,-17.090,-67.871,0.000
1737562881.119,-113.770,-26.367,-18.066,-127.930,0.000
1737562881.123,-73.242,-20.020,-16.113,-77.148,0.000
1737562881.127,0.000,-23.438,0.000,15.137,0.000
1737562881.131,0.000,-15.137,0.000,58.105,0.000
1737562881.135,0.000,-16.602,0.000,-12.207,0.000
1737562881.139,0.000,-31.738,0.000,-120.605,0.000
1737562881.143,0.000,-20.020,0.000,-120.117,0.000
1737562881.147,0.000,-6.836,0.000,-7.324,0.000
1737562881.151,0.000,-4.395,0.000,61.523,0.000
1737562881.155,0.000,-9.277,0.000,22.949,0.000
1737562881.159,0.000,-20.020,0.000,-59.082,0.000
1737562881.162,0.000,-33.691,0.000,-87.402,0.000
1737562881.166,0.000,-37.109,0.000,-30.273,0.000
1737562881.170,0.000,-25.391,0.000,69.824,0.000
1737562881.174,22.949,-27.344,11.230,61.035,0.000
1737562881.178,-66.406,-23.438,8.301,-33.691,0.000
1737562881.182,-58.594,-6.348,-0.488,-89.844,0.000
1737562881.186,-71.777,-6.348,-8.789,-39.062,0.000
1737562881.190,-47.363,-9.277,-2.930,49.316,0.000
1737562881.194,8.301,-5.371,0.000,3.906,0.000
1737562881.198,-37.109,-1.953,-9.277,-83.008,0.000
1737562881.202,0.000,-7.812,-12.695,-82.031,0.000
1737562881.205,-9.277,-26.367,-8.301,-22.461,0.000
1737562881.209,-35.156,-26.855,-3.418,70.312,0.000
1737562881.213,-29.297,-16.113,-7.812,69.824,0.000
1737562881.217,-48.828,-11.719,-12.695,-26.367,0.000
1737562881.221,-89.355,-3.418,-7.324,-104.004,0.000
1737562881.225,-83.008,-0.488,3.418,-71.289,0.000
1737562881.229,-21.484,-8.789,5.859,33.203,0.000
1737562881.233,21.973,-6.836,-7.324,64.453,0.000
1737562881.237,24.902,0.000,-27.344,0.000,0.000
1737562881.241,-8.301,-10.254,-23.926,-95.703,0.000
1737562881.244,-18.066,-20.020,0.488,-42.480,0.000
1737562881.248,15.625,-12.207,26.367,103.027,0.000
1737562881.252,13.184,-15.137,20.508,112.793,0.000
1737562881.256,-64.453,-24.902,2.441,-18.066,0.000
1737562881.260,-72.754,-20.996,-11.230,-102.051,0.000
1737562881.264,-14.160,-17.090,-17.578,0.977,0.000
1737562881.268,-31.738,-30.273,-4.395,98.633,0.000
1737562881.272,-14.160,-30.762,11.719,76.172,0.000
1737562881.276,6.836,-13.672,6.836,-23.438,0.000
1737562881.280,-63.477,-13.184,-20.508,-114.746,0.000
1737562881.284,-35.645,-11.719,-28.809,-80.566,0.000
1737562881.287,14.648,-10.742,-16.602,-44.922,0.000
1737562881.291,12.695,-16.113,0.000,54.199,0.000
1737562881.295,-25.391,-20.020,13.184,72.266,0.000
1737562881.299,-49.316,-22.949,-2.930,-62.988,0.000
1737562881.303,-92.285,-25.391,-21.484,-42.480,0.000
1737562881.307,-65.430,-15.137,-13.672,31.738,0.000
1737562881.311,10.742,-10.254,-9.766,58.105,0.000
1737562881.315,-12.207,-10.742,-5.371,26.367,0.000
1737562881.319,-80.078,-15.137,-24.902,-70.801,0.000
1737562881.323,-46.387,-13.672,-41.992,-93.262,0.000
1737562881.327,12.695,-17.578,-22.461,-48.340,0.000
1737562881.330,-10.254,-24.902,-9.277,58.594,0.000
1737562881.334,-38.574,-22.461,-15.137,63.965,0.000
1737562881.338,-100.586,-23.438,-11.230,-90.820,0.000
1737562881.342,-53.711,-30.273,-19.043,-126.465,0.000
1737562881.346,-17.578,-36.621,-36.621,-6.836,0.000
1737562881.350,-74.219,-36.133,-19.531,63.477,0.000
1737562881.354,-3.906,-24.902,-18.066,34.668,0.000
1737562881.358,4.395,-26.855,-24.902,-32.715,0.000
1737562881.362,-53.711,-22.949,-13.184,-60.059,0.000
1737562881.366,-23.926,-10.742,-13.184,-39.062,0.000
1737562881.370,35.645,-10.254,-14.160,75.684,0.000
1737562881.373,-25.391,-10.742,-12.207,59.082,0.000
1737562881.377,-74.219,-13.672,-17.578,-112.305,0.000
1737562881.381,-85.449,-11.230,-12.207,-122.070,0.000
1737562881.385,-67.871,-15.137,-4.883,-24.902,0.000
1737562881.389,3.906,-26.855,-15.625,44.434,0.000
1737562881.393,30.762,-25.879,-28.320,75.195,0.000
1737562881.397,-17.578,-13.672,-13.184,-0.977,0.000
1737562881.401,-22.949,-11.230,-2.441,-69.336,0.000
1737562881.405,-28.809,-12.695,-4.883,-11.719,0.000
1737562881.409,0.000,-29.297,0.000,34.668,0.000
1737562881.412,0.000,-40.527,0.000,47.363,0.000
1737562881.416,0.000,-20.996,0.000,-43.945,0.000
1737562881.420,0.000,-15.625,0.000,-121.582,0.000
1737562881.424,0.000,-20.020,0.000,-41.504,0.000
1737562881.428,0.000,-11.719,0.000,49.805,0.000
1737562881.432,0.000,-10.254,0.000,50.781,0.000
1737562881.436,0.000,-33.203,0.000,-5.371,0.000
1737562881.440,0.000,-46.875,0.000,-55.176,0.000
1737562881.444,0.000,-27.344,0.000,-41.992,0.000
1737562881.448,0.000,-8.789,0.000,8.789,0.000
1737562881.451,0.000,-11.719,0.000,25.391,0.000
1737562881.455,-49.805,-9.766,-1.465,0.000,0.000
1737562881.459,-16.602,-19.531,11.719,0.000,0.000
1737562881.463,-25.879,-39.551,20.996,0.000,0.000
1737562881.467,-50.781,-35.645,6.348,0.000,0.000
1737562881.471,-67.383,-23.926,-4.883,0.000,0.000
1737562881.475,-2.930,-16.113,0.977,0.000,0.000
1737562881.479,11.230,-12.695,6.836,0.000,0.000
1737562881.483,-83.984,-26.367,-0.488,0.000,0.000
1737562881.487,-111.328,-26.367,-2.930,0.000,0.000
1737562881.491,-59.082,-19.043,1.465,0.000,0.000
1737562881.494,-21.484,-28.809,-2.441,0.000,0.000
1737562881.498,0.000,-36.133,-7.324,0.000,0.000
1737562881.502,-53.711,-15.137,12.207,-79.590,0.000
1737562881.506,-3.906,5.859,27.832,-39.062,0.000
1737562881.510,-0.488,3.418,24.902,27.344,0.000
1737562881.514,-34.180,-3.906,8.789,4.395,0.000
1737562881.518,-41.016,-15.625,11.230,-77.148,0.000
1737562881.522,-74.707,-15.137,30.762,-91.797,0.000
1737562881.526,-53.711,-9.277,42.480,-33.203,0.000
1737562881.530,46.875,-13.184,38.574,22.461,0.000
1737562881.534,14.648,-20.996,28.809,35.645,0.000
1737562881.537,-74.707,-21.973,29.785,-56.641,0.000
1737562881.541,-59.570,-12.207,30.273,-62.012,0.000
1737562881.545,8.789,2.441,28.809,-17.090,0.000
1737562881.549,6.348,-4.395,18.555,-2.930,0.000
1737562881.553,-20.508,-11.719,20.020,34.668,0.000
1737562881.557,-51.270,-11.719,36.621,-41.504,0.000
1737562881.561,-32.227,-17.090,47.363,-99.121,0.000
1737562881.565,9.277,-13.184,51.758,-52.734,0.000
1737562881.569,27.344,-0.488,42.969,39.551,0.000
1737562881.573,2.930,-3.906,36.621,74.219,0.000
1737562881.576,-35.645,-19.531,31.738,-29.785,0.000
1737562881.580,-77.148,-23.438,15.137,-127.930,0.000
1737562881.584,-60.547,-18.555,22.949,-58.594,0.000
1737562881.588,-19.531,-16.602,49.805,28.809,0.000
1737562881.592,-6.348,-17.090,44.434,38.086,0.000
1737562881.596,-7.324,-9.766,35.156,-40.527,0.000
1737562881.600,-41.504,-10.742,34.668,-69.824,0.000
1737562881.604,-33.203,-15.625,32.715,-32.715,0.000
1737562881.608,1.465,-18.066,27.344,6.348,0.000
1737562881.612,34.668,-13.672,27.344,66.895,0.000
1737562881.616,-29.785,-13.672,29.297,-3.418,0.000
1737562881.619,-104.980,-26.367,20.508,-118.164,0.000
1737562881.623,-94.727,-33.691,7.812,-79.590,0.000
1737562881.627,-48.340,-21.484,13.184,25.879,0.000
1737562881.631,22.949,-12.695,18.066,81.055,0.000
1737562881.635,-9.277,-21.484,16.113,2.930,0.000
1737562881.639,-99.609,-21.973,19.043,-151.855,0.000
1737562881.643,-76.660,-25.391,19.043,-150.879,0.000
1737562881.647,28.320,-31.738,18.066,33.691,0.000
1737562881.651,28.809,-17.090,16.602,47.852,0.000
1737562881.655,-51.758,-19.043,11.719,-43.945,0.000
1737562881.659,-104.004,-38.086,7.324,-66.895,0.000
1737562881.662,-56.152,-33.203,19.043,-67.871,0.000
1737562881.666,5.859,-14.160,30.273,2.441,0.000
1737562881.670,-2.930,-10.254,25.391,99.121,0.000
1737562881.674,-10.742,-13.672,15.137,27.832,0.000
1737562881.678,-63.477,-16.602,10.254,-88.379,0.000
1737562881.682,-66.406,-20.996,6.348,-61.035,0.000
1737562881.686,-23.438,-26.367,4.395,-20.996,0.000
1737562881.690,-18.555,-24.414,4.883,-12.207,0.000
1737562881.694,-18.555,-15.625,14.160,9.277,0.000
1737562881.698,-34.180,-18.555,23.438,-20.020,0.000
1737562881.701,-74.707,-27.832,24.902,-48.828,0.000
1737562881.705,-31.250,-30.273,16.602,-41.992,0.000
1737562881.709,-4.395,-23.926,16.113,-9.766,0.000
1737562881.713,-26.855,-17.090,22.461,47.363,0.000
1737562881.717,-101.074,-16.113,13.672,-12.207,0.000
1737562881.721,-103.027,-29.785,-1.465,-59.570,0.000
1737562881.725,-31.738,-36.133,1.465,-4.883,0.000
1737562881.729,17.578,-16.602,15.625,63.477,0.000
1737562881.733,16.113,-7.324,20.020,76.660,0.000
1737562881.737,-22.461,-23.438,5.859,-9.277,0.000
1737562881.741,-45.898,-25.391,3.418,-113.770,0.000
1737562881.744,-67.383,-24.414,14.648,-99.609,0.000
1737562881.748,-72.266,-27.344,4.883,-14.648,0.000
1737562881.752,19.531,-17.090,13.184,52.246,0.000
1737562881.756,17.090,-5.371,23.438,16.113,0.000
1737562881.760,-56.641,-3.418,11.230,-67.383,0.000
1737562881.764,-24.902,-7.324,7.324,-51.758,0.000
1737562881.768,6.836,-7.812,2.930,42.480,0.000
1737562881.772,-58.105,-20.020,14.648,29.785,0.000
1737562881.776,-94.238,-32.715,25.391,-50.781,0.000
1737562881.780,-53.711,-25.879,17.090,-56.152,0.000
1737562881.784,0.000,-12.207,6.348,-48.828,0.000
1737562881.787,0.000,-3.418,6.836,25.391,0.000
1737562881.791,0.000,-6.348,9.277,98.145,0.000
1737562881.795,0.000,-5.371,10.742,11.230,0.000
1737562881.799,0.000,-18.555,5.371,-125.000,0.000
1737562881.803,0.000,-27.832,-0.977,-98.633,0.000
1737562881.807,0.000,-16.602,3.906,38.086,0.000
1737562881.811,0.000,-28.320,6.836,81.055,0.000
1737562881.815,0.000,-25.879,6.348,23.438,0.000
1737562881.819,0.000,-9.766,0.000,-68.848,0.000
1737562881.823,0.000,-6.836,4.395,-91.797,0.000
1737562881.826,0.000,-14.160,9.766,-30.762,0.000
1737562881.830,-14.648,-26.855,4.395,43.457,0.000
1737562881.834,-33.691,-23.926,-3.906,13.672,0.000
1737562881.838,-29.785,-14.160,-11.719,-72.754,0.000
1737562881.842,-37.109,-20.996,-15.625,-94.238,0.000
1737562881.846,-11.719,-35.156,1.953,-43.945,0.000
1737562881.850,4.883,-22.461,20.508,35.156,0.000
1737562881.854,-18.066,-16.113,10.742,46.387,0.000
1737562881.858,-36.133,-16.602,0.488,-26.855,0.000
1737562881.862,-27.832,-10.254,2.441,-71.777,0.000
1737562881.865,-17.578,-22.461,4.883,-47.363,0.000
1737562881.869,25.879,-29.297,-1.465,17.090,0.000
1737562881.873,25.391,-27.344,-5.859,54.688,0.000
1737562881.877,0.000,-27.832,-23.926,-20.508,0.000
1737562881.881,0.000,-20.020,-37.109,-61.523,0.000
1737562881.885,0.000,-23.438,-22.461,-38.086,0.000
1737562881.889,0.000,-25.391,-8.789,-0.488,0.000
1737562881.893,0.000,-22.461,-0.977,14.160,0.000
1737562881.897,0.000,-15.625,4.883,-59.082,0.000
1737562881.901,0.000,-3.906,-6.348,-121.094,0.000
1737562881.905,0.000,-14.160,-10.254,-52.246,0.000
1737562881.908,0.000,-23.438,-2.441,40.039,0.000
1737562881.912,0.000,-20.996,5.371,62.500,0.000
1737562881.916,0.000,-19.531,24.414,-25.391,0.000
1737562881.920,0.000,-19.043,7.812,-111.328,0.000
1737562881.924,-41.504,-4.395,20.508,-56.152,0.000
1737562881.928,11.719,6.348,107.910,39.551,0.000
1737562881.932,5.859,-1.953,52.246,55.176,0.000
1737562881.936,-76.660,-2.930,52.734,-117.676,0.000
1737562881.940,-100.098,-3.418,222.168,-244.629,0.000
1737562881.944,-56.152,96.680,133.301,-181.641,0.000
1737562881.948,-21.973,145.996,-83.984,-115.234,0.000
1737562881.951,-74.707,-36.133,-104.492,-134.766,0.000
1737562881.955,-232.422,-90.332,-35.156,-308.594,0.000
1737562881.959,-278.320,22.949,104.492,-410.645,0.000
1737562881.963,-174.316,110.352,99.121,-345.703,0.000
1737562881.967,-183.105,11.230,61.523,-354.004,0.000
1737562881.971,-189.941,-66.406,221.680,-387.207,0.000
1737562881.975,-161.621,20.996,474.121,-355.469,0.000
1737562881.979,-229.004,46.875,816.895,-451.172,0.000
1737562881.983,-204.590,56.152,981.445,-563.965,0.000
1737562881.987,-128.906,94.727,961.914,-525.879,0.000
1737562881.991,-100.586,90.332,969.727,-462.402,0.000
1737562881.994,-150.879,112.305,971.680,-477.539,0.000
1737562881.998,-199.219,145.020,970.703,-535.645,0.000
1737562882.002,-213.379,167.969,970.703,-606.445,0.000
1737562882.006,-189.453,218.262,970.703,-572.266,0.000
1737562882.010,-154.785,259.766,970.703,-449.707,0.000
1737562882.014,-242.188,278.320,970.703,-390.625,0.000
1737562882.018,-249.023,318.848,970.703,-458.496,0.000
1737562882.022,-256.348,352.539,970.703,-442.383,0.000
1737562882.026,-267.090,351.074,970.703,-235.840,0.000
1737562882.030,-188.965,347.168,970.703,-75.684,0.000
1737562882.034,-194.336,348.145,970.703,-27.344,0.000
1737562882.037,-219.727,342.773,970.703,-37.598,0.000
1737562882.041,-238.281,328.613,970.703,-103.027,0.000
1737562882.045,-156.250,321.777,970.703,-13.184,0.000
1737562882.049,-101.074,303.711,970.703,166.016,0.000
1737562882.053,-185.059,279.297,970.703,196.289,0.000
1737562882.057,-194.336,276.367,970.703,152.344,0.000
1737562882.061,-143.066,280.762,970.703,110.352,0.000
1737562882.065,-127.930,290.039,970.703,151.855,0.000
1737562882.069,-97.168,293.945,970.703,246.094,0.000
1737562882.073,-53.711,297.852,970.703,304.199,0.000
1737562882.076,-9.277,302.734,970.703,291.504,0.000
1737562882.080,20.020,308.594,970.703,230.469,0.000
1737562882.084,41.016,316.895,970.215,261.719,0.000
1737562882.088,17.090,289.062,967.285,342.773,0.000
1737562882.092,4.883,270.020,976.074,344.727,0.000
1737562882.096,-19.531,272.461,924.316,237.793,0.000
1737562882.100,-37.109,261.719,829.590,183.594,0.000
1737562882.104,26.855,243.164,771.973,171.875,0.000
1737562882.108,47.363,227.051,700.684,221.191,0.000
1737562882.112,62.500,230.957,632.812,335.449,0.000
1737562882.116,58.105,228.027,562.988,266.602,0.000
1737562882.119,-8.789,207.031,484.863,166.992,0.000
1737562882.123,-10.742,183.105,422.363,167.480,0.000
1737562882.127,45.898,164.551,379.395,224.609,0.000
1737562882.131,84.473,157.715,355.957,283.691,0.000
1737562882.135,70.801,145.020,314.941,193.359,0.000
1737562882.139,14.648,131.348,266.602,105.957,0.000
1737562882.143,7.812,131.348,221.191,82.520,0.000
1737562882.147,37.109,127.441,199.219,113.281,0.000
1737562882.151,85.449,121.582,200.195,203.613,0.000
1737562882.155,64.453,115.723,166.992,200.684,0.000
1737562882.159,35.156,103.027,122.070,123.535,0.000
1737562882.162,42.969,102.539,113.281,87.402,0.000
1737562882.166,117.188,94.727,133.301,98.145,0.000
1737562882.170,98.145,69.824,112.305,135.254,0.000
1737562882.174,28.809,60.547,74.219,158.691,0.000
1737562882.178,13.672,64.453,62.012,71.777,0.000
1737562882.182,-14.648,55.176,42.969,3.418,0.000
1737562882.186,20.996,41.992,37.109,24.414,0.000
1737562882.190,50.293,40.039,37.109,121.582,0.000
1737562882.194,64.941,42.480,27.832,154.785,0.000
1737562882.197,-4.883,33.203,17.090,19.531,0.000
1737562882.201,-8.301,27.832,1.465,-38.086,0.000
1737562882.205,62.012,30.762,-17.578,29.297,0.000
1737562882.209,47.363,29.297,-24.902,96.680,0.000
1737562882.213,65.430,20.020,-19.043,100.098,0.000
1737562882.217,11.719,7.324,-9.766,31.250,0.000
1737562882.221,-50.781,-0.488,-1.953,24.414,0.000
1737562882.225,0.000,-2.930,-13.184,-9.766,0.000
1737562882.229,119.141,0.977,-38.574,24.902,0.000
1737562882.233,108.887,1.953,-40.039,124.512,0.000
1737562882.237,-8.301,0.488,-30.762,32.227,0.000
1737562882.240,-23.438,-3.906,-31.738,-75.195,0.000
1737562882.244,-3.906,-12.207,-23.926,-20.996,0.000
1737562882.248,-17.578,-17.090,-17.090,75.684,0.000
1737562882.252,8.789,-21.973,-33.203,106.934,0.000
1737562882.256,24.414,-27.344,-48.340,38.574,0.000
1737562882.260,-27.832,-27.832,-53.711,-108.887,0.000
1737562882.264,-11.230,-18.555,-44.922,-76.660,0.000
1737562882.268,49.316,-18.066,-32.715,78.125,0.000
1737562882.272,55.664,-16.602,-39.551,121.582,0.000
1737562882.276,-11.719,-17.090,-41.992,6.836,0.000
1737562882.280,-40.039,-20.508,-45.898,-84.961,0.000
1737562882.283,2.930,-20.996,-51.270,-55.176,0.000
1737562882.287,-3.418,-30.273,-62.012,3.906,0.000
1737562882.291,9.277,-31.738,-61.523,73.730,0.000
1737562882.295,29.297,-26.855,-59.570,40.527,0.000
1737562882.299,-25.391,-40.039,-59.570,-81.543,0.000
1737562882.303,0.000,-40.039,-51.270,-83.984,0.000
1737562882.307,19.043,-32.227,-36.621,6.836,0.000
1737562882.311,-31.738,-42.480,-43.945,43.457,0.000
1737562882.315,-27.832,-35.645,-58.594,0.488,0.000
1737562882.319,-43.457,-33.203,-62.012,-108.887,0.000
1737562882.323,-47.363,-50.293,-61.523,-163.086,0.000
1737562882.326,8.789,-45.410,-49.805,-69.824,0.000
1737562882.330,0.977,-33.691,-56.152,70.801,0.000
1737562882.334,-47.852,-34.180,-75.195,89.355,0.000
1737562882.338,-36.621,-35.645,-70.312,-78.125,0.000
1737562882.342,-15.137,-49.805,-59.082,-156.738,0.000
1737562882.346,-19.043,-51.270,-45.410,-55.176,0.000
1737562882.350,19.531,-33.691,-26.855,52.734,0.000
1737562882.354,20.996,-29.785,-41.016,41.504,0.000
1737562882.358,-74.219,-40.039,-66.406,-92.773,0.000
1737562882.362,-91.309,-45.898,-59.082,-103.516,0.000
1737562882.366,22.461,-29.297,-35.645,-27.832,0.000
1737562882.369,48.340,-25.879,-27.344,27.832,0.000
1737562882.373,20.996,-45.410,-37.598,52.246,0.000
1737562882.377,-34.668,-50.293,-46.387,-16.602,0.000
1737562882.381,-65.430,-40.039,-37.598,-93.750,0.000
1737562882.385,-4.395,-31.250,-27.832,-80.078,0.000
1737562882.389,12.207,-27.832,-23.926,34.180,0.000
1737562882.393,12.207,-28.809,-23.926,85.938,0.000
1737562882.397,-2.930,-35.645,-35.156,-15.625,0.000
1737562882.401,-33.691,-30.273,-45.898,-108.887,0.000
1737562882.405,-35.156,-28.320,-49.805,-77.637,0.000
1737562882.408,0.000,-36.133,-55.176,16.602,0.000
1737562882.412,40.527,-24.414,-40.039,43.457,0.000
1737562882.416,-29.297,-23.438,-25.391,-21.973,0.000
1737562882.420,-107.422,-32.227,-32.715,-87.402,0.000
1737562882.424,-23.926,-31.250,-32.715,-67.383,0.000
1737562882.428,26.855,-35.156,-32.715,3.906,0.000
1737562882.432,-6.836,-35.645,-35.645,25.879,0.000
1737562882.436,-29.297,-24.902,-38.086,-24.902,0.000
1737562882.440,-23.926,-18.066,-37.598,-64.941,0.000
1737562882.444,-14.160,-19.531,-50.781,-49.316,0.000
1737562882.448,6.348,-19.531,-71.289,38.574,0.000
1737562882.451,41.016,-21.484,-51.270,59.082,0.000
1737562882.455,-47.363,-27.344,-22.949,-61.035,0.000
1737562882.459,-77.148,-25.391,-13.672,-129.883,0.000
1737562882.463,-22.949,-20.020,-25.879,-110.352,0.000
1737562882.467,-13.184,-18.066,-43.945,-7.812,0.000
1737562882.471,32.715,-23.926,-40.039,93.750,0.000
1737562882.475,11.719,-17.578,-36.133,33.203,0.000
1737562882.479,-57.617,-12.207,-27.344,-74.707,0.000
1737562882.483,-3.906,-17.578,-23.438,-93.262,0.000
1737562882.487,0.000,-19.043,-26.367,-15.625,0.000
1737562882.491,0.000,-29.785,-27.832,48.340,0.000
1737562882.494,0.000,-32.227,-29.785,-35.645,0.000
1737562882.498,0.000,-24.414,-31.738,-129.395,0.000
1737562882.502,0.000,-32.715,-32.227,-69.824,0.000
1737562882.506,0.000,-23.926,-28.809,38.574,0.000
1737562882.510,0.000,-9.766,-39.062,77.637,0.000
1737562882.514,0.000,-17.578,-49.805,38.086,0.000
1737562882.518,0.000,-19.043,-32.227,-50.293,0.000
1737562882.522,0.000,-18.066,-9.277,-55.664,0.000
1737562882.526,0.000,-17.090,-11.719,-37.109,0.000
1737562882.530,0.000,-11.719,-21.973,1.465,0.000
1737562882.534,-34.180,-9.766,-33.691,0.977,0.000
1737562882.537,-109.375,-12.207,-38.574,-62.988,0.000
1737562882.541,-62.012,-8.301,-26.367,-61.523,0.000
1737562882.545,46.387,6.836,-30.273,-17.090,0.000
1737562882.549,54.688,12.695,-27.832,10.742,0.000
1737562882.553,15.137,1.953,-9.277,63.477,0.000
1737562882.557,-64.941,-9.277,-21.973,0.977,0.000
1737562882.561,-46.875,-8.301,-35.156,-94.727,0.000
1737562882.565,-10.254,-11.230,-34.180,-64.941,0.000
1737562882.569,12.695,-15.137,-30.273,27.344,0.000
1737562882.573,29.785,-3.906,-11.719,70.312,0.000
1737562882.576,-44.922,-4.395,-5.371,-30.762,0.000
1737562882.580,-95.703,-13.672,-10.742,-105.469,0.000
1737562882.584,-28.809,-9.766,-14.160,-35.645,0.000
1737562882.588,17.578,-1.953,-16.113,33.203,0.000
1737562882.592,48.340,-9.766,-25.391,77.148,0.000
1737562882.596,-33.203,-17.578,-45.410,-77.148,0.000
1737562882.600,-106.445,-18.066,-41.992,-180.176,0.000
1737562882.604,-63.965,-8.789,-21.973,-69.336,0.000
1737562882.608,-4.883,-6.348,-18.066,38.574,0.000
1737562882.612,5.859,-18.066,-16.113,86.426,0.000
1737562882.615,-52.734,-19.043,-2.441,24.414,0.000
1737562882.619,-52.734,-12.695,-6.348,-70.312,0.000
1737562882.623,-53.711,-13.184,-29.785,-103.027,0.000
1737562882.627,4.395,-18.066,0.000,-28.809,0.000
1737562882.631,46.875,-18.555,0.000,82.520,0.000
1737562882.635,-76.172,-9.277,0.000,48.828,0.000
1737562882.639,-78.613,4.395,0.000,-68.359,0.000
1737562882.643,-40.527,0.000,0.000,-126.465,0.000
1737562882.647,-61.035,-4.883,0.000,-91.797,0.000
1737562882.651,-4.395,0.977,0.000,42.969,0.000
1737562882.655,-11.719,-3.418,0.000,55.176,0.000
1737562882.658,-58.594,-10.742,0.000,-20.020,0.000
1737562882.662,-38.086,-11.230,0.000,-36.621,0.000
1737562882.666,-15.625,-13.184,0.000,-17.090,0.000
1737562882.670,18.555,-7.812,0.000,80.078,0.000
1737562882.674,-12.207,-3.418,-16.602,74.219,0.000
1737562882.678,-54.688,-8.301,-27.344,-96.191,0.000
1737562882.682,-9.277,-8.301,-35.156,-138.184,0.000
1737562882.686,6.348,-10.742,-50.781,-39.551,0.000
1737562882.690,-16.113,-12.207,-38.086,48.340,0.000
1737562882.694,-35.156,-6.836,-10.254,37.109,0.000
1737562882.698,-67.871,-11.719,-2.930,-66.406,0.000
1737562882.701,-30.273,-18.555,-16.602,-115.234,0.000
1737562882.705,-2.930,-6.836,-34.180,-37.598,0.000
1737562882.709,-41.992,-4.883,-41.992,51.270,0.000
1737562882.713,-25.391,-19.531,-39.551,72.754,0.000
1737562882.717,-24.414,-20.508,-31.250,-27.832,0.000
1737562882.721,-67.383,-10.254,-22.949,-144.531,0.000
1737562882.725,-24.902,-8.301,-24.902,-64.453,0.000
1737562882.729,16.602,-14.648,-36.621,87.891,0.000
1737562882.733,-13.672,-28.320,-24.902,72.754,0.000
1737562882.737,-47.852,-30.273,-15.137,-56.152,0.000
1737562882.741,-60.547,-17.090,-21.973,-95.703,0.000
1737562882.744,-70.312,-11.230,-28.809,-58.594,0.000
1737562882.748,-21.973,-9.766,-27.832,10.254,0.000
1737562882.752,29.297,-10.742,-37.598,30.273,0.000
1737562882.756,-55.176,-18.066,-60.059,-22.949,0.000
1737562882.760,-62.012,-21.484,-52.734,-53.711,0.000
1737562882.764,20.996,-31.738,-28.320,-38.086,0.000
1737562882.768,0.488,-32.715,-16.602,31.738,0.000
1737562882.772,-53.711,-16.602,-7.324,93.750,0.000
1737562882.776,-43.945,-12.207,-10.254,-1.465,0.000
1737562882.780,-49.316,-14.648,-19.531,-125.488,0.000
1737562882.783,-56.641,-23.926,-24.902,-131.348,0.000
1737562882.787,-40.527,-27.344,-34.668,-28.809,0.000
1737562882.791,5.371,-23.926,-35.645,87.402,0.000
1737562882.795,-29.785,-26.367,-38.086,41.992,0.000
1737562882.799,-53.711,-20.996,-26.367,-53.223,0.000
1737562882.803,-7.812,-14.160,-24.414,-72.754,0.000
1737562882.807,-15.625,-18.555,-30.762,-26.367,0.000
1737562882.811,-15.625,-22.461,-24.902,76.660,0.000
1737562882.815,-25.391,-21.973,-25.391,63.965,0.000
1737562882.819,-54.688,-17.090,-24.902,-53.711,0.000
1737562882.823,-71.289,-18.555,-20.996,-94.238,0.000
1737562882.826,-70.801,-16.602,-20.508,-27.832,0.000
1737562882.830,-19.043,-8.789,-23.926,49.805,0.000
1737562882.834,19.531,-4.883,-17.090,30.273,0.000
1737562882.838,-30.273,-5.859,-23.926,-87.891,0.000
1737562882.842,-76.172,-18.555,-38.086,-121.094,0.000
1737562882.846,-72.754,-26.855,-33.203,-15.625,0.000
1737562882.850,-57.129,-20.020,-24.902,33.691,0.000
1737562882.854,3.418,-18.066,-25.879,42.480,0.000
1737562882.858,-12.207,-19.043,-28.809,-27.832,0.000
1737562882.862,-39.062,-12.207,-33.203,-94.727,0.000
1737562882.866,-21.973,-13.184,-27.832,-50.293,0.000
1737562882.869,23.438,-18.066,-24.414,31.250,0.000
1737562882.873,22.949,-24.902,-33.203,61.523,0.000
1737562882.877,-36.133,-26.367,-34.180,-11.230,0.000
1737562882.881,-52.734,-21.973,-26.367,-70.801,0.000
1737562882.885,-21.973,-24.414,-22.949,-14.160,0.000
1737562882.889,-62.988,-25.879,-22.461,51.270,0.000
1737562882.893,-7.324,-14.160,-28.320,74.707,0.000
1737562882.897,-35.645,-14.160,-38.086,9.277,0.000
1737562882.901,-107.422,-19.531,-39.551,-151.855,0.000
1737562882.905,-22.461,-14.160,-39.551,-104.980,0.000
1737562882.909,0.000,-11.230,0.000,57.617,0.000
1737562882.912,6.836,-17.578,0.000,82.031,0.000
1737562882.916,-32.227,-27.344,0.000,-24.902,0.000
1737562882.920,-59.570,-31.738,0.000,-134.766,0.000
1737562882.924,-8.301,-33.691,0.000,-69.824,0.000
1737562882.928,-10.742,-29.297,0.000,40.527,0.000
1737562882.932,12.695,-26.367,0.000,134.766,0.000
1737562882.936,5.371,-25.391,0.000,35.156,0.000
1737562882.940,-80.078,-15.625,0.000,-129.395,0.000
1737562882.944,-76.172,-17.578,0.000,-110.840,0.000
1737562882.948,-17.090,-16.602,0.000,9.277,0.000
1737562882.951,-6.348,-9.766,0.000,75.684,0.000
1737562882.955,-28.809,-14.648,-42.969,0.000,0.000
1737562882.959,-26.855,-17.578,-41.504,0.000,0.000
1737562882.963,-60.547,-20.996,-27.832,0.000,0.000
1737562882.967,-65.918,-21.973,-17.090,0.000,0.000
1737562882.971,9.277,-15.625,-13.184,0.000,0.000
1737562882.975,2.930,-17.090,-18.555,0.000,0.000
1737562882.979,-50.293,-19.531,-25.879,0.000,0.000
1737562882.983,-46.387,-26.855,-29.785,0.000,0.000
1737562882.987,-15.625,-33.203,-27.344,0.000,0.000
1737562882.990,6.348,-28.809,-38.086,0.000,0.000
1737562882.994,-4.395,-26.367,-43.945,0.000,0.000
1737562882.998,-50.293,-24.414,-33.691,0.000,0.000
1737562883.002,-55.664,-15.137,-49.805,-118.652,0.000
1737562883.006,-39.062,-11.230,-38.574,-27.344,0.000
1737562883.010,-21.973,-23.926,-18.555,60.547,0.000
1737562883.014,-24.902,-21.973,-10.742,45.898,0.000
1737562883.018,-65.918,-16.602,-10.254,-26.855,0.000
1737562883.022,-40.039,-18.066,-6.348,-79.590,0.000
1737562883.026,-41.992,-11.719,-28.809,-81.055,0.000
1737562883.030,-0.488,-15.625,-36.133,-18.066,0.000
1737562883.033,20.020,-19.531,-23.926,2.441,0.000
1737562883.037,-34.180,-26.855,-24.902,-46.387,0.000
1737562883.041,-52.734,-29.297,-22.461,-73.242,0.000
1737562883.045,-44.922,-26.367,-24.902,-7.812,0.000
1737562883.049,-35.645,-29.785,-31.738,45.898,0.000
1737562883.053,-34.668,-33.691,-32.715,41.504,0.000
1737562883.057,-65.918,-39.062,-32.227,-55.664,0.000
1737562883.061,-101.562,-39.551,-34.668,-142.090,0.000
1737562883.065,-20.508,-12.695,23.926,-73.730,0.000
1737562883.069,2.441,-16.113,25.391,33.203,0.000
1737562883.072,-1.953,20.020,46.387,27.344,0.000
1737562883.076,-18.066,62.988,128.418,-143.555,0.000
1737562883.080,-50.781,104.492,117.676,-182.617,0.000
1737562883.084,-68.359,81.543,85.938,-138.184,0.000
1737562883.088,-67.383,40.039,-50.781,-151.855,0.000
1737562883.092,-82.031,64.453,-187.988,-182.129,0.000
1737562883.096,-216.797,-74.219,-130.859,-387.207,0.000
1737562883.100,-315.430,-116.699,-23.926,-564.453,0.000
1737562883.104,-264.160,-0.977,33.691,-550.293,0.000
1737562883.108,-208.496,56.641,-31.250,-543.945,0.000
1737562883.112,-175.293,51.758,-81.543,-555.664,0.000
1737562883.115,-156.738,91.797,34.668,-645.508,0.000
1737562883.119,-143.066,605.957,169.922,-811.035,0.000
1737562883.123,-175.293,999.512,254.883,-908.691,0.000
1737562883.127,-101.074,953.613,288.574,-915.527,0.000
1737562883.131,-24.902,966.797,403.320,-955.566,0.000
1737562883.135,-125.488,972.168,481.445,-1000.000,0.000
1737562883.139,-176.270,970.703,454.102,-998.535,0.000
1737562883.143,-159.180,970.703,485.352,-1000.000,0.000
1737562883.147,-198.242,970.703,598.633,-1000.000,0.000
1737562883.151,-209.961,970.703,702.637,-1000.000,0.000
1737562883.155,-185.059,970.703,766.113,-1000.000,0.000
1737562883.158,-277.344,971.191,840.332,-986.816,0.000
1737562883.162,-264.648,970.703,925.781,-1000.000,0.000
1737562883.166,-234.863,970.703,971.191,-840.332,0.000
1737562883.170,-293.457,970.703,969.238,-403.320,0.000
1737562883.174,-252.441,970.703,969.727,-97.656,0.000
1737562883.178,-287.109,971.191,970.703,29.785,0.000
1737562883.182,-303.223,970.703,970.703,82.031,0.000
1737562883.186,-257.324,970.703,970.703,209.961,0.000
1737562883.190,-265.625,970.703,970.703,351.562,0.000
1737562883.194,-245.117,970.703,970.215,412.109,0.000
1737562883.198,-225.098,970.703,970.215,351.562,0.000
1737562883.201,-223.145,970.703,968.750,354.004,0.000
1737562883.205,-164.062,970.703,949.707,476.562,0.000
1737562883.209,-100.098,970.703,900.879,599.609,0.000
1737562883.213,-112.793,970.703,849.609,676.270,0.000
1737562883.217,-130.371,970.703,817.871,549.316,0.000
1737562883.221,-135.742,970.703,767.090,459.473,0.000
1737562883.225,-93.262,970.703,699.219,538.574,0.000
1737562883.229,-28.320,970.703,623.047,627.441,0.000
1737562883.233,-18.066,970.703,564.941,668.945,0.000
1737562883.237,0.000,970.703,540.527,565.430,0.000
1737562883.240,0.000,970.703,494.629,476.074,0.000
1737562883.244,0.000,970.703,440.918,507.812,0.000
1737562883.248,0.000,970.703,394.043,607.422,0.000
1737562883.252,0.000,970.703,340.332,621.094,0.000
1737562883.256,0.000,970.703,296.875,519.043,0.000
1737562883.260,0.000,970.703,243.164,401.367,0.000
1737562883.264,0.000,970.703,194.824,392.578,0.000
1737562883.268,0.000,970.703,169.434,456.055,0.000
1737562883.272,0.000,970.703,137.695,514.160,0.000
1737562883.276,0.000,970.703,123.535,451.660,0.000
1737562883.279,0.000,970.703,126.953,299.805,0.000
1737562883.283,39.551,971.191,128.418,290.527,0.000
1737562883.287,58.594,968.750,108.398,360.352,0.000
1737562883.291,58.105,971.680,85.938,418.457,0.000
1737562883.295,32.227,962.891,74.707,387.695,0.000
1737562883.299,28.809,893.555,50.781,270.508,0.000
1737562883.303,71.289,820.801,27.832,238.281,0.000
1737562883.307,53.711,764.648,20.996,312.988,0.000
1737562883.311,76.172,705.078,17.578,321.777,0.000
1737562883.315,66.406,654.785,7.812,252.930,0.000
1737562883.319,42.480,611.816,5.859,208.008,0.000
1737562883.322,51.270,569.824,12.207,187.500,0.000
1737562883.326,31.250,513.184,0.977,201.172,0.000
1737562883.330,34.180,463.867,-10.742,271.484,0.000
1737562883.334,50.781,421.875,4.395,234.375,0.000
1737562883.338,32.227,377.441,9.766,133.301,0.000
1737562883.342,43.945,345.215,-13.184,114.258,0.000
1737562883.346,79.590,322.266,-20.020,157.227,0.000
1737562883.350,58.105,303.223,0.000,252.441,0.000
1737562883.354,73.730,273.438,9.277,251.953,0.000
1737562883.358,56.152,237.793,-5.859,130.859,0.000
1737562883.362,7.324,208.496,-14.160,84.473,0.000
1737562883.365,41.992,186.523,-14.648,139.648,0.000
1737562883.369,117.188,173.828,-20.996,173.340,0.000
1737562883.373,113.770,149.414,-25.879,156.738,0.000
1737562883.377,6.836,125.000,-20.020,80.566,0.000
1737562883.381,-26.367,101.562,-11.719,-20.508,0.000
1737562883.385,0.488,87.891,-0.488,95.703,0.000
1737562883.389,36.621,66.406,8.789,183.594,0.000
1737562883.393,51.758,44.434,0.977,100.098,0.000
1737562883.397,-3.418,41.992,-15.137,80.078,0.000
1737562883.401,1.953,34.180,-22.461,44.922,0.000
1737562883.404,55.176,23.926,-8.301,40.527,0.000
1737562883.408,52.734,1.465,2.441,93.750,0.000
1737562883.412,42.480,-21.973,-0.488,157.715,0.000
1737562883.416,-13.672,-30.273,-7.812,61.035,0.000
1737562883.420,-84.961,-36.133,-13.184,-41.992,0.000
1737562883.424,-36.621,-44.434,-10.742,41.016,0.000
1737562883.428,58.594,-50.781,-10.742,120.605,0.000
1737562883.432,76.172,-60.547,-25.879,121.094,0.000
1737562883.436,59.570,-66.406,-25.879,39.062,0.000
1737562883.440,-47.363,-67.871,-15.625,-28.320,0.000
1737562883.444,-71.289,-72.266,-14.160,44.922,0.000
1737562883.447,57.617,-76.660,-2.930,71.289,0.000
1737562883.451,101.074,-84.473,24.902,78.125,0.000
1737562883.455,62.500,-86.426,32.715,87.891,0.000
1737562883.459,2.930,-86.426,17.090,-3.906,0.000
1737562883.463,-4.883,-88.867,-4.395,-3.418,0.000
1737562883.467,1.953,-89.355,-26.855,88.867,0.000
1737562883.471,61.035,-103.027,-7.324,152.832,0.000
1737562883.475,25.391,-123.047,21.484,93.750,0.000
1737562883.479,-96.191,-134.277,17.090,-63.965,0.000
1737562883.483,-76.172,-139.648,15.137,-79.102,0.000
1737562883.487,26.367,-144.043,18.066,31.738,0.000
1737562883.490,83.008,-129.883,3.418,101.562,0.000
1737562883.494,50.293,-122.559,-11.719,91.797,0.000
1737562883.498,38.086,-140.137,-22.949,-22.949,0.000
1737562883.502,-14.648,-149.414,-26.855,-49.805,0.000
1737562883.506,20.508,-139.648,-17.578,61.035,0.000
1737562883.510,39.062,-142.578,-7.324,135.742,0.000
1737562883.514,-24.414,-154.297,2.441,98.633,0.000
1737562883.518,-13.184,-155.762,-11.719,4.395,0.000
1737562883.522,-8.789,-167.969,-16.602,-84.961,0.000
1737562883.526,-1.953,-166.504,-1.953,-48.340,0.000
1737562883.530,20.996,-156.738,-0.488,112.305,0.000
1737562883.533,41.992,-154.297,-17.090,109.375,0.000
1737562883.537,10.742,-150.391,-11.230,-3.906,0.000
1737562883.541,-51.758,-160.645,-4.395,-40.039,0.000
1737562883.545,-16.602,-170.410,-14.648,-6.836,0.000
1737562883.549,44.922,-167.969,-10.254,66.895,0.000
1737562883.553,4.395,-171.875,-2.930,66.895,0.000
1737562883.557,-26.367,-172.852,-2.930,-5.371,0.000
1737562883.561,-41.016,-166.992,-9.766,-56.641,0.000
1737562883.565,-51.758,-174.316,-12.207,-28.320,0.000
1737562883.569,-6.836,-183.594,-1.465,49.316,0.000
1737562883.572,20.020,-177.734,2.441,79.590,0.000
1737562883.576,-39.062,-166.016,-6.348,0.488,0.000
1737562883.580,-77.148,-166.504,-10.742,-106.934,0.000
1737562883.584,-9.277,-154.297,-12.207,-81.055,0.000
1737562883.588,46.387,-143.066,-25.391,64.453,0.000
1737562883.592,48.340,-148.926,-31.250,169.434,0.000
1737562883.596,46.387,-157.227,-17.578,74.707,0.000
1737562883.600,-71.289,-170.898,-4.883,-66.406,0.000
1737562883.604,-117.676,-171.387,-9.766,-55.664,0.000
1737562883.608,26.855,-163.574,-12.695,39.062,0.000
1737562883.612,89.355,-159.668,-16.602,124.512,0.000
1737562883.615,-31.250,-163.086,-21.973,41.016,0.000
1737562883.619,-112.305,-174.805,-17.578,-79.102,0.000
1737562883.623,-19.043,-174.316,-18.066,-67.871,0.000
1737562883.627,20.508,-164.551,-16.602,17.090,0.000
1737562883.631,26.367,-148.438,-5.859,99.121,0.000
1737562883.635,19.043,-144.531,3.906,51.758,0.000
1737562883.639,-16.602,-156.250,2.930,-49.316,0.000
1737562883.643,-21.973,-151.367,-7.324,-76.660,0.000
1737562883.647,-26.855,-146.484,-16.113,-20.508,0.000
1737562883.651,-7.324,-148.926,-15.137,81.543,0.000
1737562883.654,-12.695,-143.555,-29.297,64.941,0.000
1737562883.658,-36.621,-145.020,-28.320,-25.391,0.000
1737562883.662,-49.316,-147.949,-20.020,-66.895,0.000
1737562883.666,-38.086,-139.160,-15.137,-27.832,0.000
1737562883.670,16.602,-129.395,-13.184,99.121,0.000
1737562883.674,15.625,-131.348,-32.715,97.656,0.000
1737562883.678,-20.996,-133.301,-20.996,-29.785,0.000
1737562883.682,-33.691,-134.766,-2.441,-73.730,0.000
1737562883.686,14.160,-133.301,-11.230,0.000,0.000
1737562883.690,58.594,-118.164,-21.973,72.266,0.000
1737562883.693,3.418,-117.676,-13.184,55.664,0.000
1737562883.697,-74.219,-133.301,-22.461,-42.969,0.000
1737562883.701,-69.336,-132.812,-38.086,-78.125,0.000
1737562883.705,-33.203,-123.535,-16.113,16.602,0.000
1737562883.709,28.809,-122.070,-0.488,92.285,0.000
1737562883.713,30.273,-126.953,-7.324,83.008,0.000
1737562883.717,-95.215,-134.766,-13.672,5.371,0.000
1737562883.721,-120.605,-137.207,-19.043,-91.309,0.000
1737562883.725,0.000,-123.535,-21.484,-64.453,0.000
1737562883.729,64.453,-105.469,-17.578,27.344,0.000
1737562883.733,52.246,-113.770,-18.555,78.125,0.000
1737562883.736,14.160,-124.023,-23.926,30.762,0.000
1737562883.740,-72.266,-125.977,-24.414,-61.523,0.000
1737562883.744,-76.172,-127.930,0.488,-69.336,0.000
1737562883.748,-15.625,-124.023,21.484,23.438,0.000
1737562883.752,22.461,-122.070,12.207,112.305,0.000
1737562883.756,22.461,-135.742,-2.441,37.109,0.000
1737562883.760,-38.574,-140.625,-10.254,-86.426,0.000
1737562883.764,-41.016,-132.324,-10.742,-64.453,0.000
1737562883.768,0.000,-123.535,-0.488,38.086,0.000
1737562883.772,20.996,-125.488,1.953,108.398,0.000
1737562883.776,5.371,-136.230,5.859,16.113,0.000
1737562883.779,-40.527,-125.488,7.324,-100.098,0.000
1737562883.783,-25.391,-107.422,-10.254,-62.500,0.000
1737562883.787,-50.781,-105.469,-21.484,5.859,0.000
1737562883.791,-63.477,-113.770,-22.461,81.543,0.000
1737562883.795,-5.371,-122.559,-14.648,63.477,0.000
1737562883.799,-29.785,-129.395,-13.672,-52.734,0.000
1737562883.803,-34.668,-119.141,-6.836,-83.496,0.000
1737562883.807,2.930,-111.328,4.883,-13.672,0.000
1737562883.811,38.086,-120.605,1.953,61.035,0.000
1737562883.815,-11.230,-121.582,-5.859,32.715,0.000
1737562883.819,-5.371,-109.375,-13.184,-68.848,0.000
1737562883.822,-48.340,-108.398,-14.648,-91.797,0.000
1737562883.826,-102.539,-118.652,-1.953,-39.062,0.000
1737562883.830,19.043,-120.605,14.160,52.734,0.000
1737562883.834,14.648,-118.652,-6.348,82.031,0.000
1737562883.838,-60.547,-116.211,-35.645,-51.758,0.000
1737562883.842,-72.754,-116.211,-22.949,-150.391,0.000
1737562883.846,-35.156,-125.488,4.883,-75.684,0.000
1737562883.850,23.438,-119.141,15.137,51.758,0.000
1737562883.854,34.180,-96.680,17.578,89.844,0.000
1737562883.858,-63.965,-93.262,6.348,-28.320,0.000
1737562883.861,-86.426,-93.750,0.977,-151.855,0.000
1737562883.865,-13.672,-81.543,-0.977,-110.840,0.000
1737562883.869,7.324,-73.242,-11.719,-18.066,0.000
1737562883.873,-52.734,-77.637,-20.508,-29.297,0.000
1737562883.877,-115.723,-74.219,-18.555,-126.953,0.000
1737562883.881,-163.086,-78.125,8.789,-203.125,0.000
1737562883.885,-178.223,-91.309,22.949,-197.266,0.000
1737562883.889,-124.512,-86.914,14.648,-146.973,0.000
1737562883.893,0.000,-65.918,9.766,-107.910,0.000
1737562883.897,0.000,-60.059,18.555,-250.977,0.000
1737562883.901,0.000,-55.176,30.273,-352.539,0.000
1737562883.904,0.000,-52.246,41.992,-291.016,0.000
1737562883.908,0.000,-51.758,46.875,-231.934,0.000
1737562883.912,0.000,-47.852,38.574,-177.734,0.000
1737562883.916,0.000,-47.363,27.344,-145.996,0.000
1737562883.920,0.000,-58.105,25.879,-216.309,0.000
1737562883.924,0.000,-67.383,27.344,-272.461,0.000
1737562883.928,0.000,-77.148,22.461,-118.164,0.000
1737562883.932,0.000,-86.426,8.301,21.973,0.000
1737562883.936,0.000,-90.332,-7.324,-22.461,0.000
1737562883.940,-138.672,-90.332,-6.348,-91.797,0.000
1737562883.944,-104.004,-89.844,8.789,-109.863,0.000
1737562883.947,-38.574,-100.098,15.137,-26.367,0.000
1737562883.951,9.766,-112.305,22.461,89.844,0.000
1737562883.955,11.230,-115.723,13.184,33.203,0.000
1737562883.959,-33.203,-119.629,-6.348,-110.352,0.000
1737562883.963,-33.691,-120.117,-16.602,-111.816,0.000
1737562883.967,-3.418,-119.629,-20.020,22.461,0.000
1737562883.971,36.621,-124.023,-16.113,136.230,0.000
1737562883.975,59.082,-121.582,-20.020,135.254,0.000
1737562883.979,9.277,-115.723,-40.039,50.781,0.000
1737562883.983,-15.625,-112.793,-41.016,16.113,0.000
1737562883.986,0.488,-109.863,-30.273,44.434,0.000
1737562883.990,62.500,-114.746,-22.461,133.789,0.000
1737562883.994,68.359,-122.070,-26.367,115.723,0.000
1737562883.998,8.301,-122.559,-46.387,-37.109,0.000
1737562884.002,-31.738,-123.535,-38.086,-59.570,0.000
1737562884.006,9.277,-121.094,-20.996,46.387,0.000
1737562884.010,64.453,-126.465,-32.227,117.188,0.000
1737562884.014,37.109,-132.812,-52.734,102.539,0.000
1737562884.018,18.066,-124.023,-62.012,77.148,0.000
1737562884.022,19.531,-115.723,-57.617,-15.137,0.000
1737562884.025,14.160,-113.281,-37.109,-5.859,0.000
1737562884.029,51.270,-105.469,-30.762,67.383,0.000
1737562884.033,10.254,-108.887,-25.391,65.430,0.000
1737562884.037,-54.199,-122.559,-33.203,13.672,0.000
1737562884.041,-40.527,-120.117,-66.895,-71.289,0.000
1737562884.045,50.293,-117.188,-57.129,12.207,0.000
1737562884.049,100.586,-119.629,-34.180,112.793,0.000
1737562884.053,37.109,-114.746,-42.480,102.051,0.000
1737562884.057,-24.902,-116.211,-41.504,27.344,0.000
1737562884.061,-44.434,-121.094,-40.527,-47.363,0.000
1737562884.065,37.598,-122.559,-44.922,-15.137,0.000
1737562884.068,35.645,-119.141,-47.363,80.078,0.000
1737562884.072,12.695,-109.375,-43.945,94.238,0.000
1737562884.076,29.297,-109.863,-21.484,48.340,0.000
1737562884.080,-16.602,-123.047,-20.020,-65.430,0.000
1737562884.084,-50.781,-125.977,-35.156,-83.984,0.000
1737562884.088,3.418,-102.051,-50.781,53.223,0.000
1737562884.092,43.945,-87.402,-44.922,120.117,0.000
1737562884.096,16.602,-88.867,-20.996,31.738,0.000
1737562884.100,-4.883,-80.566,-20.996,-71.777,0.000
1737562884.104,12.695,-88.379,-10.742,-11.719,0.000
1737562884.108,-5.859,-96.191,0.977,26.367,0.000
1737562884.111,-11.230,-93.750,-15.137,22.461,0.000
1737562884.115,3.906,-96.191,-33.691,67.871,0.000
1737562884.119,-27.344,-94.238,-37.598,-5.859,0.000
1737562884.123,-7.812,-91.797,-28.809,-36.621,0.000
1737562884.127,44.922,-90.332,0.000,0.000,0.000
1737562884.131,3.418,-86.914,0.000,0.000,0.000
1737562884.135,-52.246,-94.727,0.000,0.000,0.000
1737562884.139,-12.695,-98.633,0.000,0.000,0.000
1737562884.143,-2.441,-88.379,0.000,0.000,0.000
1737562884.147,23.926,-84.961,0.000,0.000,0.000
1737562884.151,84.473,-94.238,0.000,0.000,0.000
1737562884.154,27.344,-102.539,0.000,0.000,0.000
1737562884.158,-18.066,-95.703,0.000,0.000,0.000
1737562884.162,-44.434,-91.309,0.000,0.000,0.000
1737562884.166,-74.219,-86.914,0.000,0.000,0.000
1737562884.170,-11.230,-74.219,0.000,0.000,0.000
1737562884.174,13.672,-75.195,-25.391,110.840,0.000
1737562884.178,8.301,-77.637,-28.809,10.254,0.000
1737562884.182,-14.160,-75.684,-33.691,-103.516,0.000
1737562884.186,-29.785,-88.867,-32.227,-47.852,0.000
1737562884.190,-16.602,-94.727,-17.090,66.406,0.000
1737562884.193,-23.926,-92.285,-0.488,80.078,0.000
1737562884.197,-65.918,-90.820,0.977,-34.668,0.000
1737562884.201,-55.176,-86.914,-5.859,-86.426,0.000
1737562884.205,10.742,-83.008,-21.484,-40.527,0.000
1737562884.209,32.715,-71.289,-31.738,33.691,0.000
1737562884.213,46.387,-62.012,-24.902,113.281,0.000
1737562884.217,46.387,-62.012,-20.508,20.996,0.000
1737562884.221,-50.293,-82.031,-36.133,-107.910,0.000
1737562884.225,-95.215,-90.332,-41.504,-54.688,0.000
1737562884.229,-27.832,-83.984,-29.297,51.758,0.000
1737562884.233,-2.441,-100.098,-19.043,53.711,0.000
1737562884.236,-19.531,-106.934,-13.672,-32.715,0.000
1737562884.240,-7.324,-87.891,-26.367,-93.262,0.000
1737562884.244,-9.766,-75.195,-33.691,-65.430,0.000
1737562884.248,-41.504,-67.383,-18.066,-9.766,0.000
1737562884.252,-20.508,-67.383,-1.953,48.340,0.000
1737562884.256,-14.160,-72.266,-15.137,47.363,0.000
1737562884.260,-62.012,-78.125,-41.016,-68.848,0.000
1737562884.264,-34.668,-81.055,-32.715,-116.211,0.000
1737562884.268,13.184,-79.590,-16.602,5.371,0.000
1737562884.272,45.898,-86.426,-15.137,101.074,0.000
1737562884.276,30.762,-90.820,-14.648,14.648,0.000
1737562884.279,-79.102,-91.309,-20.020,-101.074,0.000
1737562884.283,-80.566,-96.191,-26.367,-110.840,0.000
1737562884.287,-19.531,-98.145,-29.785,-13.184,0.000
1737562884.291,-7.812,-90.332,-21.484,106.445,0.000
1737562884.295,-21.973,-91.309,-18.555,68.359,0.000
1737562884.299,-71.289,-88.867,-25.391,-42.969,0.000
1737562884.303,-33.691,-84.961,-21.484,-65.918,0.000
1737562884.307,3.906,-87.891,-20.508,-15.625,0.000
1737562884.311,-3.906,-81.055,-34.668,56.152,0.000
1737562884.315,4.395,-68.848,-38.574,20.020,0.000
1737562884.318,-76.172,-80.566,-25.879,-74.707,0.000
1737562884.322,-86.426,-83.984,-15.625,-88.867,0.000
1737562884.326,-20.020,-74.707,-8.789,-40.039,0.000
1737562884.330,-2.930,-74.219,-3.906,31.738,0.000
1737562884.334,-24.414,-68.848,-9.277,56.152,0.000
1737562884.338,-50.781,-67.871,-18.066,-11.230,0.000
1737562884.342,-66.895,-73.730,-28.320,-96.680,0.000
1737562884.346,-72.754,-77.148,-24.902,-49.805,0.000
1737562884.350,-12.695,-72.754,-14.648,57.129,0.000
1737562884.354,-16.113,-72.266,-29.785,57.129,0.000
1737562884.357,-59.082,-81.055,-32.227,-29.297,0.000
1737562884.361,-39.551,-78.613,-14.648,-93.750,0.000
1737562884.365,-12.695,-80.566,-14.160,-18.555,0.000
1737562884.369,-2.441,-76.172,-15.625,30.762,0.000
1737562884.373,15.625,-73.730,-12.695,28.320,0.000
1737562884.377,-65.918,-85.449,-26.367,-3.906,0.000
1737562884.381,-86.426,-78.613,-43.457,-118.164,0.000
1737562884.385,-52.246,-83.984,-39.551,-73.730,0.000
1737562884.389,-31.738,-100.098,-41.016,60.059,0.000
1737562884.393,4.883,-93.262,-39.062,97.656,0.000
1737562884.397,-29.297,-84.473,-16.113,13.672,0.000
1737562884.400,-21.484,-80.078,-4.395,-87.402,0.000
1737562884.404,-18.066,-81.543,-13.184,-66.895,0.000
1737562884.408,0.488,-89.355,-22.461,41.016,0.000
1737562884.412,33.203,-87.402,-13.672,92.773,0.000
1737562884.416,-19.043,-81.543,-15.137,-6.836,0.000
1737562884.420,-62.012,-77.637,-26.367,-94.238,0.000
1737562884.424,-42.480,-78.125,-20.996,-52.246,0.000
1737562884.428,16.113,-81.543,-28.320,69.824,0.000
1737562884.432,41.992,-75.195,-31.738,159.180,0.000
1737562884.436,-34.668,-77.637,-29.785,66.895,0.000
1737562884.440,-43.945,-78.613,-32.715,-57.129,0.000
1737562884.443,-20.508,-85.938,-34.668,-110.840,0.000
1737562884.447,-19.531,-85.938,-48.340,-27.832,0.000
1737562884.451,13.672,-71.289,-31.250,99.609,0.000
1737562884.455,-15.625,-80.566,0.000,30.762,0.000
1737562884.459,-57.129,-95.215,0.000,-64.453,0.000
1737562884.463,-21.484,-97.168,0.000,-61.523,0.000
1737562884.467,26.855,-91.309,0.000,15.137,0.000
1737562884.471,5.859,-76.660,0.000,121.582,0.000
1737562884.475,-20.508,-64.941,0.000,99.121,0.000
1737562884.479,-16.602,-70.801,0.000,-23.438,0.000
1737562884.482,-36.133,-77.637,0.000,-112.305,0.000
1737562884.486,-4.883,-80.078,0.000,-27.832,0.000
1737562884.490,22.949,-78.125,0.000,117.676,0.000
1737562884.494,-15.625,-81.543,0.000,72.266,0.000
1737562884.498,-81.543,-90.820,0.000,-76.172,0.000
1737562884.502,-81.543,-94.238,-29.785,-131.836,0.000
1737562884.506,-37.598,-87.891,-36.133,-48.340,0.000
1737562884.510,19.531,-75.195,-43.945,42.480,0.000
1737562884.514,80.078,-73.242,-36.133,130.371,0.000
1737562884.518,-0.977,-80.566,-43.945,24.902,0.000
1737562884.522,-69.824,-70.801,-41.016,-140.625,0.000
1737562884.525,-37.109,-67.383,-33.691,-73.242,0.000
1737562884.529,-20.020,-78.125,-42.480,51.270,0.000
1737562884.533,10.742,-81.055,-51.758,84.961,0.000
1737562884.537,-18.555,-81.543,-48.828,1.953,0.000
1737562884.541,-83.496,-83.984,-36.621,-99.609,0.000
1737562884.545,-26.855,-86.426,-26.367,-106.934,0.000
1737562884.549,45.898,-78.613,-23.926,-8.301,0.000
1737562884.553,5.859,-82.520,-22.949,63.477,0.000
1737562884.557,-59.570,-86.426,-39.062,10.254,0.000
1737562884.561,-84.961,-74.219,-46.387,-71.777,0.000
1737562884.565,-63.477,-79.590,-44.434,-82.520,0.000
1737562884.568,24.902,-73.730,-47.852,8.301,0.000
1737562884.572,36.133,-67.383,-43.457,74.219,0.000
1737562884.576,-82.031,-81.055,-38.086,8.301,0.000
1737562884.580,-116.699,-85.449,-46.387,-110.352,0.000
1737562884.584,-72.266,-83.984,-48.340,-129.883,0.000
1737562884.588,-17.090,-79.102,-39.551,-17.090,0.000
1737562884.592,22.461,-79.102,-45.410,107.910,0.000
1737562884.596,-15.625,-80.566,-53.711,0.000,0.000
1737562884.600,-54.688,-74.219,-47.852,0.000,0.000
1737562884.604,-42.969,-66.406,-39.062,0.000,0.000
1737562884.608,-11.719,-68.848,-44.922,0.000,0.000
1737562884.611,-9.766,-79.102,-47.363,0.000,0.000
1737562884.615,-50.781,-83.008,-49.316,0.000,0.000
1737562884.619,-75.684,-79.590,-63.477,0.000,0.000
1737562884.623,-57.617,-77.148,-62.012,0.000,0.000
1737562884.627,-6.836,-83.008,-56.641,0.000,0.000
1737562884.631,7.812,-86.426,-57.617,0.000,0.000
1737562884.635,-4.883,-84.961,-56.641,0.000,0.000
1737562884.639,-20.020,-83.984,-65.918,0.000,0.000
1737562884.643,0.000,-78.613,-81.543,-113.770,0.000
1737562884.647,0.000,-73.242,-81.055,-34.180,0.000
1737562884.650,0.000,-72.266,-74.707,75.195,0.000
1737562884.654,0.000,-76.660,-67.383,48.340,0.000
1737562884.658,0.000,-84.473,-55.176,-44.434,0.000
1737562884.662,0.000,-85.938,-60.059,-77.148,0.000
1737562884.666,0.000,-81.055,-71.777,-51.758,0.000
1737562884.670,0.000,-86.426,-81.543,20.020,0.000
1737562884.674,0.000,-84.473,-90.332,31.250,0.000
1737562884.678,0.000,-73.242,-103.516,-68.848,0.000
1737562884.682,0.000,-72.266,-116.699,-103.516,0.000
1737562884.686,0.000,-83.984,-111.816,-14.648,0.000
1737562884.690,11.230,-91.797,-85.938,48.828,0.000
1737562884.693,9.766,-72.266,-82.520,47.852,0.000
1737562884.697,-21.484,-63.477,-98.633,33.691,0.000
1737562884.701,-73.730,-85.449,-90.332,-36.621,0.000
1737562884.705,-87.891,-96.680,-76.660,-121.094,0.000
1737562884.709,-23.926,-83.008,-77.637,-22.949,0.000
1737562884.713,42.969,-73.242,-76.172,75.684,0.000
1737562884.717,-19.043,-74.219,-74.707,-42.969,0.000
1737562884.721,-62.500,-79.102,-78.125,-114.746,0.000
1737562884.725,-52.734,-80.566,-78.613,-66.406,0.000
1737562884.729,0.977,-74.707,-69.336,37.598,0.000
1737562884.732,30.273,-71.289,-66.895,101.562,0.000
1737562884.736,0.000,-76.660,-75.195,0.000,0.000
1737562884.740,0.000,-73.242,-73.242,0.000,0.000
1737562884.744,0.000,-60.059,-65.918,0.000,0.000
1737562884.748,0.000,-62.012,-63.477,0.000,0.000
1737562884.752,0.000,-63.477,-68.848,0.000,0.000
1737562884.756,0.000,-63.965,-54.199,0.000,0.000
1737562884.760,0.000,-74.707,-27.344,0.000,0.000
1737562884.764,0.000,-83.984,-25.879,0.000,0.000
1737562884.768,0.000,-86.914,-41.992,0.000,0.000
1737562884.772,0.000,-84.961,-62.988,0.000,0.000
1737562884.775,0.000,-77.637,-64.453,0.000,0.000
1737562884.779,0.000,-70.801,-52.246,0.000,0.000
1737562884.783,-80.566,-82.031,-48.828,-100.098,0.000
1737562884.787,-44.922,-75.195,-41.992,-99.609,0.000
1737562884.791,24.902,-62.988,-45.410,31.738,0.000
1737562884.795,-1.465,-70.312,-50.293,78.613,0.000
1737562884.799,-34.180,-66.406,-49.316,-5.859,0.000
1737562884.803,-49.805,-70.801,-49.805,-60.059,0.000
1737562884.807,-5.371,-81.055,-51.270,-18.555,0.000
1737562884.811,-20.996,-75.195,-42.480,75.684,0.000
1737562884.814,-50.293,-65.918,-26.855,51.758,0.000
1737562884.818,-58.105,-66.895,-32.227,-52.246,0.000
1737562884.822,-44.434,-69.336,-41.992,-90.332,0.000
1737562884.826,10.254,-61.523,-34.180,-24.902,0.000
1737562884.830,0.000,-56.641,-15.137,81.055,0.000
1737562884.834,0.000,-63.965,-23.438,60.059,0.000
1737562884.838,0.000,-76.660,-44.922,-49.316,0.000
1737562884.842,0.000,-77.637,-35.156,-103.516,0.000
1737562884.846,0.000,-71.777,-26.855,-53.711,0.000
1737562884.850,0.000,-63.965,-31.738,76.172,0.000
1737562884.854,0.000,-56.152,-30.273,97.656,0.000
1737562884.857,0.000,-71.289,-34.180,-5.859,0.000
1737562884.861,0.000,-80.078,-39.551,-96.680,0.000
1737562884.865,0.000,-62.988,-60.547,-90.332,0.000
1737562884.869,0.000,-61.523,-62.012,1.953,0.000
1737562884.873,0.000,-58.105,-29.785,77.637,0.000
1737562884.877,-1.465,-56.641,-20.020,25.391,0.000
1737562884.881,-65.918,-67.871,-24.902,-88.867,0.000
1737562884.885,-66.895,-71.289,-28.809,-61.523,0.000
1737562884.889,-34.668,-62.012,-23.438,30.762,0.000
1737562884.893,27.344,-60.547,-29.297,62.500,0.000
1737562884.897,-8.301,-62.500,-39.551,2.441,0.000
1737562884.900,-99.609,-65.918,-37.598,-100.586,0.000
1737562884.904,-69.336,-72.754,-38.086,-132.812,0.000
1737562884.908,14.160,-58.105,-43.457,-9.766,0.000
1737562884.912,24.902,-39.062,-41.992,96.191,0.000
1737562884.916,-41.016,-44.434,-33.691,13.184,0.000
1737562884.920,-53.223,-58.594,-26.855,-95.703,0.000
1737562884.924,-68.848,-62.988,-28.320,-136.719,0.000
1737562884.928,-64.941,-64.453,-32.227,-66.406,0.000
1737562884.932,-13.184,-63.965,-32.715,52.246,0.000
1737562884.936,-37.598,-57.129,-36.621,15.137,0.000
1737562884.940,-72.754,-61.035,-39.551,-108.887,0.000
1737562884.943,-61.523,-69.336,-37.109,-107.910,0.000
1737562884.947,-56.641,-76.660,-41.992,-45.898,0.000
1737562884.951,12.695,-72.754,-39.062,52.246,0.000
1737562884.955,-29.785,-64.453,-37.109,41.016,0.000
1737562884.959,-93.262,-68.359,-43.457,-47.852,0.000
1737562884.963,-38.574,-63.477,-31.738,-99.609,0.000
1737562884.967,-31.250,-57.129,-20.996,-51.270,0.000
1737562884.971,-25.391,-60.547,-32.715,76.172,0.000
1737562884.975,-29.785,-66.406,-51.270,69.824,0.000
1737562884.979,-22.949,-63.965,-46.387,-47.363,0.000
1737562884.982,-63.965,-65.430,-32.227,-107.422,0.000
1737562884.986,-72.754,-69.824,-36.133,-47.852,0.000
1737562884.990,-10.254,-70.312,-43.945,67.383,0.000
1737562884.994,-10.254,-68.359,-35.156,56.152,0.000
1737562884.998,-50.781,-68.359,-39.551,-55.176,0.000
1737562885.002,-73.730,-75.684,-59.082,-106.934,0.000
1737562885.006,-48.828,-66.406,-58.105,-62.988,0.000
1737562885.010,-11.230,-55.664,-41.992,30.273,0.000
1737562885.014,-21.484,-55.176,-35.645,55.664,0.000
1737562885.018,-42.480,-62.012,-42.969,-0.488,0.000
1737562885.022,-57.617,-73.242,-48.340,-129.883,0.000
1737562885.025,-60.547,-79.102,-40.527,-113.770,0.000
1737562885.029,0.977,-65.918,-36.621,78.125,0.000
1737562885.033,14.160,-52.734,-52.734,124.023,0.000
1737562885.037,-49.805,-58.594,-61.035,30.273,0.000
1737562885.041,-52.734,-75.195,-48.828,-97.656,0.000
1737562885.045,-25.391,-78.125,-39.551,-108.887,0.000
1737562885.049,13.672,-59.082,-39.551,25.391,0.000
1737562885.053,42.969,-48.340,-50.781,57.617,0.000
1737562885.057,-54.688,-52.734,-59.570,-46.875,0.000
1737562885.061,-92.773,-56.152,-47.363,-115.723,0.000
1737562885.065,-37.598,-64.941,0.000,-49.316,0.000
1737562885.068,-30.762,-63.965,0.000,54.688,0.000
1737562885.072,-3.418,-55.176,0.000,69.824,0.000
1737562885.076,-8.301,-58.594,0.000,31.738,0.000
1737562885.080,-45.410,-71.777,0.000,-73.242,0.000
1737562885.084,-31.250,-74.219,0.000,-80.078,0.000
1737562885.088,-6.836,-58.594,0.000,40.039,0.000
1737562885.092,4.395,-56.152,0.000,86.914,0.000
1737562885.096,-34.180,-58.105,0.000,33.203,0.000
1737562885.100,-81.055,-55.176,0.000,-48.340,0.000
1737562885.104,-60.059,-62.012,0.000,-85.449,0.000
1737562885.107,-57.129,-74.219,0.000,-2.930,0.000
1737562885.111,3.906,-70.801,-12.695,79.102,0.000
1737562885.115,-7.812,-65.918,-16.113,41.016,0.000
1737562885.119,-88.379,-63.965,-39.551,-66.895,0.000
1737562885.123,-80.078,-53.711,-44.434,-57.129,0.000
1737562885.127,-21.484,-54.199,-40.527,20.508,0.000
1737562885.131,25.879,-60.547,-41.504,59.570,0.000
1737562885.135,13.672,-69.336,-38.086,59.570,0.000
1737562885.139,-17.578,-75.195,-29.297,-31.250,0.000
1737562885.143,-75.684,-67.383,-34.180,-68.359,0.000
1737562885.146,-49.805,-61.035,-42.969,0.977,0.000
1737562885.150,0.000,-45.898,-39.062,46.387,0.000
1737562885.154,-16.602,-47.363,-29.785,31.738,0.000
1737562885.158,-34.180,-62.012,-24.902,-51.270,0.000
1737562885.162,-46.875,-60.547,-27.832,-61.523,0.000
1737562885.166,-16.113,-55.664,-37.109,-28.809,0.000
1737562885.170,22.461,-50.781,-47.852,31.738,0.000
1737562885.174,-24.414,-52.734,-47.852,94.727,0.000
1737562885.178,-90.820,-56.152,-48.340,-47.363,0.000
1737562885.182,-85.938,-64.941,-47.363,-133.301,0.000
1737562885.186,-68.848,-63.965,-46.387,-69.336,0.000
1737562885.189,-40.527,-53.223,-42.969,-6.348,0.000
1737562885.193,-1.465,-62.012,-41.504,4.395,0.000
1737562885.197,-76.172,-64.453,-52.246,-71.777,0.000
1737562885.201,-62.988,-60.547,-64.453,-108.398,0.000
1737562885.205,16.113,-56.152,-70.801,-76.660,0.000
1737562885.209,-36.621,-59.570,-59.082,-14.160,0.000
1737562885.213,-31.738,-72.754,-35.156,67.383,0.000
1737562885.217,-36.621,-71.289,-35.645,-9.277,0.000
1737562885.221,-67.383,-53.223,-46.875,-111.816,0.000
1737562885.225,-22.461,-41.992,-39.062,-73.730,0.000
1737562885.229,10.742,-50.293,-25.879,9.766,0.000
1737562885.232,-9.766,-54.199,-29.785,33.691,0.000
1737562885.236,-55.176,-48.340,-50.293,-40.527,0.000
1737562885.240,-59.082,-43.457,-48.828,-72.754,0.000
1737562885.244,-33.203,-47.363,-31.738,-62.500,0.000
1737562885.248,-27.832,-53.711,-23.926,-21.973,0.000
1737562885.252,2.441,-52.734,-33.203,64.941,0.000
1737562885.256,-20.508,-56.641,-49.316,34.180,0.000
1737562885.260,-83.496,-65.918,-52.734,-95.215,0.000
1737562885.264,-63.477,-53.223,-38.086,-106.445,0.000
1737562885.268,-20.020,-38.086,-44.922,-42.480,0.000
1737562885.271,12.695,-35.645,-50.781,30.273,0.000
1737562885.275,-26.367,-33.203,-41.992,40.039,0.000
1737562885.279,-70.801,-41.504,-48.828,-58.594,0.000
1737562885.283,-70.801,-57.129,-57.129,-130.371,0.000
1737562885.287,-56.641,-63.477,-55.176,-57.617,0.000
1737562885.291,10.742,-60.547,-39.551,39.551,0.000
1737562885.295,-16.602,-53.711,-34.668,32.227,0.000
1737562885.299,0.000,-59.082,-41.504,-61.523,0.000
1737562885.303,0.000,-56.641,-46.387,-132.324,0.000
1737562885.307,0.000,-34.668,-44.434,-37.598,0.000
1737562885.311,0.000,-37.598,-44.434,23.438,0.000
1737562885.314,0.000,-50.293,-55.176,-20.996,0.000
1737562885.318,0.000,-54.688,-58.105,-64.453,0.000
1737562885.322,0.000,-55.664,-58.105,-81.055,0.000
1737562885.326,0.000,-62.500,-60.547,-54.688,0.000
1737562885.330,0.000,-64.941,-51.270,17.578,0.000
1737562885.334,0.000,-46.387,-38.574,33.203,0.000
1737562885.338,0.000,-38.086,-38.086,-62.988,0.000
1737562885.342,0.000,-39.062,-31.738,-135.254,0.000
1737562885.346,-4.395,-31.250,-39.551,-53.711,0.000
1737562885.350,-1.953,-37.598,-58.105,37.598,0.000
1737562885.354,-44.922,-46.875,-60.547,35.645,0.000
1737562885.357,-46.387,-46.875,-56.152,-26.367,0.000
1737562885.361,-20.996,-43.457,-48.340,-80.078,0.000
1737562885.365,-13.184,-48.828,-43.457,-55.176,0.000
1737562885.369,27.832,-56.152,-29.785,14.160,0.000
1737562885.373,0.488,-53.711,-18.066,24.902,0.000
1737562885.377,-75.684,-58.105,-18.555,-30.762,0.000
1737562885.381,-118.652,-65.430,-30.273,-77.148,0.000
1737562885.385,-73.730,-62.500,-27.832,-82.031,0.000
1737562885.389,-22.949,-54.199,-29.297,-23.438,0.000
1737562885.393,-8.789,-52.734,-50.293,15.137,0.000
1737562885.397,-18.555,-56.641,-55.176,-45.898,0.000
1737562885.400,-64.941,-58.594,-58.105,-96.680,0.000
1737562885.404,-40.527,-61.035,-55.176,-46.875,0.000
1737562885.408,-19.531,-64.941,-42.969,36.133,0.000
1737562885.412,18.066,-62.012,-47.852,84.961,0.000
1737562885.416,7.812,-58.105,-51.270,34.668,0.000
1737562885.420,-71.777,-54.688,-54.199,-101.562,0.000
1737562885.424,-58.594,-50.781,-45.410,-126.465,0.000
1737562885.428,-20.508,-56.152,-30.762,-23.926,0.000
1737562885.432,-1.465,-61.035,-28.809,62.500,0.000
1737562885.436,-29.785,-61.035,-33.691,53.223,0.000
1737562885.440,-64.941,-59.082,-35.645,-87.402,0.000
1737562885.443,-59.082,-61.523,-29.785,-137.207,0.000
1737562885.447,-12.695,-60.059,-33.691,-34.180,0.000
1737562885.451,28.320,-57.617,-50.781,15.137,0.000
1737562885.455,-16.113,-62.500,-48.340,-9.277,0.000
1737562885.459,-72.266,-60.547,-41.992,-41.992,0.000
1737562885.463,-33.203,-47.363,-52.734,-58.105,0.000
1737562885.467,-19.043,-46.875,-57.617,-3.906,0.000
1737562885.471,-19.531,-52.246,-44.434,72.266,0.000
1737562885.475,-1.953,-52.734,-27.344,35.645,0.000
1737562885.478,-62.012,-56.152,-20.996,-100.586,0.000
1737562885.482,-89.355,-60.059,-27.832,-170.410,0.000
1737562885.486,-34.668,-60.547,0.000,0.000,0.000
1737562885.490,-2.930,-68.848,0.000,0.000,0.000
1737562885.494,19.043,-76.660,0.000,0.000,0.000
1737562885.498,-24.902,-67.383,0.000,0.000,0.000
1737562885.502,-62.012,-54.688,0.000,0.000,0.000
1737562885.506,3.418,-47.852,0.000,0.000,0.000
1737562885.510,-11.230,-58.105,0.000,0.000,0.000
1737562885.514,-34.180,-71.289,0.000,0.000,0.000
1737562885.518,-65.430,-66.895,0.000,0.000,0.000
1737562885.521,-89.844,-53.711,0.000,0.000,0.000
1737562885.525,-39.551,-45.410,0.000,0.000,0.000
1737562885.529,24.902,-45.410,0.000,0.000,0.000
1737562885.533,0.000,-47.852,-29.785,85.938,0.000
1737562885.537,0.000,-54.199,-32.227,8.301,0.000
1737562885.541,0.000,-59.082,-30.762,-109.863,0.000
1737562885.545,0.000,-55.176,-38.086,-102.539,0.000
1737562885.549,0.000,-39.551,-9.766,13.184,0.000
1737562885.553,0.000,-40.527,10.742,74.707,0.000
1737562885.557,0.000,-40.039,68.848,-7.812,0.000
1737562885.561,0.000,-29.785,110.840,-132.812,0.000
1737562885.564,0.000,-0.977,91.309,-206.055,0.000
1737562885.568,0.000,46.875,13.672,-100.098,0.000
1737562885.572,0.000,-7.324,-120.605,-54.688,0.000
1737562885.576,0.000,-7.324,-105.469,-242.676,0.000
1737562885.580,47.363,27.344,-43.457,-382.812,0.000
1737562885.584,-61.035,-51.270,-46.387,-433.105,0.000
1737562885.588,-62.012,-98.145,-141.113,-437.012,0.000
1737562885.592,-5.859,-62.500,-138.672,-444.336,0.000
1737562885.596,-19.043,40.527,-94.238,-500.488,0.000
1737562885.600,-27.344,79.102,-170.898,-621.582,0.000
1737562885.603,-13.184,-9.277,-129.395,-684.082,0.000
1737562885.607,-28.320,-67.871,-50.781,-657.227,0.000
1737562885.611,-57.129,7.324,-50.293,-600.586,0.000
1737562885.615,0.488,128.906,-14.648,-615.723,0.000
1737562885.619,-25.879,177.246,42.480,-766.113,0.000
1737562885.623,-127.930,225.586,142.578,-795.898,0.000
1737562885.627,-219.238,338.379,254.395,-683.105,0.000
1737562885.631,-114.746,547.363,305.664,-607.910,0.000
1737562885.635,-146.973,820.312,356.445,-648.926,0.000
1737562885.639,-253.418,968.262,399.414,-680.176,0.000
1737562885.643,-264.648,966.797,435.547,-609.863,0.000
1737562885.646,-225.586,968.750,464.355,-457.520,0.000
1737562885.650,-183.105,967.773,485.352,-274.414,0.000
1737562885.654,-209.473,973.145,478.027,-151.855,0.000
1737562885.658,-243.164,950.195,464.844,-124.512,0.000
1737562885.662,-203.125,824.707,433.105,-72.266,0.000
1737562885.666,-192.871,696.289,394.531,-3.906,0.000
1737562885.670,-137.695,597.168,357.910,110.840,0.000
1737562885.674,-86.426,507.812,326.172,223.145,0.000
1737562885.678,-151.855,443.848,304.688,186.523,0.000
1737562885.682,-163.086,398.438,284.668,154.297,0.000
1737562885.686,-114.746,340.820,237.793,230.469,0.000
1737562885.689,-68.359,276.855,166.016,282.715,0.000
1737562885.693,-34.180,226.074,120.117,290.039,0.000
1737562885.697,-92.285,166.504,83.496,266.602,0.000
1737562885.701,-103.027,103.516,38.086,247.070,0.000
1737562885.705,-36.621,54.199,-9.766,263.184,0.000
1737562885.709,16.602,21.973,-64.453,347.168,0.000
1737562885.713,62.500,-14.648,-93.750,393.066,0.000
1737562885.717,28.320,-57.617,-108.887,326.660,0.000
1737562885.721,-28.809,-85.938,-135.254,0.000,0.000
1737562885.725,-5.371,-111.816,-144.531,0.000,0.000
1737562885.728,42.480,-134.277,-153.320,0.000,0.000
1737562885.732,77.148,-158.203,-176.758,0.000,0.000
1737562885.736,51.270,-184.082,-197.754,0.000,0.000
1737562885.740,41.504,-185.059,-200.195,0.000,0.000
1737562885.744,66.406,-199.219,-201.660,0.000,0.000
1737562885.748,65.430,-218.262,-205.078,0.000,0.000
1737562885.752,87.891,-210.449,-198.242,0.000,0.000
1737562885.756,45.898,-211.426,-202.148,0.000,0.000
1737562885.760,30.273,-218.750,-202.637,0.000,0.000
1737562885.764,41.992,-223.145,-201.172,0.000,0.000
1737562885.768,50.781,-220.215,-202.637,202.148,0.000
1737562885.771,136.719,-214.355,-195.801,290.527,0.000
1737562885.775,112.793,-223.145,-188.965,246.582,0.000
1737562885.779,47.363,-236.328,-189.941,72.266,0.000
1737562885.783,42.969,-243.164,-186.523,36.133,0.000
1737562885.787,60.059,-246.094,-163.086,150.879,0.000
1737562885.791,63.965,-236.816,-148.438,239.258,0.000
1737562885.795,64.941,-227.539,-139.648,195.312,0.000
1737562885.799,67.871,-234.863,-137.695,65.430,0.000
1737562885.803,4.395,-232.910,-145.508,-18.555,0.000
1737562885.807,32.227,-222.168,-134.277,79.590,0.000
1737562885.810,102.051,-214.844,-120.605,203.613,0.000
1737562885.814,86.426,-215.820,-127.441,184.570,0.000
1737562885.818,-11.719,-219.727,-128.418,41.504,0.000
1737562885.822,-10.254,-214.844,-123.535,-34.180,0.000
1737562885.826,73.730,-210.449,-126.953,36.621,0.000
1737562885.830,59.570,-211.426,-120.605,149.414,0.000
1737562885.834,24.414,-210.938,-104.004,170.898,0.000
1737562885.838,-11.719,-208.496,-104.492,32.227,0.000
1737562885.842,-2.930,-211.914,-116.699,-65.918,0.000
1737562885.846,56.641,-207.520,-100.586,15.625,0.000
1737562885.850,71.289,-200.684,-93.262,120.117,0.000
1737562885.853,63.965,-190.918,-96.191,127.930,0.000
1737562885.857,50.781,-179.688,-96.191,31.738,0.000
1737562885.861,-28.320,-187.500,-113.281,-35.645,0.000
1737562885.865,-35.645,-184.082,-100.586,-8.789,0.000
1737562885.869,39.062,-170.898,-77.637,70.801,0.000
1737562885.873,41.504,-177.734,-79.102,83.496,0.000
1737562885.877,11.230,-176.270,-75.195,7.324,0.000
1737562885.881,-2.930,-165.039,-62.988,-38.086,0.000
1737562885.885,-1.953,-162.109,-63.965,-14.648,0.000
1737562885.889,30.273,-158.203,-77.637,96.191,0.000
1737562885.892,34.668,-165.527,-65.918,156.250,0.000
1737562885.896,-48.828,-166.504,-49.316,62.500,0.000
1737562885.900,-79.590,-153.320,-45.898,-95.703,0.000
1737562885.904,-6.836,-148.926,-54.688,-91.797,0.000
1737562885.908,28.809,-149.902,-64.941,24.414,0.000
1737562885.912,43.457,-154.297,-49.805,78.125,0.000
1737562885.916,58.594,-152.832,-30.762,54.688,0.000
1737562885.920,-23.438,-153.809,-36.133,2.930,0.000
1737562885.924,-46.875,-153.320,-39.551,-23.438,0.000
1737562885.928,56.641,-139.648,-22.461,40.039,0.000
1737562885.932,84.961,-128.418,-21.484,143.066,0.000
1737562885.935,-40.039,-133.789,-27.832,63.965,0.000
1737562885.939,-88.867,-135.254,-27.344,-68.848,0.000
1737562885.943,-52.734,-130.371,-35.156,-51.270,0.000
1737562885.947,1.953,-131.348,-34.180,10.254,0.000
1737562885.951,58.594,-129.395,-38.086,41.016,0.000
1737562885.955,35.645,-122.070,-43.457,64.453,0.000
1737562885.959,-17.090,-130.371,-40.527,7.324,0.000
1737562885.963,-20.508,-127.930,-37.598,-56.641,0.000
1737562885.967,-29.785,-122.070,-21.973,-22.949,0.000
1737562885.971,2.930,-119.629,-4.883,79.102,0.000
1737562885.975,39.551,-109.375,-8.789,81.543,0.000
1737562885.978,-47.852,-119.629,-19.531,-50.293,0.000
1737562885.982,-75.684,-115.234,-36.133,-99.609,0.000
1737562885.986,24.414,-95.215,-44.922,-9.766,0.000
1737562885.990,54.199,-94.727,-32.227,83.496,0.000
1737562885.994,3.906,-104.980,-14.160,72.754,0.000
1737562885.998,1.953,-107.910,-17.578,-1.465,0.000
1737562886.002,-46.387,-96.680,-18.066,-85.938,0.000
1737562886.006,-80.078,-97.168,-8.789,-68.359,0.000
1737562886.010,11.719,-96.191,-10.742,75.684,0.000
1737562886.014,50.293,-91.309,-16.602,100.586,0.000
1737562886.018,22.461,-86.914,-26.855,13.672,0.000
1737562886.021,-54.688,-87.891,-35.156,-42.969,0.000
1737562886.025,-50.781,-93.262,-31.250,-61.035,0.000
1737562886.029,23.438,-89.844,-18.066,10.254,0.000
1737562886.033,2.441,-94.238,-13.184,55.664,0.000
1737562886.037,-26.855,-102.539,-28.809,-12.695,0.000
1737562886.041,-7.324,-92.773,-35.645,-83.984,0.000
1737562886.045,-43.457,-93.262,-26.855,-84.961,0.000
1737562886.049,-66.406,-98.145,-12.695,23.438,0.000
1737562886.053,30.762,-94.727,-4.395,111.816,0.000
1737562886.057,55.176,-94.238,-9.766,25.879,0.000
1737562886.060,-25.879,-87.402,-21.484,-62.500,0.000
1737562886.064,-44.922,-78.613,-26.367,-45.898,0.000
1737562886.068,9.766,-77.148,-6.348,34.180,0.000
1737562886.072,62.500,-74.219,0.488,83.984,0.000
1737562886.076,8.301,-71.777,-20.996,15.137,0.000
1737562886.080,-77.148,-81.055,-12.695,-96.191,0.000
1737562886.084,-58.105,-88.379,5.371,-110.840,0.000
1737562886.088,-3.418,-85.449,-1.953,-0.977,0.000
1737562886.092,19.043,-73.730,-16.602,115.234,0.000
1737562886.096,-3.906,-67.383,-19.043,96.191,0.000
1737562886.100,-3.418,-80.078,-20.020,-71.289,0.000
1737562886.103,-14.648,-83.008,-15.137,-123.535,0.000
1737562886.107,-29.785,-69.824,-0.488,-22.461,0.000
1737562886.111,12.695,-66.895,-1.953,73.730,0.000
1737562886.115,-8.301,-76.660,-2.441,42.969,0.000
1737562886.119,-79.102,-69.336,4.395,-95.703,0.000
1737562886.123,-55.176,-67.871,7.324,-95.703,0.000
1737562886.127,3.906,-73.730,6.836,5.371,0.000
1737562886.131,51.758,-66.406,7.324,108.887,0.000
1737562886.135,63.965,-64.941,-8.789,56.152,0.000
1737562886.139,-13.672,-68.359,-18.555,-110.840,0.000
1737562886.143,-83.984,-65.430,-18.555,-129.883,0.000
1737562886.146,-37.598,-60.059,-22.461,-38.086,0.000
1737562886.150,28.320,-60.547,-15.137,45.410,0.000
1737562886.154,22.949,-58.105,-12.695,69.824,0.000
1737562886.158,6.836,-62.988,-13.672,-4.883,0.000
1737562886.162,-29.785,-68.359,-19.531,-94.238,0.000
1737562886.166,10.254,-64.453,-22.949,-58.594,0.000
1737562886.170,70.312,-65.430,-14.160,69.336,0.000
1737562886.174,47.852,-57.129,-17.578,114.746,0.000
1737562886.178,-15.625,-52.246,-20.996,12.207,0.000
1737562886.182,-33.691,-48.828,-16.113,-89.844,0.000
1737562886.185,17.090,-33.203,-12.695,-77.148,0.000
1737562886.189,51.758,-22.949,-22.461,22.461,0.000
1737562886.193,47.852,-9.277,-30.273,102.051,0.000
1737562886.197,15.137,-1.953,-28.320,39.062,0.000
1737562886.201,-14.648,-9.766,-35.645,-65.918,0.000
1737562886.205,22.949,-6.348,-33.203,-65.430,0.000
1737562886.209,53.223,6.348,-23.438,17.090,0.000
1737562886.213,20.508,-4.395,-18.066,77.148,0.000
1737562886.217,-36.621,-16.113,-15.625,-11.719,0.000
1737562886.221,-13.672,-11.230,-12.695,-118.164,0.000
1737562886.224,12.207,0.488,-2.930,-82.520,0.000
1737562886.228,16.602,8.301,-3.906,37.598,0.000
1737562886.232,31.250,9.277,-11.719,117.188,0.000
1737562886.236,8.301,-0.488,-29.785,30.762,0.000
1737562886.240,-59.082,-6.836,-44.434,-86.426,0.000
1737562886.244,-33.691,-5.371,-35.156,-106.445,0.000
1737562886.248,11.230,-8.789,-36.133,-42.480,0.000
1737562886.252,-6.348,-5.859,-45.410,72.266,0.000
1737562886.256,-1.465,-10.742,-41.504,68.359,0.000
1737562886.260,3.906,-21.973,-31.738,-56.152,0.000
1737562886.264,12.695,-23.438,-23.438,-115.723,0.000
1737562886.267,12.207,-28.320,-18.066,-30.273,0.000
1737562886.271,20.508,-25.391,-9.766,89.355,0.000
1737562886.275,18.555,-13.184,-21.973,62.012,0.000
1737562886.279,-41.504,-20.996,-50.293,-69.824,0.000
1737562886.283,0.000,-27.344,-47.363,-102.051,0.000
1737562886.287,0.000,-24.902,-30.273,-13.184,0.000
1737562886.291,0.000,-31.250,-28.320,66.406,0.000
1737562886.295,0.000,-30.273,-34.180,60.059,0.000
1737562886.299,0.000,-27.344,-33.203,-69.336,0.000
1737562886.303,0.000,-19.531,-35.645,-128.906,0.000
1737562886.307,0.000,-23.438,-37.109,-49.805,0.000
1737562886.310,0.000,-29.297,-32.715,48.828,0.000
1737562886.314,0.000,-23.926,-42.969,62.012,0.000
1737562886.318,0.000,-33.691,-41.504,-28.809,0.000
1737562886.322,0.000,-39.551,-21.973,-96.680,0.000
1737562886.326,0.000,-32.715,-30.762,-64.453,0.000
1737562886.330,-59.082,-29.297,-44.434,33.691,0.000
1737562886.334,5.371,-34.668,-38.086,68.848,0.000
1737562886.338,27.344,-30.273,-30.762,-13.184,0.000
1737562886.342,-0.977,-30.273,-18.066,-90.820,0.000
1737562886.346,-61.035,-36.133,-15.625,-87.402,0.000
1737562886.349,-60.547,-26.855,-19.531,17.578,0.000
1737562886.353,9.277,-32.715,-26.367,66.406,0.000
1737562886.357,22.949,-47.852,-38.574,-21.973,0.000
1737562886.361,22.461,-46.387,-37.109,-110.840,0.000
1737562886.365,-46.387,-44.434,-33.691,-73.730,0.000
1737562886.369,-83.008,-37.598,-35.645,59.082,0.000
1737562886.373,-20.020,-37.109,-39.551,97.168,0.000
1737562886.377,-25.879,-42.969,-37.598,1.953,0.000
1737562886.381,-44.922,-44.434,-36.621,-120.605,0.000
1737562886.385,-24.414,-44.922,-46.387,-120.605,0.000
1737562886.389,14.160,-53.223,-40.527,8.789,0.000
1737562886.392,37.109,-52.734,-22.949,93.262,0.000
1737562886.396,-17.578,-50.781,-20.508,23.926,0.000
1737562886.400,-98.633,-52.246,-25.391,-85.449,0.000
1737562886.404,-64.453,-46.875,-37.109,-86.426,0.000
1737562886.408,1.465,-44.922,-39.551,3.418,0.000
1737562886.412,7.812,-43.945,-29.297,56.641,0.000
1737562886.416,20.996,-44.922,-29.785,15.625,0.000
1737562886.420,-45.898,-45.410,-31.738,-88.379,0.000
1737562886.424,-91.309,-48.340,-32.715,-117.188,0.000
1737562886.428,-17.578,-42.969,-40.527,-8.301,0.000
1737562886.432,46.387,-38.574,-38.086,82.031,0.000
1737562886.435,56.641,-34.668,-31.738,49.805,0.000
1737562886.439,-52.734,-42.969,-30.762,-60.059,0.000
1737562886.443,-86.914,-49.316,-37.109,-85.938,0.000
1737562886.447,-17.578,-50.781,-36.621,-18.555,0.000
1737562886.451,20.020,-57.129,-30.762,70.801,0.000
1737562886.455,-13.184,-50.293,-43.457,103.516,0.000
1737562886.459,-78.613,-49.316,-43.945,-76.660,0.000
1737562886.463,-38.574,-52.246,-35.156,-167.480,0.000
1737562886.467,-5.859,-46.875,-26.855,-56.152,0.000
1737562886.471,0.000,-43.945,-16.602,53.711,0.000
1737562886.474,-19.043,-48.340,-33.203,69.824,0.000
1737562886.478,-31.738,-47.852,-44.922,-21.973,0.000
1737562886.482,5.371,-38.086,-38.086,-94.727,0.000
1737562886.486,0.000,-45.410,-37.598,-47.852,0.000
1737562886.490,-12.695,-46.387,-54.688,86.426,0.000
1737562886.494,13.672,-38.086,-73.730,110.352,0.000
1737562886.498,-31.250,-39.551,-51.758,-3.906,0.000
1737562886.502,-68.359,-41.992,-59.570,-80.566,0.000
1737562886.506,-52.246,-43.945,-74.219,-45.898,0.000
1737562886.510,-38.086,-46.875,-45.898,22.461,0.000
1737562886.513,-6.836,-36.133,-34.180,62.988,0.000
1737562886.517,-22.949,-32.227,-56.152,0.000,0.000
1737562886.521,-73.242,-34.180,-84.961,0.000,0.000
1737562886.525,-35.156,-18.555,-90.820,0.000,0.000
1737562886.529,-22.949,-30.273,-99.121,0.000,0.000
1737562886.533,-68.848,-44.434,-110.840,0.000,0.000
1737562886.537,-108.398,-39.551,-94.727,0.000,0.000
1737562886.541,-88.867,-27.344,-86.914,0.000,0.000
1737562886.545,-53.223,-20.996,-94.727,0.000,0.000
1737562886.549,-111.328,-13.672,-118.164,0.000,0.000
1737562886.553,-167.480,-3.906,-104.004,0.000,0.000
1737562886.556,-197.266,-6.836,-42.480,0.000,0.000
1737562886.560,-236.328,-10.254,-31.738,0.000,0.000
1737562886.564,-223.633,-10.254,-30.273,-245.605,0.000
1737562886.568,-204.102,-6.836,-41.016,-146.973,0.000
1737562886.572,-210.449,-0.488,-55.176,-100.586,0.000
1737562886.576,-206.055,2.441,-34.668,-159.180,0.000
1737562886.580,-241.699,0.488,-22.949,-213.379,0.000
1737562886.584,-188.477,-4.883,-35.645,-173.340,0.000
1737562886.588,-144.043,-5.859,-39.551,-87.402,0.000
1737562886.592,-131.836,-10.254,-28.809,-1.465,0.000
1737562886.596,-68.848,-19.043,-31.250,-40.527,0.000
1737562886.599,-70.312,-22.949,-22.461,-135.742,0.000
1737562886.603,-48.828,-28.809,-18.555,-61.523,0.000
1737562886.607,-0.977,-24.414,-31.738,55.664,0.000
1737562886.611,35.156,-29.785,-26.367,166.504,0.000
1737562886.615,50.781,-40.527,-24.414,97.656,0.000
1737562886.619,-22.461,-52.734,-39.062,-55.176,0.000
1737562886.623,-20.996,-64.941,-65.430,-2.441,0.000
1737562886.627,55.664,-61.523,-59.082,88.867,0.000
1737562886.631,96.680,-49.805,-60.547,200.195,0.000
1737562886.635,84.961,-55.664,-66.895,205.566,0.000
1737562886.639,31.250,-61.035,-53.223,48.340,0.000
1737562886.642,21.484,-62.988,-47.852,-9.766,0.000
1737562886.646,37.598,-63.965,-34.180,83.496,0.000
1737562886.650,90.332,-60.059,-34.180,196.289,0.000
1737562886.654,116.211,-62.988,-49.316,258.789,0.000
1737562886.658,62.988,-69.824,-42.480,155.273,0.000
1737562886.662,35.645,-74.707,-55.664,62.500,0.000
1737562886.666,65.918,-75.195,-72.754,130.371,0.000
1737562886.670,123.047,-70.312,-60.059,200.684,0.000
1737562886.674,127.441,-62.988,-37.109,205.078,0.000
1737562886.678,58.594,-66.895,-22.949,149.902,0.000
1737562886.681,26.367,-80.566,-30.273,105.957,0.000
1737562886.685,46.387,-79.102,-29.297,104.980,0.000
1737562886.689,100.098,-65.918,-23.438,185.547,0.000
1737562886.693,98.633,-65.430,-31.738,234.375,0.000
1737562886.697,45.410,-61.035,-32.227,119.141,0.000
1737562886.701,37.598,-65.918,-41.504,71.289,0.000
1737562886.705,0.000,-80.566,0.000,0.000,0.000
1737562886.709,0.000,-72.266,0.000,0.000,0.000
1737562886.713,0.000,-56.152,0.000,0.000,0.000
1737562886.717,0.000,-52.246,0.000,0.000,0.000
1737562886.721,0.000,-59.082,0.000,0.000,0.000
1737562886.724,0.000,-60.547,0.000,0.000,0.000
1737562886.728,0.000,-57.129,0.000,0.000,0.000
1737562886.732,0.000,-57.129,0.000,0.000,0.000
1737562886.736,0.000,-58.594,0.000,0.000,0.000
1737562886.740,0.000,-60.059,0.000,0.000,0.000
1737562886.744,0.000,-48.828,0.000,0.000,0.000
1737562886.748,0.000,-44.922,0.000,0.000,0.000
1737562886.752,126.953,-41.504,-27.344,268.555,0.000
1737562886.756,90.332,-39.551,-17.578,180.664,0.000
1737562886.760,30.273,-56.641,-2.930,54.688,0.000
1737562886.764,65.430,-62.500,-2.441,138.184,0.000
1737562886.767,72.754,-51.270,-10.742,182.129,0.000
1737562886.771,65.430,-42.969,-7.812,185.059,0.000
1737562886.775,58.105,-37.109,-8.301,198.242,0.000
1737562886.779,62.500,-45.898,-29.297,141.113,0.000
1737562886.783,76.172,-43.457,-27.344,96.191,0.000
1737562886.787,41.504,-31.250,0.488,116.699,0.000
1737562886.791,36.621,-42.480,1.465,163.086,0.000
1737562886.795,33.203,-56.152,-9.766,154.297,0.000
1737562886.799,21.973,-62.012,-17.578,53.711,0.000
1737562886.803,20.020,-51.270,-15.137,33.203,0.000
1737562886.807,18.555,-46.875,-12.207,150.879,0.000
1737562886.810,34.668,-60.547,-14.648,245.117,0.000
1737562886.814,16.113,-62.500,-12.207,220.703,0.000
1737562886.818,14.160,-53.223,-13.672,67.871,0.000
1737562886.822,-4.395,-52.246,-4.395,-28.320,0.000
1737562886.826,-17.090,-47.363,-5.859,90.332,0.000
1737562886.830,42.480,-42.969,-36.621,213.867,0.000
1737562886.834,8.789,-54.688,-28.809,151.855,0.000
1737562886.838,-19.531,-47.363,-3.906,52.246,0.000
1737562886.842,-10.742,-35.156,-6.348,42.969,0.000
1737562886.846,-8.789,-37.109,-7.812,79.590,0.000
1737562886.849,3.418,-49.316,-2.930,131.836,0.000
1737562886.853,-60.059,-66.406,-12.207,142.090,0.000
1737562886.857,-85.938,-59.082,-32.715,41.992,0.000
1737562886.861,-74.219,-50.781,-23.438,-26.855,0.000
1737562886.865,-83.984,-53.711,0.488,-12.695,0.000
1737562886.869,-54.688,-51.270,-8.301,71.289,0.000
1737562886.873,-48.340,-49.805,-32.715,77.148,0.000
1737562886.877,-78.613,-60.547,-22.949,-32.715,0.000
1737562886.881,-75.684,-62.988,-4.395,-67.871,0.000
1737562886.885,-58.105,-56.641,-4.395,-20.996,0.000
1737562886.888,-75.684,-54.688,-15.137,55.176,0.000
1737562886.892,-41.992,-45.898,-26.855,51.758,0.000
1737562886.896,-35.156,-41.016,-37.109,17.090,0.000
1737562886.900,-126.465,-47.852,-33.203,-43.945,0.000
1737562886.904,-157.715,-45.410,-27.832,-137.207,0.000
1737562886.908,-78.125,-36.133,-31.738,-76.172,0.000
1737562886.912,-53.711,-38.086,-27.344,-14.160,0.000
1737562886.916,-82.520,-46.875,-19.043,-76.660,0.000
1737562886.920,-86.426,-44.922,-26.367,-165.039,0.000
1737562886.924,-125.488,-48.828,-47.852,-173.828,0.000
1737562886.928,-119.141,-58.594,-46.387,-83.984,0.000
1737562886.931,-55.664,-65.918,-41.016,-29.785,0.000
1737562886.935,-55.664,-68.359,-47.852,-65.918,0.000
1737562886.939,0.000,-59.082,-47.363,-180.664,0.000
1737562886.943,0.000,-44.922,-48.340,-230.469,0.000
1737562886.947,0.000,-36.621,-47.363,-208.008,0.000
1737562886.951,0.000,-39.062,-45.410,-161.133,0.000
1737562886.955,0.000,-49.316,-35.645,-144.043,0.000
1737562886.959,0.000,-53.223,-33.691,-238.281,0.000
1737562886.963,0.000,-50.293,-48.340,-250.977,0.000
1737562886.967,0.000,-50.781,-50.293,-147.949,0.000
1737562886.971,0.000,-50.781,-38.086,-160.156,0.000
1737562886.974,0.000,-54.199,-13.184,-249.512,0.000
1737562886.978,0.000,-59.570,-13.184,-297.852,0.000
1737562886.982,0.000,-53.711,-36.621,-280.762,0.000
1737562886.986,2.930,-45.898,-35.645,-231.934,0.000
1737562886.990,-13.672,-50.781,-25.879,-196.777,0.000
1737562886.994,-62.012,-50.293,-15.137,-152.832,0.000
1737562886.998,-65.918,-37.598,-7.812,-188.965,0.000
1737562887.002,-49.805,-29.785,-10.254,-232.422,0.000
1737562887.006,-6.348,-28.809,-23.438,-191.406,0.000
1737562887.010,-9.277,-29.297,-41.504,-154.297,0.000
1737562887.013,-60.059,-29.297,-32.227,-101.074,0.000
1737562887.017,-85.449,-40.527,-19.043,-143.555,0.000
1737562887.021,-79.590,-54.199,-20.996,-211.426,0.000
1737562887.025,-22.461,-49.316,-20.508,-168.945,0.000
1737562887.029,-52.246,-41.016,-38.574,-89.844,0.000
1737562887.033,0.000,-38.574,-59.082,-69.824,0.000
1737562887.037,0.000,-50.781,-42.969,-136.230,0.000
1737562887.041,0.000,-59.082,-19.043,-195.312,0.000
1737562887.045,0.000,-59.082,-19.043,-120.605,0.000
1737562887.049,0.000,-63.477,-27.344,20.996,0.000
1737562887.053,0.000,-59.082,-33.691,101.562,0.000
1737562887.056,0.000,-57.129,-37.109,85.938,0.000
1737562887.060,0.000,-59.570,-43.945,44.922,0.000
1737562887.064,0.000,-50.293,-47.852,115.723,0.000
1737562887.068,0.000,-48.340,-41.992,197.754,0.000
1737562887.072,0.000,-50.293,-32.227,230.469,0.000
1737562887.076,0.000,-47.852,-27.344,198.730,0.000
1737562887.080,-44.434,-45.898,-37.598,136.230,0.000
1737562887.084,-14.160,-53.711,-39.062,105.957,0.000
1737562887.088,1.465,-53.223,-34.180,124.023,0.000
1737562887.092,-24.902,-48.828,-38.574,165.039,0.000
1737562887.096,-63.477,-46.387,-25.391,125.977,0.000
1737562887.099,-62.500,-42.969,-17.090,0.977,0.000
1737562887.103,-24.414,-40.039,-21.973,-25.391,0.000
1737562887.107,1.953,-34.668,-20.020,52.734,0.000
1737562887.111,-17.090,-47.852,-24.414,87.891,0.000
1737562887.115,-23.926,-57.617,-31.250,42.480,0.000
1737562887.119,1.953,-45.410,-37.109,-18.555,0.000
1737562887.123,-34.180,-41.016,-35.156,-31.738,0.000
1737562887.127,-28.320,-47.363,-29.785,-12.695,0.000
1737562887.131,-2.930,-42.480,-40.039,33.691,0.000
1737562887.135,-31.250,-40.527,-42.969,-1.465,0.000
1737562887.138,-76.172,-47.852,-36.133,-85.938,0.000
1737562887.142,-83.496,-43.945,-30.762,-110.352,0.000
1737562887.146,2.441,-37.598,-24.414,-71.289,0.000
1737562887.150,23.926,-50.781,-33.203,-11.230,0.000
1737562887.154,-26.367,-58.594,-50.293,-13.672,0.000
1737562887.158,-41.992,-55.176,-46.387,-90.820,0.000
1737562887.162,-8.789,-53.711,-29.297,-151.855,0.000
1737562887.166,-54.688,-58.594,-33.691,-137.207,0.000
1737562887.170,-107.422,-50.781,-38.086,-58.105,0.000
1737562887.174,-37.109,-41.992,-35.645,-28.809,0.000
1737562887.178,-0.488,-49.805,-35.645,-76.660,0.000
1737562887.181,-24.414,-56.152,-26.367,-143.555,0.000
1737562887.185,-44.434,-50.293,-25.391,-147.949,0.000
1737562887.189,-41.016,-51.758,-32.227,-63.477,0.000
1737562887.193,-9.277,-51.270,-43.457,-0.488,0.000
1737562887.197,16.602,-44.434,-57.617,-74.219,0.000
1737562887.201,-8.301,-50.293,-52.734,-171.387,0.000
1737562887.205,-40.527,-56.641,-47.363,-179.199,0.000
1737562887.209,-59.082,-55.664,-56.152,-119.141,0.000
1737562887.213,-39.551,-52.246,-54.199,-46.387,0.000
1737562887.217,-8.301,-60.059,-53.711,-83.984,0.000
1737562887.221,-13.672,-63.965,-51.758,-204.590,0.000
1737562887.224,-7.812,-60.547,-43.945,-204.590,0.000
1737562887.228,-19.531,-61.523,-45.898,-112.793,0.000
1737562887.232,-66.895,-59.082,-42.480,-59.570,0.000
1737562887.236,-104.004,-60.059,-34.668,-82.520,0.000
1737562887.240,-122.559,-61.035,-31.738,-163.574,0.000
1737562887.244,-102.539,-68.359,-33.691,-180.176,0.000
1737562887.248,-20.996,-63.477,-37.598,-100.098,0.000
1737562887.252,0.977,-48.340,-48.828,-45.410,0.000
1737562887.256,-54.199,-45.898,-66.895,-69.824,0.000
1737562887.260,-64.453,-44.434,-83.496,-117.188,0.000
1737562887.263,-86.426,-40.039,-115.234,-150.391,0.000
1737562887.267,-112.305,-52.734,0.000,-100.586,0.000
1737562887.271,-63.965,-55.664,0.000,-23.926,0.000
1737562887.275,-66.406,-43.457,0.000,-33.203,0.000
1737562887.279,-55.664,-41.504,0.000,-103.027,0.000
1737562887.283,-21.484,-46.387,0.000,-127.930,0.000
1737562887.287,-16.602,-43.457,0.000,-77.637,0.000
1737562887.291,-4.395,-40.039,0.000,-30.762,0.000
1737562887.295,-36.621,-43.945,0.000,-60.547,0.000
1737562887.299,-83.496,-42.969,0.000,-166.504,0.000
1737562887.303,-115.723,-41.504,0.000,-194.824,0.000
1737562887.306,-108.398,-46.387,0.000,-123.535,0.000
1737562887.310,-51.758,-45.898,0.000,-45.410,0.000
1737562887.314,-14.648,-41.992,-106.445,-46.387,0.000
1737562887.318,-33.203,-37.109,-101.074,-139.160,0.000
1737562887.322,-47.852,-37.109,-93.750,-145.508,0.000
1737562887.326,-82.031,-45.410,-80.566,-88.379,0.000
1737562887.330,-138.672,-56.641,-69.824,-70.801,0.000
1737562887.334,-90.820,-53.223,-66.406,-59.570,0.000
1737562887.338,-68.848,-53.711,-58.105,-116.211,0.000
1737562887.342,-124.023,-61.523,-58.105,-166.016,0.000
1737562887.345,-104.492,-57.129,-64.453,-166.992,0.000
1737562887.349,-89.355,-55.176,-63.477,-121.094,0.000
1737562887.353,-72.754,-54.199,-64.941,-75.684,0.000
1737562887.357,-78.125,-53.223,-68.359,-135.254,0.000
1737562887.361,-103.027,-51.270,-67.871,-215.332,0.000
1737562887.365,-70.801,-56.641,-71.777,-197.754,0.000
1737562887.369,-64.941,-53.223,-81.543,-96.191,0.000
1737562887.373,-72.754,-48.340,-90.820,-46.875,0.000
1737562887.377,-98.633,-60.547,-92.285,-110.840,0.000
1737562887.381,-115.234,-56.152,-83.008,-184.570,0.000
1737562887.385,-93.262,-52.246,-78.125,-157.715,0.000
1737562887.388,-65.918,-61.035,-82.031,-100.098,0.000
1737562887.392,-50.781,-52.734,-88.867,-103.516,0.000
1737562887.396,-91.797,-55.664,-92.773,-162.598,0.000
1737562887.400,-83.984,-60.547,-88.867,-168.457,0.000
1737562887.404,-83.496,-68.848,-90.820,-193.848,0.000
1737562887.408,-103.516,-99.121,-100.098,-184.570,0.000
1737562887.412,-73.730,-130.371,-109.863,-118.652,0.000
1737562887.416,-69.824,-140.137,-114.746,-145.996,0.000
1737562887.420,-98.633,-147.949,-119.629,-217.773,0.000
1737562887.424,-106.445,-166.992,-133.301,-244.141,0.000
1737562887.428,-102.051,-174.316,-133.789,-210.449,0.000
1737562887.431,-106.934,-169.434,-125.977,-135.254,0.000
1737562887.435,-76.172,-169.434,-124.512,-119.629,0.000
1737562887.439,-124.023,-175.293,-130.371,-207.031,0.000
1737562887.443,-137.207,-172.852,-131.836,-240.723,0.000
1737562887.447,-104.492,-168.457,-127.441,-184.082,0.000
1737562887.451,-116.699,-171.875,-124.023,-130.859,0.000
1737562887.455,-121.094,-174.805,-130.371,0.000,0.000
1737562887.459,-119.629,-169.922,-134.766,0.000,0.000
1737562887.463,-108.887,-168.945,-138.184,0.000,0.000
1737562887.467,-113.770,-179.199,-147.949,0.000,0.000
1737562887.470,-123.535,-185.547,-157.715,0.000,0.000
1737562887.474,-144.531,-191.895,-167.969,0.000,0.000
1737562887.478,-135.742,-214.355,-181.152,0.000,0.000
1737562887.482,-177.246,-240.723,-209.473,0.000,0.000
1737562887.486,-230.957,-248.535,-230.469,0.000,0.000
1737562887.490,-229.980,-273.926,-249.023,0.000,0.000
1737562887.494,-199.707,-308.594,-286.133,0.000,0.000
1737562887.498,-270.508,-334.473,-303.711,0.000,0.000
1737562887.502,-346.680,-355.469,-302.734,-401.367,0.000
1737562887.506,-312.988,-376.953,-320.312,-426.758,0.000
1737562887.510,-333.984,-395.020,-353.027,-375.000,0.000
1737562887.513,-325.684,-391.113,-356.445,-328.613,0.000
1737562887.517,-330.566,-426.270,-375.488,-389.648,0.000
1737562887.521,-386.719,-467.285,-407.227,-475.586,0.000
1737562887.525,-334.473,-428.223,-358.887,-455.566,0.000
1737562887.529,-234.863,-361.328,-275.879,-334.473,0.000
1737562887.533,-208.496,-354.492,-241.699,-241.211,0.000
1737562887.537,-219.238,-391.602,-255.371,-287.109,0.000
1737562887.541,-163.574,-395.508,-259.277,-331.543,0.000
1737562887.545,-187.012,-419.434,-286.621,-323.242,0.000
1737562887.549,-238.770,-464.844,-366.211,-298.340,0.000
1737562887.553,-207.031,-475.586,-436.035,-286.133,0.000
1737562887.556,-223.633,-480.957,-476.562,-319.336,0.000
1737562887.560,-304.199,-509.766,-538.086,-424.316,0.000
1737562887.564,-323.242,-541.992,-625.977,-484.863,0.000
1737562887.568,-312.988,-566.895,-702.148,-461.426,0.000
1737562887.572,-348.633,-596.191,-753.418,-390.625,0.000
1737562887.576,-363.770,-632.324,-804.199,-392.090,0.000
1737562887.580,-415.527,-676.270,-860.352,-480.469,0.000
1737562887.584,-472.656,-713.379,-910.645,-506.836,0.000
1737562887.588,-445.312,-741.699,-951.172,-559.570,0.000
1737562887.592,-505.859,-771.973,-984.863,-579.102,0.000
1737562887.596,-574.219,-792.969,-1000.000,-600.586,0.000
1737562887.599,-558.594,-812.500,-1000.000,-683.105,0.000
1737562887.603,-540.527,-826.172,-1000.000,-684.082,0.000
1737562887.607,-557.617,-837.891,-1000.000,-651.367,0.000
1737562887.611,-583.496,-841.797,-999.512,-626.465,0.000
1737562887.615,-527.344,-822.266,-1000.000,-602.051,0.000
1737562887.619,-495.117,-808.594,-996.094,-619.141,0.000
1737562887.623,-462.402,-801.270,-974.609,-591.309,0.000
1737562887.627,-520.508,-791.016,-935.059,-588.379,0.000
1737562887.631,-580.078,-769.043,-901.367,-558.105,0.000
1737562887.635,-471.191,-749.023,-870.605,-480.957,0.000
1737562887.638,-390.625,-731.934,-829.102,-489.258,0.000
1737562887.642,0.000,-702.148,-796.875,0.000,0.000
1737562887.646,0.000,-688.965,-761.719,0.000,0.000
1737562887.650,0.000,-670.898,-739.258,0.000,0.000
1737562887.654,0.000,-624.023,-718.262,0.000,0.000
1737562887.658,0.000,-590.820,-694.336,0.000,0.000
1737562887.662,0.000,-571.777,-673.828,0.000,0.000
1737562887.666,0.000,-549.316,-633.301,0.000,0.000
1737562887.670,0.000,-534.180,-599.121,0.000,0.000
1737562887.674,0.000,-515.137,-583.984,0.000,0.000
1737562887.677,0.000,-492.188,-556.641,0.000,0.000
1737562887.681,0.000,-471.191,-529.297,0.000,0.000
1737562887.685,0.000,-455.566,-515.625,0.000,0.000
1737562887.689,-377.441,-435.547,-497.070,-266.113,0.000
1737562887.693,-354.492,-408.203,-471.191,-230.957,0.000
1737562887.697,-326.660,-391.602,-441.895,-247.070,0.000
1737562887.701,-336.914,-374.023,-401.367,-279.785,0.000
1737562887.705,-351.562,-351.074,-342.773,-263.672,0.000
1737562887.709,-344.727,-330.078,-273.926,-211.914,0.000
1737562887.713,-288.086,-331.543,-228.027,-181.152,0.000
1737562887.717,-263.184,-336.914,-187.500,-193.848,0.000
1737562887.720,-264.648,-326.172,-136.230,-264.160,0.000
1737562887.724,-259.277,-322.266,-100.098,-264.160,0.000
1737562887.728,-285.645,-313.477,-80.566,-189.453,0.000
1737562887.732,-259.277,-295.410,-71.289,-127.441,0.000
1737562887.736,-126.465,-277.832,-45.898,-133.789,0.000
1737562887.740,-132.812,-260.742,-16.113,-202.637,0.000
1737562887.744,-137.695,-252.441,-9.766,-233.398,0.000
1737562887.748,-93.262,-234.375,9.277,-193.848,0.000
1737562887.752,-77.637,-209.473,38.086,-121.582,0.000
1737562887.756,-109.375,-201.172,42.480,-135.254,0.000
1737562887.759,-112.305,-193.848,48.828,-194.336,0.000
1737562887.763,-134.277,-185.059,72.754,-219.238,0.000
1737562887.767,-114.746,-167.480,146.484,-191.406,0.000
1737562887.771,-75.684,-176.270,143.066,-117.676,0.000
1737562887.775,-93.750,-173.340,67.383,-176.758,0.000
1737562887.779,-130.859,-144.043,84.961,-293.457,0.000
1737562887.783,-198.242,-104.492,152.344,-358.398,0.000
1737562887.787,-201.660,-64.453,64.941,-332.520,0.000
1737562887.791,-168.945,-118.652,-56.152,-335.449,0.000
1737562887.795,-260.742,-181.152,32.227,-492.188,0.000
1737562887.799,-332.520,-167.969,219.727,-648.926,0.000
1737562887.802,-261.719,-86.426,339.355,-668.457,0.000
1737562887.806,-192.871,-99.121,433.594,-645.996,0.000
1737562887.810,-162.109,-100.586,563.477,-638.184,0.000
1737562887.814,-131.348,-114.258,500.000,-636.719,0.000
1737562887.818,-110.840,-217.285,453.125,-809.082,0.000
1737562887.822,-103.516,-182.129,587.402,-975.586,0.000
1737562887.826,-36.133,52.734,599.609,-949.219,0.000
1737562887.830,-36.621,208.496,595.703,-977.539,0.000
1737562887.834,3.418,428.711,789.551,-1000.000,0.000
1737562887.838,122.070,846.680,962.402,-998.535,0.000
1737562887.842,87.891,982.422,970.215,-1000.000,0.000
1737562887.845,74.219,959.961,966.797,-1000.000,0.000
1737562887.849,29.785,970.703,971.680,-1000.000,0.000
1737562887.853,-26.367,971.191,970.703,-1000.000,0.000
1737562887.857,-70.312,971.191,970.703,-1000.000,0.000
1737562887.861,-72.754,970.703,970.703,-1000.000,0.000
1737562887.865,-38.086,971.191,970.703,-1000.000,0.000
1737562887.869,-53.711,971.191,970.703,-1000.000,0.000
1737562887.873,-45.410,970.703,971.191,-996.582,0.000
1737562887.877,0.000,970.703,0.000,0.000,0.000
1737562887.881,0.000,970.703,0.000,0.000,0.000
1737562887.885,0.000,970.703,0.000,0.000,0.000
1737562887.888,0.000,970.703,0.000,0.000,0.000
1737562887.892,0.000,970.703,0.000,0.000,0.000
1737562887.896,0.000,970.703,0.000,0.000,0.000
1737562887.900,0.000,970.703,0.000,0.000,0.000
1737562887.904,0.000,970.703,0.000,0.000,0.000
1737562887.908,0.000,970.703,0.000,0.000,0.000
1737562887.912,0.000,970.703,0.000,0.000,0.000
1737562887.916,0.000,970.703,0.000,0.000,0.000
