timestamps,TP9,AF7,AF8,TP10,Right AUX
1737558639.402,-20.020,-5.859,-30.762,-33.203,0.000
1737558639.406,-23.926,-9.277,-24.414,-34.668,0.000
1737558639.410,-50.293,-14.160,-23.438,-99.121,0.000
1737558639.413,-44.922,-17.578,-25.879,-111.328,0.000
1737558639.417,-19.531,-15.137,-19.531,-59.570,0.000
1737558639.421,0.000,-10.742,-15.137,4.883,0.000
1737558639.425,-7.324,-13.672,-16.113,6.348,0.000
1737558639.429,-50.781,-22.461,-30.273,-82.520,0.000
1737558639.433,-62.988,-28.809,-43.945,-131.836,0.000
1737558639.437,-33.203,-28.320,-37.109,-95.215,0.000
1737558639.441,4.883,-15.625,-18.555,-26.367,0.000
1737558639.445,-4.883,-13.672,-20.020,-32.227,0.000
1737558639.449,-34.668,-17.578,-28.320,-117.188,0.000
1737558639.453,-38.574,-13.184,-24.414,-150.391,0.000
1737558639.456,-25.391,-14.160,-27.832,-112.305,0.000
1737558639.460,3.906,-10.742,-26.855,-28.809,0.000
1737558639.464,1.465,-8.789,-20.508,15.137,0.000
1737558639.468,-30.762,-16.113,-29.785,-42.480,0.000
1737558639.472,-40.527,-16.602,-30.762,-83.496,0.000
1737558639.476,-25.879,-13.672,-30.762,-74.219,0.000
1737558639.480,2.930,-12.207,-26.855,-5.371,0.000
1737558639.484,-2.930,-12.207,-26.855,53.223,0.000
1737558639.488,-26.855,-12.207,-34.180,-15.625,0.000
1737558639.492,-31.738,-7.812,-26.855,-75.195,0.000
1737558639.496,-12.695,-5.859,-27.344,-55.176,0.000
1737558639.499,11.230,-4.395,-22.949,2.930,0.000
1737558639.503,11.230,-7.324,-9.766,36.133,0.000
1737558639.507,-21.973,-12.695,-12.695,-41.504,0.000
1737558639.511,-41.016,-14.648,-18.555,-126.465,0.000
1737558639.515,-29.785,-14.160,-24.902,-146.484,0.000
1737558639.519,-4.883,-12.207,-23.926,-130.371,0.000
1737558639.523,-0.488,-11.230,-10.742,-75.195,0.000
1737558639.527,-24.414,-10.254,-15.625,-80.078,0.000
1737558639.531,-38.574,-11.719,-23.438,-132.324,0.000
1737558639.535,-37.598,-5.371,-17.090,-134.277,0.000
1737558639.538,-19.531,-2.441,-14.648,-95.215,0.000
1737558639.542,-4.395,-8.301,-14.160,-20.020,0.000
1737558639.546,-27.344,-15.137,-20.996,-16.602,0.000
1737558639.550,-49.805,-19.531,-36.133,-87.891,0.000
1737558639.554,-45.898,-26.367,-41.504,-100.098,0.000
1737558639.558,-13.672,-25.879,-23.926,-49.316,0.000
1737558639.562,8.301,-17.090,-16.602,22.949,0.000
1737558639.566,-24.902,-21.484,-27.832,30.762,0.000
1737558639.570,-54.688,-29.297,-28.809,-30.762,0.000
1737558639.574,-50.781,-23.926,-23.438,-64.941,0.000
1737558639.578,-24.414,-18.555,-18.066,-29.297,0.000
1737558639.581,4.883,-16.602,-13.672,47.363,0.000
1737558639.585,-10.742,-22.949,-20.020,54.199,0.000
1737558639.589,-45.898,-35.645,-32.227,-36.133,0.000
1737558639.593,-46.875,-32.715,-30.273,-86.426,0.000
1737558639.597,-25.879,-24.414,-22.461,-53.223,0.000
1737558639.601,-1.465,-18.066,-24.414,12.207,0.000
1737558639.605,-5.371,-20.508,-34.668,41.992,0.000
1737558639.609,-33.691,-22.461,-36.133,-11.230,0.000
1737558639.613,-40.527,-17.090,-20.996,-60.547,0.000
1737558639.617,-25.879,-24.414,-14.160,-44.922,0.000
1737558639.621,-5.371,-24.902,-9.766,34.668,0.000
1737558639.624,-6.348,-19.531,-18.066,82.031,0.000
1737558639.628,-29.785,-23.438,-41.504,29.297,0.000
1737558639.632,-39.062,-21.973,-34.180,-24.902,0.000
1737558639.636,-23.438,-17.090,-15.137,-11.230,0.000
1737558639.640,-4.395,-20.020,-13.184,37.598,0.000
1737558639.644,5.859,-15.137,-10.254,69.336,0.000
1737558639.648,-19.043,-17.578,-19.531,-7.324,0.000
1737558639.652,-34.180,-24.414,-38.086,-95.703,0.000
1737558639.656,-14.160,-17.090,-31.250,-76.172,0.000
1737558639.660,7.324,-13.672,-20.508,-5.371,0.000
1737558639.663,23.438,-12.695,-12.695,51.270,0.000
1737558639.667,-4.395,-14.160,-5.859,4.883,0.000
1737558639.671,-33.203,-21.973,-13.184,-62.012,0.000
1737558639.675,-14.648,-19.531,-17.090,-37.109,0.000
1737558639.679,11.719,-9.277,-11.719,25.391,0.000
1737558639.683,19.043,-3.418,-18.555,0.000,0.000
1737558639.687,2.930,-1.953,-24.902,0.000,0.000
1737558639.691,-23.926,-10.254,-24.414,0.000,0.000
1737558639.695,-32.227,-19.043,-26.367,0.000,0.000
1737558639.699,-3.906,-16.113,-26.855,0.000,0.000
1737558639.703,13.672,-5.371,-24.902,0.000,0.000
1737558639.706,-17.578,-14.648,-23.438,0.000,0.000
1737558639.710,-55.176,-26.855,-22.461,0.000,0.000
1737558639.714,-51.758,-23.438,-20.508,0.000,0.000
1737558639.718,-20.020,-20.996,-18.555,0.000,0.000
1737558639.722,-5.371,-20.020,-18.066,0.000,0.000
1737558639.726,-27.832,-23.926,-18.555,0.000,0.000
1737558639.730,-51.758,-26.367,-26.367,20.020,0.000
1737558639.734,-46.387,-21.973,-30.762,14.160,0.000
1737558639.738,-31.738,-20.020,-20.508,71.289,0.000
1737558639.742,-24.902,-17.090,-11.719,121.094,0.000
1737558639.746,-26.855,-15.625,-7.324,104.004,0.000
1737558639.749,-49.316,-17.090,-14.648,21.484,0.000
1737558639.753,-61.523,-18.555,-21.484,-25.391,0.000
1737558639.757,-34.668,-23.926,-16.602,5.371,0.000
1737558639.761,3.418,-20.996,-16.602,67.871,0.000
1737558639.765,-17.578,-18.555,-22.949,63.965,0.000
1737558639.769,-50.781,-20.020,-25.879,-20.996,0.000
1737558639.773,-40.039,-22.461,-22.949,-67.871,0.000
1737558639.777,0.000,-22.949,-13.672,-37.598,0.000
1737558639.781,0.000,-18.066,-7.812,16.113,0.000
1737558639.785,0.000,-19.043,-6.836,26.367,0.000
1737558639.789,0.000,-24.902,-6.836,-44.434,0.000
1737558639.793,0.000,-25.391,-9.277,-79.102,0.000
1737558639.796,0.000,-18.555,-7.812,-22.949,0.000
1737558639.800,0.000,-15.625,-5.371,70.312,0.000
1737558639.804,0.000,-24.414,-6.348,88.867,0.000
1737558639.808,0.000,-35.156,-18.555,2.441,0.000
1737558639.812,0.000,-32.715,-32.227,-57.617,0.000
1737558639.816,0.000,-27.832,-31.738,-36.621,0.000
1737558639.820,0.000,-18.555,-18.555,32.715,0.000
1737558639.824,1.465,-16.602,-10.742,79.590,0.000
1737558639.828,-16.113,-25.879,-18.066,7.812,0.000
1737558639.832,-34.180,-26.367,-24.414,-77.148,0.000
1737558639.836,-9.277,-18.555,-20.996,-46.875,0.000
1737558639.839,13.672,-11.230,-15.137,32.227,0.000
1737558639.843,5.859,-13.672,-14.648,84.961,0.000
1737558639.847,-20.020,-19.043,-21.484,40.039,0.000
1737558639.851,-44.434,-21.973,-31.250,-49.316,0.000
1737558639.855,-29.785,-22.949,-31.738,-43.457,0.000
1737558639.859,-9.277,-16.602,-28.809,21.973,0.000
1737558639.863,-6.348,-12.695,-25.391,85.449,0.000
1737558639.867,-22.949,-17.090,-21.973,70.312,0.000
1737558639.871,-52.246,-17.090,-26.855,3.418,0.000
1737558639.875,-39.551,-19.043,-28.809,-3.418,0.000
1737558639.879,-11.230,-20.020,-22.949,44.922,0.000
1737558639.882,-2.930,-18.066,-18.066,91.309,0.000
1737558639.886,-18.066,-20.508,-12.695,76.172,0.000
1737558639.890,-48.340,-30.273,-16.602,-7.324,0.000
1737558639.894,-59.082,-28.320,-19.043,-40.039,0.000
1737558639.898,-30.273,-22.949,-14.160,15.137,0.000
1737558639.902,-1.953,-21.973,-8.301,83.984,0.000
1737558639.906,-30.273,-25.391,-9.277,71.289,0.000
1737558639.910,-63.477,-31.738,-19.043,0.977,0.000
1737558639.914,-52.246,-30.762,-22.949,-18.555,0.000
1737558639.918,-20.508,-31.738,0.000,37.598,0.000
1737558639.922,-0.977,-28.809,0.000,129.883,0.000
1737558639.925,-17.090,-27.344,0.000,147.949,0.000
1737558639.929,-56.152,-35.156,0.000,66.406,0.000
1737558639.933,-62.012,-35.156,0.000,32.715,0.000
1737558639.937,-36.133,-25.879,0.000,77.637,0.000
1737558639.941,-3.418,-20.996,0.000,128.418,0.000
1737558639.945,-8.301,-26.367,0.000,127.930,0.000
1737558639.949,-41.016,-30.273,0.000,62.500,0.000
1737558639.953,-42.969,-25.879,0.000,18.066,0.000
1737558639.957,-16.602,-22.949,0.000,47.852,0.000
1737558639.961,-5.859,-23.438,0.000,106.445,0.000
1737558639.965,-2.930,-19.043,-11.230,136.719,0.000
1737558639.968,-7.812,-20.020,-23.438,70.801,0.000
1737558639.972,-27.832,-24.414,-30.273,-3.418,0.000
1737558639.976,-21.973,-22.461,-31.250,11.719,0.000
1737558639.980,6.348,-14.160,-22.461,75.195,0.000
1737558639.984,11.719,-8.789,-15.137,116.699,0.000
1737558639.988,-9.766,-14.648,-21.973,62.500,0.000
1737558639.992,-41.504,-22.949,-27.832,-1.953,0.000
1737558639.996,-45.410,-21.973,-23.926,-7.812,0.000
1737558640.000,-14.160,-24.902,-14.648,39.551,0.000
1737558640.004,11.719,-19.531,-7.324,97.656,0.000
1737558640.007,-11.230,-11.230,-2.930,58.594,0.000
1737558640.011,-39.551,-13.672,-13.672,-13.184,0.000
1737558640.015,-27.832,-6.836,-26.367,-16.113,0.000
1737558640.019,-7.812,-2.441,-22.461,19.043,0.000
1737558640.023,8.301,0.977,-11.230,65.430,0.000
1737558640.027,-11.719,-3.418,-6.348,23.438,0.000
1737558640.031,-40.527,-10.742,-8.301,-72.754,0.000
1737558640.035,-42.969,-15.625,-8.301,-104.004,0.000
1737558640.039,-29.785,-19.531,-4.883,-62.500,0.000
1737558640.043,-3.906,-14.648,-4.395,3.906,0.000
1737558640.046,-8.789,-12.207,-9.277,-19.043,0.000
1737558640.050,-35.156,-16.113,-15.625,-89.844,0.000
1737558640.054,-35.156,-20.508,-18.066,-104.492,0.000
1737558640.058,-13.672,-14.160,-14.648,-60.059,0.000
1737558640.062,-2.441,-8.301,-10.742,-0.977,0.000
1737558640.066,-14.160,-11.230,-14.648,-33.691,0.000
1737558640.070,-44.434,-16.602,-24.902,-132.324,0.000
1737558640.074,-48.828,-21.484,-26.367,-160.645,0.000
1737558640.078,-25.879,-15.625,-18.555,-107.422,0.000
1737558640.082,-9.277,-11.719,-16.602,-43.945,0.000
1737558640.086,-9.766,-13.184,-23.926,-33.203,0.000
1737558640.089,-24.414,-18.066,-32.227,-82.520,0.000
1737558640.093,-32.227,-23.438,-28.320,-112.793,0.000
1737558640.097,-17.578,-19.043,-21.973,-73.730,0.000
1737558640.101,9.277,-4.395,-8.789,6.836,0.000
1737558640.105,-0.977,-6.836,-8.301,9.277,0.000
1737558640.109,-28.809,-16.113,-14.648,-92.285,0.000
1737558640.113,-48.340,-18.555,-17.578,-151.367,0.000
1737558640.117,-28.809,-18.555,-25.391,-129.395,0.000
1737558640.121,3.906,-13.184,-22.461,-60.547,0.000
1737558640.125,-1.465,-15.137,-20.020,-41.992,0.000
1737558640.129,-29.785,-22.461,-36.621,-139.160,0.000
1737558640.133,-40.039,-21.484,-43.945,-203.613,0.000
1737558640.136,-23.438,-17.578,-31.250,-174.316,0.000
1737558640.140,-4.883,-16.113,-19.531,-112.305,0.000
1737558640.144,5.859,-14.160,-20.996,-69.824,0.000
1737558640.148,-11.230,-12.695,-25.391,-107.910,0.000
1737558640.152,-43.945,-17.090,-31.738,-165.039,0.000
1737558640.156,-41.992,-18.555,-37.109,-152.832,0.000
1737558640.160,-11.230,-14.160,-35.645,-101.562,0.000
1737558640.164,2.441,-18.555,-28.320,-77.637,0.000
1737558640.168,-32.715,-27.344,-24.902,-132.324,0.000
1737558640.172,-57.617,-25.879,-27.832,-192.871,0.000
1737558640.176,-34.668,-20.508,-29.785,-194.824,0.000
1737558640.179,-7.812,-14.648,-24.414,-125.000,0.000
1737558640.183,-5.371,-6.348,-15.137,-55.664,0.000
1737558640.187,-29.785,-6.836,-16.113,-83.008,0.000
1737558640.191,-48.828,-11.719,-22.949,-129.395,0.000
1737558640.195,-37.598,-14.160,-24.902,-120.117,0.000
1737558640.199,0.000,-12.695,-20.020,-56.152,0.000
1737558640.203,0.000,-9.277,-9.766,20.996,0.000
1737558640.207,0.000,-16.602,-9.277,6.836,0.000
1737558640.211,0.000,-22.949,-18.555,-66.895,0.000
1737558640.215,0.000,-18.066,-24.414,-63.965,0.000
1737558640.219,0.000,-15.137,-22.461,5.859,0.000
1737558640.222,0.000,-11.719,-14.648,70.312,0.000
1737558640.226,0.000,-8.789,-13.184,54.688,0.000
1737558640.230,0.000,-12.695,-15.137,-20.996,0.000
1737558640.234,0.000,-19.043,-19.043,-40.039,0.000
1737558640.238,0.000,-14.648,-21.484,23.926,0.000
1737558640.242,0.000,-12.207,-22.461,106.934,0.000
1737558640.246,-4.395,-19.531,-23.926,106.934,0.000
1737558640.250,12.695,-20.508,-26.855,55.664,0.000
1737558640.254,-22.461,-23.438,-30.273,47.363,0.000
1737558640.257,-54.199,-18.555,-25.391,102.539,0.000
1737558640.261,-39.062,-12.695,-18.555,161.621,0.000
1737558640.265,-13.184,-16.602,-18.555,147.949,0.000
1737558640.269,-1.953,-24.414,-30.273,57.617,0.000
1737558640.273,-20.508,-23.438,-33.691,15.137,0.000
1737558640.277,-38.574,-12.207,-23.438,52.734,0.000
1737558640.281,-37.598,-9.277,-16.113,126.465,0.000
1737558640.285,-25.879,-9.766,-16.113,148.926,0.000
1737558640.289,-6.348,-13.184,-21.484,73.242,0.000
1737558640.293,-38.086,-22.461,-27.344,7.324,0.000
1737558640.297,-37.598,-20.508,-30.762,27.344,0.000
1737558640.300,0.488,-9.277,-24.414,98.145,0.000
1737558640.304,3.418,-8.789,-21.484,117.188,0.000
1737558640.308,-38.086,-17.090,-28.320,38.574,0.000
1737558640.312,-55.664,-19.531,-36.621,-21.484,0.000
1737558640.316,-23.438,-12.695,-28.809,2.441,0.000
1737558640.320,3.906,-9.277,-15.625,57.129,0.000
1737558640.324,0.000,-9.766,-13.672,77.637,0.000
1737558640.328,-27.832,-18.066,-20.020,2.930,0.000
1737558640.332,-57.617,-22.949,-32.227,-60.059,0.000
1737558640.336,-44.922,-25.391,-40.039,-29.297,0.000
1737558640.340,-12.207,-21.484,-29.785,44.922,0.000
1737558640.343,1.465,-17.090,-17.578,105.469,0.000
1737558640.347,-26.367,-18.555,-11.719,70.312,0.000
1737558640.351,-54.688,-20.996,-17.578,1.465,0.000
1737558640.355,-41.992,-18.066,-26.855,0.977,0.000
1737558640.359,-9.277,-14.648,-21.973,47.852,0.000
1737558640.363,2.441,-14.648,-16.113,86.914,0.000
1737558640.367,-18.066,-20.508,-26.855,29.785,0.000
1737558640.371,-36.621,-22.949,-34.180,-55.176,0.000
1737558640.375,-27.832,-19.043,-35.156,-58.105,0.000
1737558640.379,-15.625,-13.672,-33.691,-28.809,0.000
1737558640.382,-18.066,-13.672,-20.020,20.996,0.000
1737558640.386,-27.832,-15.625,-13.672,6.348,0.000
1737558640.390,-35.156,-14.160,-19.043,-66.895,0.000
1737558640.394,-36.621,-19.531,-24.414,-75.684,0.000
1737558640.398,-24.902,-21.484,-21.973,-24.902,0.000
1737558640.402,-5.371,-17.578,-9.766,51.270,0.000
1737558640.406,-9.766,-15.137,-13.672,51.758,0.000
1737558640.410,-34.668,-19.043,-21.973,-27.832,0.000
1737558640.414,-45.410,-24.902,-18.066,-45.898,0.000
1737558640.418,-27.832,-17.090,-14.648,4.395,0.000
1737558640.422,-4.883,-10.742,-10.254,72.754,0.000
1737558640.425,-9.277,-14.160,-9.277,84.961,0.000
1737558640.429,-29.785,-17.578,-12.695,13.184,0.000
1737558640.433,-30.273,-16.113,-11.719,-37.109,0.000
1737558640.437,-15.137,-11.719,-8.301,-21.484,0.000
1737558640.441,8.789,-9.277,-5.371,35.645,0.000
1737558640.445,11.719,-12.207,-12.207,39.062,0.000
1737558640.449,-24.414,-15.625,-24.902,-41.016,0.000
1737558640.453,-31.250,-13.184,-21.484,-79.102,0.000
1737558640.457,-0.977,-8.301,-13.184,-57.129,0.000
1737558640.461,25.391,-8.301,-12.207,-8.789,0.000
1737558640.465,17.090,-10.742,-14.648,13.672,0.000
1737558640.468,-11.719,-20.508,-21.973,-47.852,0.000
1737558640.472,-33.691,-24.414,-20.508,-102.051,0.000
1737558640.476,-29.785,-20.996,-10.742,-78.125,0.000
1737558640.480,0.000,-23.438,-11.230,0.977,0.000
1737558640.484,0.000,-21.973,-11.719,48.828,0.000
1737558640.488,0.000,-15.625,-9.766,-6.348,0.000
1737558640.492,0.000,-17.090,-20.020,-72.754,0.000
1737558640.496,0.000,-14.160,-21.484,-60.059,0.000
1737558640.500,0.000,-14.160,-21.973,6.348,0.000
1737558640.504,0.000,-14.648,-28.320,62.500,0.000
1737558640.508,0.000,-15.137,-25.879,10.254,0.000
1737558640.511,0.000,-21.484,-27.344,-62.988,0.000
1737558640.515,0.000,-20.508,-26.367,-53.223,0.000
1737558640.519,0.000,-17.090,-13.184,9.766,0.000
1737558640.523,0.000,-14.648,-7.812,58.594,0.000
1737558640.527,-33.691,-12.695,-16.113,8.789,0.000
1737558640.531,-55.176,-10.742,-21.973,-73.730,0.000
1737558640.535,-48.340,-8.789,-20.508,-83.008,0.000
1737558640.539,-22.461,-9.277,-12.695,-27.832,0.000
1737558640.543,-6.836,-11.719,-11.230,32.227,0.000
1737558640.547,-19.531,-11.230,-18.066,34.180,0.000
1737558640.551,-44.922,-17.578,-31.250,-27.344,0.000
1737558640.554,-55.176,-21.973,-36.133,-37.598,0.000
1737558640.558,-45.410,-20.020,-27.832,18.066,0.000
1737558640.562,-26.367,-24.414,-27.344,65.430,0.000
1737558640.566,-30.762,-25.879,-30.762,37.598,0.000
1737558640.570,-47.363,-27.344,-32.715,-31.738,0.000
1737558640.574,-46.387,-19.043,-27.344,-46.387,0.000
1737558640.578,-32.227,-9.766,-16.602,4.883,0.000
1737558640.582,-10.254,-14.160,-13.672,75.684,0.000
1737558640.586,-15.137,-14.648,-12.695,68.359,0.000
1737558640.590,-49.805,-18.555,-18.555,-4.883,0.000
1737558640.594,-39.551,-14.648,-18.066,-32.227,0.000
1737558640.598,-17.578,-17.578,-21.973,-9.277,0.000
1737558640.601,-19.043,-21.484,-20.508,43.457,0.000
1737558640.605,-25.391,-21.484,-18.066,41.504,0.000
1737558640.609,-41.992,-26.367,-24.902,-30.273,0.000
1737558640.613,-39.551,-21.973,-21.973,-71.777,0.000
1737558640.617,-11.719,-13.184,-20.508,-33.203,0.000
1737558640.621,3.418,-12.207,-20.996,47.852,0.000
1737558640.625,-5.371,-18.555,-16.602,52.734,0.000
1737558640.629,-24.902,-17.090,-20.020,-18.066,0.000
1737558640.633,-38.086,-11.719,-21.973,-48.828,0.000
1737558640.637,-17.090,-6.348,-15.137,-12.695,0.000
1737558640.641,7.812,-1.953,-6.836,54.199,0.000
1737558640.644,4.883,-3.906,-6.836,81.543,0.000
1737558640.648,-20.996,-12.695,-14.648,19.043,0.000
1737558640.652,-43.945,-17.090,-19.531,-31.250,0.000
1737558640.656,-31.250,-13.184,-19.043,-13.184,0.000
1737558640.660,1.465,-7.324,-13.184,41.504,0.000
1737558640.664,7.324,-10.254,-6.836,85.449,0.000
1737558640.668,-24.414,-19.043,-13.672,40.527,0.000
1737558640.672,-42.969,-23.926,-29.297,-11.719,0.000
1737558640.676,-29.297,-15.625,-27.832,11.719,0.000
1737558640.680,-6.348,-1.465,-19.043,77.637,0.000
1737558640.683,3.418,-0.977,-13.672,125.000,0.000
1737558640.687,-20.508,-6.348,-20.508,71.777,0.000
1737558640.691,-51.758,-10.742,-36.133,-3.906,0.000
1737558640.695,-44.434,-15.625,-37.109,-4.883,0.000
1737558640.699,-20.508,-13.672,-22.461,52.246,0.000
1737558640.703,-15.625,-14.160,-14.160,104.004,0.000
1737558640.707,-23.438,-18.066,-20.508,61.035,0.000
1737558640.711,-43.945,-20.020,-24.414,-3.418,0.000
1737558640.715,-35.156,-21.484,-26.367,-0.977,0.000
1737558640.719,-8.301,-20.020,-16.113,43.945,0.000
1737558640.723,-11.230,-21.973,-14.160,92.773,0.000
1737558640.726,-36.621,-27.832,-21.484,68.359,0.000
1737558640.730,-49.805,-28.809,-20.996,0.977,0.000
1737558640.734,-42.480,-24.414,-24.414,-4.883,0.000
1737558640.738,-26.855,-28.809,-24.902,34.668,0.000
1737558640.742,-10.742,-30.273,-18.066,84.473,0.000
1737558640.746,-15.137,-24.414,-20.020,74.707,0.000
1737558640.750,-39.062,-22.949,-25.391,-1.465,0.000
1737558640.754,-45.898,-23.926,-27.832,-35.156,0.000
1737558640.758,-20.508,-18.555,-21.973,8.789,0.000
1737558640.762,1.465,-12.695,-17.090,98.633,0.000
1737558640.766,-13.672,-13.184,-23.438,111.328,0.000
1737558640.770,-43.457,-22.949,-24.414,20.508,0.000
1737558640.773,-50.781,-28.320,-22.461,-15.137,0.000
1737558640.777,-48.340,-21.484,-23.438,29.785,0.000
1737558640.781,-24.414,-13.184,-16.113,97.168,0.000
1737558640.785,-10.254,-12.695,-13.184,123.047,0.000
1737558640.789,-35.645,-18.066,-18.555,60.547,0.000
1737558640.793,-52.734,-20.020,-26.367,4.883,0.000
1737558640.797,-26.855,-16.602,-28.809,47.363,0.000
1737558640.801,-1.953,-11.230,-20.508,128.418,0.000
1737558640.805,-17.578,-11.719,-17.578,148.926,0.000
1737558640.809,-44.434,-15.625,-20.996,83.984,0.000
1737558640.813,-56.641,-18.555,-22.461,30.762,0.000
1737558640.816,-38.086,-13.672,-19.531,40.527,0.000
1737558640.820,0.977,-8.789,-19.531,105.957,0.000
1737558640.824,1.953,-5.859,-23.926,159.668,0.000
1737558640.828,-43.945,-11.230,-24.414,102.539,0.000
1737558640.832,-58.594,-18.066,-21.973,39.551,0.000
1737558640.836,-38.574,-20.020,-26.855,52.734,0.000
1737558640.840,-11.230,-14.160,-20.508,114.746,0.000
1737558640.844,-12.207,-17.578,-18.066,153.809,0.000
1737558640.848,-38.086,-30.273,-22.949,86.914,0.000
1737558640.851,-48.340,-28.809,-22.949,8.301,0.000
1737558640.856,-33.691,-27.344,-18.555,-7.812,0.000
1737558640.859,-9.277,-21.973,-11.719,28.320,0.000
1737558640.863,6.836,-14.648,-8.301,85.449,0.000
1737558640.867,-14.160,-18.555,-16.113,54.199,0.000
1737558640.871,-32.715,-19.531,-21.973,-11.719,0.000
1737558640.875,-29.785,-17.090,-17.578,-13.672,0.000
1737558640.879,-13.184,-15.625,-19.531,32.715,0.000
1737558640.883,9.277,-14.648,-15.625,87.402,0.000
1737558640.887,-13.672,-23.926,-12.695,55.664,0.000
1737558640.891,-31.250,-27.832,-31.250,-19.043,0.000
1737558640.895,-14.160,-20.508,-36.621,-35.156,0.000
1737558640.898,0.000,-12.695,-17.090,2.441,0.000
1737558640.902,14.160,-11.719,-3.906,64.941,0.000
1737558640.906,2.930,-15.137,-7.812,38.574,0.000
1737558640.910,-41.016,-20.508,-23.926,-48.828,0.000
1737558640.914,-54.688,-25.879,-24.902,-69.336,0.000
1737558640.918,-15.137,-20.020,-15.625,-31.250,0.000
1737558640.922,10.742,-11.230,-13.672,29.785,0.000
1737558640.926,-2.930,-15.625,-16.113,34.180,0.000
1737558640.930,-28.320,-21.484,-23.926,-29.297,0.000
1737558640.934,-30.762,-22.949,-29.785,-52.734,0.000
1737558640.938,-11.230,-19.531,-26.367,-13.184,0.000
1737558640.941,10.742,-13.672,-20.508,64.941,0.000
1737558640.945,-11.230,-12.207,-20.020,70.801,0.000
1737558640.949,-43.945,-14.160,-19.531,-17.578,0.000
1737558640.953,-47.363,-18.555,-21.484,-64.453,0.000
1737558640.957,-18.066,-18.066,-20.020,-30.762,0.000
1737558640.961,9.766,-15.625,-16.113,50.293,0.000
1737558640.965,4.395,-16.113,-14.648,76.172,0.000
1737558640.969,-15.625,-16.113,-16.113,5.371,0.000
1737558640.973,-37.598,-18.066,-22.949,-39.551,0.000
1737558640.977,-35.156,-21.484,-21.973,-19.043,0.000
1737558640.981,-5.859,-14.648,-20.020,27.832,0.000
1737558640.984,2.441,-11.230,-17.578,54.688,0.000
1737558640.988,-25.391,-14.160,-7.324,3.906,0.000
1737558640.992,-35.156,-18.555,-8.789,-70.801,0.000
1737558640.996,-20.996,-22.461,-15.625,-53.223,0.000
1737558641.000,-8.789,-20.020,-14.160,16.602,0.000
1737558641.004,-2.441,-12.207,-10.742,48.828,0.000
1737558641.008,-23.926,-16.113,-15.137,-2.441,0.000
1737558641.012,-43.457,-25.879,-29.297,-64.941,0.000
1737558641.016,-32.715,-25.391,-33.203,-68.359,0.000
1737558641.020,-13.184,-15.625,-25.391,-9.766,0.000
1737558641.024,6.348,-8.301,-20.996,53.223,0.000
1737558641.027,-24.414,-18.066,-27.344,5.371,0.000
1737558641.031,-54.688,-28.320,-24.902,-71.777,0.000
1737558641.035,-28.809,-28.809,-12.695,-57.617,0.000
1737558641.039,2.441,-24.414,-17.578,7.812,0.000
1737558641.043,7.812,-19.043,-22.461,55.176,0.000
1737558641.047,-21.484,-19.531,-24.902,7.324,0.000
1737558641.051,-50.293,-25.391,-29.785,-82.031,0.000
1737558641.055,-40.527,-30.273,-29.297,-95.215,0.000
1737558641.059,-17.578,-31.250,-26.367,-51.270,0.000
1737558641.063,-2.441,-21.973,-18.066,12.207,0.000
1737558641.067,-14.160,-19.043,-19.043,-14.160,0.000
1737558641.070,-48.340,-23.438,-25.879,-99.609,0.000
1737558641.074,-46.875,-27.344,-30.762,-111.816,0.000
1737558641.078,-20.020,-24.414,-33.203,-58.105,0.000
1737558641.082,-7.812,-16.113,-17.578,18.555,0.000
1737558641.086,-24.902,-20.020,-14.160,25.879,0.000
1737558641.090,-43.945,-24.414,-27.344,-31.738,0.000
1737558641.094,-36.133,-18.555,-29.785,-53.711,0.000
1737558641.098,-9.766,-10.254,-21.484,-16.602,0.000
1737558641.102,10.254,-9.766,-19.043,41.016,0.000
1737558641.106,-1.953,-11.719,-22.461,28.320,0.000
1737558641.110,-32.715,-15.625,-20.508,-45.410,0.000
1737558641.113,-46.387,-19.531,-22.949,-75.195,0.000
1737558641.117,-38.086,-20.020,-33.203,-48.340,0.000
1737558641.121,-10.742,-17.090,-30.273,16.113,0.000
1737558641.125,-4.395,-18.555,-23.926,35.645,0.000
1737558641.129,-41.016,-23.926,-32.227,-36.133,0.000
1737558641.133,-55.176,-22.949,-34.180,-89.844,0.000
1737558641.137,-28.809,-15.137,-32.227,-74.219,0.000
1737558641.141,5.371,-11.719,-29.785,-5.371,0.000
1737558641.145,4.395,-4.883,-12.207,42.480,0.000
1737558641.149,-41.504,-5.371,-10.742,-16.602,0.000
1737558641.152,-51.758,-11.719,-30.273,-86.426,0.000
1737558641.156,-27.832,-4.883,-35.156,-83.496,0.000
1737558641.160,-15.625,-4.883,-30.762,-20.508,0.000
1737558641.164,-11.230,-11.230,-31.738,16.602,0.000
1737558641.168,-29.785,-17.578,-32.227,-51.758,0.000
1737558641.172,-44.434,-20.996,-31.250,-118.164,0.000
1737558641.176,-38.574,-12.695,-20.508,-94.727,0.000
1737558641.180,-20.508,-13.184,-16.113,-35.156,0.000
1737558641.184,-0.977,-14.160,-17.090,4.395,0.000
1737558641.188,-15.137,-9.277,-18.555,-46.875,0.000
1737558641.192,-38.086,-12.207,-27.832,-117.188,0.000
1737558641.195,-38.574,-20.508,-24.902,-126.465,0.000
1737558641.199,-20.020,-20.508,-19.043,-92.285,0.000
1737558641.203,-4.883,-14.648,-19.531,-35.156,0.000
1737558641.207,-18.555,-18.555,-25.391,-69.824,0.000
1737558641.211,-30.273,-20.996,-31.250,-145.020,0.000
1737558641.215,-23.438,-14.648,-25.391,-137.695,0.000
1737558641.219,-10.254,-16.113,-22.461,-91.797,0.000
1737558641.223,10.254,-16.602,-20.508,-31.738,0.000
1737558641.227,-10.254,-14.160,-20.020,-43.457,0.000
1737558641.231,0.000,-19.531,-16.113,-120.117,0.000
1737558641.235,0.000,-22.949,-20.996,-152.832,0.000
1737558641.238,0.000,-19.531,-19.531,-114.746,0.000
1737558641.242,0.000,-12.207,-14.160,-35.156,0.000
1737558641.246,0.000,-10.254,-27.344,-38.574,0.000
1737558641.250,0.000,-17.090,-35.156,-116.211,0.000
1737558641.254,0.000,-17.578,-24.414,-138.672,0.000
1737558641.258,0.000,-17.578,-18.555,-106.445,0.000
1737558641.262,0.000,-16.602,-22.461,-44.922,0.000
1737558641.266,0.000,-18.555,-20.996,-30.762,0.000
1737558641.270,0.000,-27.832,-20.508,-106.934,0.000
1737558641.274,0.000,-19.043,-20.020,-154.785,0.000
1737558641.278,4.883,-7.812,-21.484,-130.371,0.000
1737558641.282,11.230,-10.742,-23.926,-67.871,0.000
1737558641.285,-6.348,-16.602,-17.090,-40.527,0.000
1737558641.289,-43.457,-21.973,-20.020,-87.891,0.000
1737558641.293,-59.570,-27.832,-26.855,-136.719,0.000
1737558641.297,-37.109,-29.297,-27.344,-127.441,0.000
1737558641.301,-5.859,-20.508,-25.391,-54.688,0.000
1737558641.305,-17.578,-14.648,-20.020,-21.484,0.000
1737558641.309,-48.340,-20.508,-19.531,-78.125,0.000
1737558641.313,-47.852,-20.996,-16.602,-113.770,0.000
1737558641.317,-25.391,-16.113,-9.277,-84.961,0.000
1737558641.320,-5.371,-15.137,-2.441,-24.902,0.000
1737558641.325,-1.953,-15.137,-2.930,1.465,0.000
1737558641.328,-25.391,-13.184,-14.160,-61.523,0.000
1737558641.332,-48.340,-15.625,-17.578,-120.605,0.000
1737558641.336,-41.992,-16.602,-17.578,-135.742,0.000
1737558641.340,-14.648,-14.648,-17.578,-88.379,0.000
1737558641.344,0.488,-11.719,-15.625,-41.992,0.000
1737558641.348,-26.367,-13.672,-19.043,-105.469,0.000
1737558641.352,-59.570,-17.578,-26.855,-178.711,0.000
1737558641.356,-65.430,-18.555,-28.809,-178.223,0.000
1737558641.360,-32.715,-19.531,-23.438,-119.141,0.000
1737558641.363,-5.859,-17.578,-13.672,-57.617,0.000
1737558641.367,-19.043,-20.996,-12.207,-98.145,0.000
1737558641.371,-48.340,-24.414,-18.066,-179.199,0.000
1737558641.375,-41.016,-15.625,-17.578,-169.434,0.000
1737558641.379,-15.137,-11.719,-17.090,-101.074,0.000
1737558641.383,-8.789,-9.766,-20.020,-34.180,0.000
1737558641.387,-22.461,-10.254,-13.672,-39.551,0.000
1737558641.391,-35.156,-12.695,-8.301,-85.938,0.000
1737558641.395,-24.902,-10.254,-14.160,-103.516,0.000
1737558641.399,-23.926,-12.207,-19.531,-80.566,0.000
1737558641.403,-16.602,-10.742,-16.113,-18.066,0.000
1737558641.406,-20.020,-12.207,-13.184,-27.832,0.000
1737558641.410,-43.457,-24.414,-16.113,-105.957,0.000
1737558641.414,-26.367,-24.902,-23.438,-127.930,0.000
1737558641.418,-4.395,-20.508,-29.297,-80.078,0.000
1737558641.422,-10.742,-15.137,-18.066,-3.418,0.000
1737558641.426,-14.648,-5.371,-9.766,-5.371,0.000
1737558641.430,-29.785,-6.348,-19.531,-86.426,0.000
1737558641.434,-35.156,-11.719,-22.461,-114.746,0.000
1737558641.438,-20.508,-8.789,-12.695,-77.637,0.000
1737558641.442,1.465,-7.812,-10.254,-15.625,0.000
1737558641.446,-3.418,-9.766,-11.719,-6.348,0.000
1737558641.449,-26.367,-15.625,-17.578,-66.406,0.000
1737558641.453,-30.273,-20.996,-25.391,-86.426,0.000
1737558641.457,-19.531,-20.508,-20.996,-36.133,0.000
1737558641.461,7.324,-13.184,-20.020,48.340,0.000
1737558641.465,10.742,-9.766,-23.926,83.008,0.000
1737558641.469,-27.344,-18.555,-26.367,27.344,0.000
1737558641.473,-44.922,-24.414,-33.203,-18.066,0.000
1737558641.477,-27.344,-18.555,-27.344,19.531,0.000
1737558641.481,-7.324,-17.578,-12.695,92.285,0.000
1737558641.485,-6.348,-13.672,-5.371,121.582,0.000
1737558641.489,-24.902,-12.695,-15.137,72.266,0.000
1737558641.492,-37.598,-18.555,-27.344,20.996,0.000
1737558641.496,-27.344,-18.066,-28.809,29.785,0.000
1737558641.500,8.789,-12.207,-18.066,87.891,0.000
1737558641.504,21.484,-10.254,-14.648,129.395,0.000
1737558641.508,-24.414,-18.555,-21.484,65.918,0.000
1737558641.512,-57.129,-25.391,0.000,-9.766,0.000
1737558641.516,-39.551,-25.391,0.000,2.930,0.000
1737558641.520,2.441,-15.625,0.000,72.754,0.000
1737558641.524,15.137,-11.230,0.000,131.836,0.000
1737558641.528,-19.043,-16.602,0.000,84.961,0.000
1737558641.532,-31.738,-13.672,0.000,13.672,0.000
1737558641.535,-27.832,-15.625,0.000,10.742,0.000
1737558641.539,-20.996,-17.090,0.000,61.523,0.000
1737558641.543,-0.488,-12.695,0.000,120.605,0.000
1737558641.547,-9.766,-14.648,0.000,82.031,0.000
1737558641.551,-34.668,-21.484,0.000,12.695,0.000
1737558641.555,-36.133,-17.578,0.000,7.812,0.000
1737558641.559,-15.137,-17.578,-1.465,60.547,0.000
1737558641.563,4.395,-13.672,1.465,130.859,0.000
1737558641.567,-4.883,-4.883,-3.906,123.535,0.000
1737558641.571,-25.879,-7.324,-17.090,53.711,0.000
1737558641.575,-20.508,-9.766,-26.367,28.320,0.000
1737558641.578,10.254,-3.418,-32.715,76.172,0.000
1737558641.582,15.625,-6.348,-27.832,146.484,0.000
1737558641.586,-13.184,-15.137,-18.555,129.883,0.000
1737558641.590,-37.598,-19.043,-14.160,46.875,0.000
1737558641.594,-35.156,-20.020,-14.160,13.672,0.000
1737558641.598,-16.113,-15.137,-12.695,53.223,0.000
1737558641.602,6.836,-9.277,-11.719,125.977,0.000
1737558641.606,2.441,-9.277,-14.160,125.977,0.000
1737558641.610,-24.902,-18.555,-22.461,51.270,0.000
1737558641.614,-46.875,-23.438,-30.762,12.207,0.000
1737558641.618,-27.832,-21.973,-23.926,33.203,0.000
1737558641.621,9.766,-16.602,-14.648,98.633,0.000
1737558641.625,4.883,-7.812,-13.672,123.535,0.000
1737558641.629,-29.785,-18.555,-27.832,53.223,0.000
1737558641.633,-33.691,-25.391,-35.156,5.859,0.000
1737558641.637,-8.301,-22.949,-24.902,30.762,0.000
1737558641.641,10.254,-20.508,-10.742,102.539,0.000
1737558641.645,3.418,-20.020,-8.789,125.977,0.000
1737558641.649,-30.273,-27.832,-16.602,50.781,0.000
1737558641.653,-47.363,-30.273,-17.578,-8.789,0.000
1737558641.657,-30.273,-28.320,-15.625,17.578,0.000
1737558641.661,-4.395,-25.391,-19.043,89.844,0.000
1737558641.664,4.395,-21.484,-23.438,121.094,0.000
1737558641.668,-22.461,-19.043,-28.809,71.777,0.000
1737558641.672,-45.898,-17.090,-34.668,30.762,0.000
1737558641.676,-32.715,-17.578,-34.180,40.039,0.000
1737558641.680,-5.859,-17.578,-26.855,90.820,0.000
1737558641.684,0.977,-15.137,-25.391,146.973,0.000
1737558641.688,-27.344,-18.066,-25.879,102.051,0.000
1737558641.692,-47.363,-19.531,-26.367,21.484,0.000
1737558641.696,-35.156,-19.531,-24.414,28.809,0.000
1737558641.700,0.000,-16.602,-20.996,82.520,0.000
1737558641.704,0.000,-17.578,-16.602,129.883,0.000
1737558641.707,0.000,-16.602,-10.742,99.121,0.000
1737558641.711,0.000,-16.602,-17.578,31.250,0.000
1737558641.715,0.000,-17.578,-29.785,26.367,0.000
1737558641.719,0.000,-12.695,-27.344,83.008,0.000
1737558641.723,0.000,-8.301,-13.672,147.949,0.000
1737558641.727,0.000,-17.090,-14.160,109.863,0.000
1737558641.731,0.000,-26.855,-21.484,21.484,0.000
1737558641.735,0.000,-27.344,-21.484,6.348,0.000
1737558641.739,0.000,-23.926,-16.113,58.105,0.000
1737558641.743,0.000,-17.090,-10.742,129.883,0.000
1737558641.747,-5.371,-16.113,0.000,113.770,0.000
1737558641.750,-39.062,-21.484,0.000,35.156,0.000
1737558641.754,-37.598,-24.414,0.000,27.344,0.000
1737558641.758,-6.348,-22.949,0.000,71.777,0.000
1737558641.762,9.766,-14.648,0.000,136.719,0.000
1737558641.766,-4.395,-8.301,0.000,138.672,0.000
1737558641.770,-28.809,-11.719,0.000,66.895,0.000
1737558641.774,-35.156,-22.461,0.000,30.762,0.000
1737558641.778,-16.113,-23.438,0.000,55.664,0.000
1737558641.782,1.953,-14.648,0.000,121.094,0.000
1737558641.786,1.465,-13.672,0.000,128.906,0.000
1737558641.789,-21.973,-20.508,0.000,52.246,0.000
1737558641.793,-49.316,-30.273,-19.531,5.859,0.000
1737558641.797,-36.621,-28.320,-20.508,28.809,0.000
1737558641.801,-3.906,-19.531,-22.461,94.727,0.000
1737558641.805,-9.277,-16.113,-22.949,115.723,0.000
1737558641.809,-45.410,-23.438,-22.461,35.645,0.000
1737558641.813,-50.781,-23.926,-20.996,-18.555,0.000
1737558641.817,-30.762,-17.090,-15.137,8.301,0.000
1737558641.821,-13.672,-18.555,-7.324,69.336,0.000
1737558641.825,-11.719,-18.066,-13.184,94.238,0.000
1737558641.829,-32.227,-17.090,-27.832,39.551,0.000
1737558641.832,-45.410,-19.531,-33.691,-18.066,0.000
1737558641.836,-24.902,-20.020,-29.297,-12.207,0.000
1737558641.840,-7.324,-13.672,-20.020,47.363,0.000
1737558641.844,-11.230,-15.137,-14.160,92.773,0.000
1737558641.848,-31.738,-21.973,-17.090,29.297,0.000
1737558641.852,-50.293,-26.855,-21.973,-46.387,0.000
1737558641.856,-36.621,-24.414,-18.555,-26.367,0.000
1737558641.860,-13.672,-15.137,-13.672,36.621,0.000
1737558641.864,-0.488,-9.277,-11.719,79.590,0.000
1737558641.868,-24.902,-18.066,-15.137,22.949,0.000
1737558641.872,-43.945,-25.391,-26.855,-56.641,0.000
1737558641.875,-25.879,-22.461,-34.180,-54.688,0.000
1737558641.879,-4.395,-17.578,-33.691,-1.953,0.000
1737558641.883,0.000,-14.648,-17.578,62.012,0.000
1737558641.887,-20.020,-15.625,-10.742,38.574,0.000
1737558641.891,-31.738,-22.949,-22.949,-32.715,0.000
1737558641.895,-26.367,-21.484,-25.879,-34.668,0.000
1737558641.899,-19.043,-19.531,-20.020,6.836,0.000
1737558641.903,-10.254,-20.996,-9.766,59.082,0.000
1737558641.907,-14.648,-22.461,-11.230,31.250,0.000
1737558641.911,-33.691,-28.809,-26.367,-57.617,0.000
1737558641.915,-42.480,-35.645,-33.691,-75.195,0.000
1737558641.918,-21.484,-31.250,-32.227,-23.438,0.000
1737558641.922,-0.488,-20.996,-28.320,47.852,0.000
1737558641.926,-20.996,-19.531,-23.926,37.598,0.000
1737558641.930,-47.852,-25.391,-28.320,-41.504,0.000
1737558641.934,-51.270,-27.832,-26.367,-64.941,0.000
1737558641.938,-34.668,-23.926,-14.160,-25.391,0.000
1737558641.942,-5.371,-20.508,-6.836,42.969,0.000
1737558641.946,-19.531,-27.344,-11.230,36.133,0.000
1737558641.950,-52.246,-23.926,-15.625,-34.180,0.000
1737558641.954,-43.945,-12.695,-11.230,-45.898,0.000
1737558641.957,-22.949,-17.578,-10.254,0.000,0.000
1737558641.961,-4.395,-17.090,-14.648,62.500,0.000
1737558641.965,-7.812,-13.672,-15.625,79.102,0.000
1737558641.969,-38.574,-18.555,-17.578,12.695,0.000
1737558641.973,-24.902,9.766,29.297,-18.066,0.000
1737558641.977,1.953,32.715,60.059,23.926,0.000
1737558641.981,3.906,9.277,43.457,75.684,0.000
1737558641.985,0.488,44.434,80.078,100.098,0.000
1737558641.989,-44.434,69.336,96.680,25.879,0.000
1737558641.993,-66.406,142.090,130.371,-44.922,0.000
1737558641.997,-34.668,221.191,47.852,-16.602,0.000
1737558642.000,-67.383,47.852,-98.633,8.789,0.000
1737558642.004,-155.273,-88.867,-98.145,-52.734,0.000
1737558642.008,-235.840,-56.641,-15.625,-199.707,0.000
1737558642.012,-251.953,129.395,125.977,-326.660,0.000
1737558642.016,-235.352,172.363,90.332,-372.070,0.000
1737558642.020,-248.535,166.016,3.906,-405.762,0.000
1737558642.024,-269.043,423.340,113.770,-460.938,0.000
1737558642.028,-274.414,817.871,229.004,-554.688,0.000
1737558642.032,-292.969,982.422,362.305,-654.297,0.000
1737558642.036,-284.668,960.449,526.855,-690.918,0.000
1737558642.040,-257.324,970.703,707.520,-702.637,0.000
1737558642.043,-257.812,971.680,934.570,-711.914,0.000
1737558642.047,-283.203,970.703,979.492,-746.582,0.000
1737558642.051,-319.336,970.703,962.891,-814.941,0.000
1737558642.055,-329.590,970.703,972.656,-808.594,0.000
1737558642.059,-259.277,970.703,970.703,-642.090,0.000
1737558642.063,-240.234,970.703,970.703,-502.441,0.000
1737558642.067,-267.578,970.703,970.703,-472.656,0.000
1737558642.071,-263.184,970.703,970.703,-437.988,0.000
1737558642.075,0.000,970.703,970.703,-354.980,0.000
1737558642.079,0.000,970.703,970.703,-207.031,0.000
1737558642.083,0.000,970.703,970.703,-61.523,0.000
1737558642.086,0.000,970.703,970.703,-19.531,0.000
1737558642.090,0.000,970.703,970.703,-44.434,0.000
1737558642.094,0.000,970.703,970.703,-21.973,0.000
1737558642.098,0.000,970.703,971.191,53.223,0.000
1737558642.102,0.000,970.703,970.703,147.949,0.000
1737558642.106,0.000,970.703,970.703,176.758,0.000
1737558642.110,0.000,970.703,970.703,89.844,0.000
1737558642.114,0.000,970.703,970.703,60.059,0.000
1737558642.118,0.000,970.703,970.703,129.883,0.000
1737558642.122,-29.297,970.703,970.703,230.469,0.000
1737558642.126,-20.996,970.703,970.703,260.254,0.000
1737558642.129,-44.922,970.703,970.703,184.570,0.000
1737558642.133,-33.691,970.703,970.703,135.742,0.000
1737558642.137,-2.441,970.703,970.703,161.133,0.000
1737558642.141,32.715,970.703,970.703,226.074,0.000
1737558642.145,45.410,970.703,970.703,260.254,0.000
1737558642.149,32.715,970.703,970.703,208.008,0.000
1737558642.153,36.133,970.703,970.703,165.039,0.000
1737558642.157,60.547,970.703,970.703,199.707,0.000
1737558642.161,95.703,970.703,971.680,252.930,0.000
1737558642.165,88.379,970.703,967.773,262.695,0.000
1737558642.169,54.199,970.703,972.656,181.641,0.000
1737558642.172,45.410,971.191,963.379,109.863,0.000
1737558642.176,64.941,971.680,876.953,125.977,0.000
1737558642.180,95.215,966.309,796.875,195.312,0.000
1737558642.184,105.469,975.098,749.512,226.562,0.000
1737558642.188,84.961,937.012,679.199,147.949,0.000
1737558642.192,57.129,790.527,604.004,63.965,0.000
1737558642.196,56.152,663.086,550.293,35.645,0.000
1737558642.200,70.801,571.777,508.301,67.383,0.000
1737558642.204,97.168,490.234,479.004,128.418,0.000
1737558642.208,82.520,404.785,432.129,94.238,0.000
1737558642.211,26.367,317.383,370.605,-4.395,0.000
1737558642.215,33.203,250.488,329.102,-34.668,0.000
1737558642.219,75.195,184.570,311.523,16.602,0.000
1737558642.223,90.332,119.629,279.297,75.195,0.000
1737558642.227,56.641,55.176,232.422,35.645,0.000
1737558642.231,27.344,-1.465,212.891,-30.762,0.000
1737558642.235,37.598,-42.969,205.566,-35.156,0.000
1737558642.239,56.641,-85.449,182.617,1.465,0.000
1737558642.243,68.848,-126.465,163.086,68.848,0.000
1737558642.247,49.316,-166.016,140.625,45.410,0.000
1737558642.251,28.320,-204.102,106.445,-44.434,0.000
1737558642.254,29.785,-233.398,84.473,-59.570,0.000
1737558642.258,54.688,-249.512,86.426,5.859,0.000
1737558642.262,80.078,-271.973,74.219,88.379,0.000
1737558642.266,62.988,-309.082,55.664,72.266,0.000
1737558642.270,20.508,-338.867,40.039,-27.344,0.000
1737558642.274,10.254,-358.398,23.438,-50.293,0.000
1737558642.278,42.969,-366.211,25.879,0.000,0.000
1737558642.282,68.848,-371.094,25.391,75.195,0.000
1737558642.286,57.129,-388.184,8.301,71.289,0.000
1737558642.290,35.645,-407.715,-7.812,-10.254,0.000
1737558642.293,19.531,-419.922,-22.949,-52.734,0.000
1737558642.297,25.391,-426.270,-35.156,-24.902,0.000
1737558642.301,46.875,-431.641,-45.898,45.898,0.000
1737558642.305,42.480,-438.965,-58.594,61.035,0.000
1737558642.309,7.324,-449.219,-55.176,-20.020,0.000
1737558642.313,-7.812,-458.496,-49.316,-73.730,0.000
1737558642.317,17.090,-457.031,-57.129,-34.180,0.000
1737558642.321,42.969,-446.289,-54.199,56.152,0.000
1737558642.325,47.852,-446.289,-45.410,104.980,0.000
1737558642.329,23.926,-450.195,-58.594,43.457,0.000
1737558642.333,-5.371,-453.613,-85.449,-11.719,0.000
1737558642.336,3.418,-452.148,-93.750,13.184,0.000
1737558642.340,37.598,-448.730,-80.078,74.219,0.000
1737558642.344,41.504,-454.590,-66.895,106.934,0.000
1737558642.348,4.395,-453.125,-70.801,60.059,0.000
1737558642.352,-20.508,-451.660,-83.496,-4.395,0.000
1737558642.356,-9.277,-454.102,-84.961,7.812,0.000
1737558642.360,24.414,-444.336,-78.613,86.426,0.000
1737558642.364,42.969,-437.500,-76.172,124.512,0.000
1737558642.368,15.625,-444.824,-81.055,65.430,0.000
1737558642.372,-30.273,-448.730,-100.098,5.371,0.000
1737558642.376,-7.812,-434.082,-102.539,33.691,0.000
1737558642.379,26.855,-424.316,-80.566,97.656,0.000
1737558642.383,32.715,-423.828,-75.684,141.113,0.000
1737558642.387,-4.395,-427.734,-94.238,81.055,0.000
1737558642.391,-37.598,-428.223,-92.773,-11.719,0.000
1737558642.395,-19.043,-423.340,-88.379,-19.043,0.000
1737558642.399,4.883,-414.551,-94.727,37.109,0.000
1737558642.403,24.902,-404.297,-91.797,86.914,0.000
1737558642.407,-12.207,-397.461,-86.426,55.176,0.000
1737558642.411,-41.992,-391.602,-88.867,-3.418,0.000
1737558642.415,-20.508,-387.695,-93.750,0.000,0.000
1737558642.419,-3.906,-383.789,-95.215,43.945,0.000
1737558642.422,12.695,-371.094,-99.121,104.980,0.000
1737558642.426,7.812,-370.605,-101.562,94.238,0.000
1737558642.430,-22.949,-380.371,-106.445,12.695,0.000
1737558642.434,-22.461,-377.441,-107.422,-15.137,0.000
1737558642.438,-4.883,-373.047,-94.238,33.203,0.000
1737558642.442,14.648,-362.793,-84.961,109.863,0.000
1737558642.446,13.672,-357.422,-98.633,110.840,0.000
1737558642.450,-35.156,-360.352,-114.258,22.949,0.000
1737558642.454,-46.875,-356.445,-103.516,-22.461,0.000
1737558642.458,-12.207,-347.656,-93.262,15.137,0.000
1737558642.462,14.160,-335.938,-86.914,97.656,0.000
1737558642.465,10.742,-333.984,-88.379,108.398,0.000
1737558642.469,-19.531,-336.426,-94.727,28.320,0.000
1737558642.473,-27.832,-336.914,-91.797,-11.719,0.000
1737558642.477,-10.742,-333.984,-87.891,20.508,0.000
1737558642.481,18.555,-320.801,-86.914,105.469,0.000
1737558642.485,13.184,-315.918,-91.309,134.277,0.000
1737558642.489,-16.602,-317.871,-95.215,73.730,0.000
1737558642.493,-25.879,-316.406,-97.168,23.438,0.000
1737558642.497,-18.555,-307.129,-90.820,39.551,0.000
1737558642.501,11.230,-293.945,-84.961,107.910,0.000
1737558642.505,15.137,-294.434,-86.914,128.906,0.000
1737558642.508,-24.414,-301.758,-97.656,55.664,0.000
1737558642.512,-48.340,-306.641,-104.980,3.418,0.000
1737558642.516,-31.250,-300.293,-95.703,22.949,0.000
1737558642.520,-5.371,-290.039,-84.961,82.031,0.000
1737558642.524,4.395,-289.062,-82.031,132.812,0.000
1737558642.528,-19.043,-294.434,-90.332,75.195,0.000
1737558642.532,-47.852,-292.480,-99.609,-2.930,0.000
1737558642.536,-22.461,-283.691,-100.098,6.348,0.000
1737558642.540,-6.348,-275.879,-92.773,65.918,0.000
1737558642.544,-13.184,-270.020,-87.891,121.094,0.000
1737558642.548,-30.273,-273.438,-98.633,72.754,0.000
1737558642.551,-42.480,-274.414,-112.305,-3.906,0.000
1737558642.555,-27.344,-269.043,-104.980,6.348,0.000
1737558642.559,-10.254,-264.160,-86.914,72.754,0.000
1737558642.563,-3.418,-258.789,-83.984,141.113,0.000
1737558642.567,-25.879,-261.719,-86.914,96.191,0.000
1737558642.571,-41.992,-267.090,-85.938,5.371,0.000
1737558642.575,-17.578,-260.742,-86.426,20.508,0.000
1737558642.579,3.418,-250.977,-84.473,83.984,0.000
1737558642.583,-4.883,-248.535,-74.219,134.766,0.000
1737558642.587,-20.508,-253.418,-65.918,111.816,0.000
1737558642.591,-38.574,-260.742,-65.918,27.344,0.000
1737558642.594,-27.832,-252.441,-63.965,22.461,0.000
1737558642.598,4.883,-240.234,-60.547,78.613,0.000
1737558642.602,13.184,-234.863,-64.453,129.883,0.000
1737558642.606,0.977,-229.980,-66.895,122.070,0.000
1737558642.610,-21.973,-237.793,-76.172,42.480,0.000
1737558642.614,-38.086,-241.699,-78.125,4.395,0.000
1737558642.618,-11.719,-232.422,-64.941,41.016,0.000
1737558642.622,17.578,-223.145,-66.895,113.770,0.000
1737558642.626,-2.441,-221.680,-72.266,125.488,0.000
1737558642.630,-22.461,-225.098,-73.730,56.641,0.000
1737558642.633,-19.531,-226.562,-77.637,14.648,0.000
1737558642.637,-11.719,-220.703,-78.613,45.410,0.000
1737558642.641,10.254,-210.449,-72.266,110.352,0.000
1737558642.645,9.277,-209.961,-71.777,125.488,0.000
1737558642.649,-30.762,-218.750,-85.449,43.945,0.000
1737558642.653,-37.109,-217.285,-93.262,-4.395,0.000
1737558642.657,-19.043,-208.984,-81.543,25.391,0.000
1737558642.661,-4.395,-209.961,-67.871,86.426,0.000
1737558642.665,-10.254,-214.355,-63.965,108.398,0.000
1737558642.669,-36.621,-214.355,-71.289,35.156,0.000
1737558642.672,-48.340,-210.449,-76.660,-21.484,0.000
1737558642.676,-30.273,-203.613,-78.125,0.977,0.000
1737558642.680,2.930,-192.383,-76.172,65.430,0.000
1737558642.684,9.277,-186.035,-71.777,102.051,0.000
1737558642.688,-20.508,-190.430,-75.684,47.363,0.000
1737558642.692,-41.016,-195.801,-75.195,-15.137,0.000
1737558642.696,-34.668,-195.801,-66.406,-18.066,0.000
1737558642.700,-6.348,-190.918,-63.477,39.551,0.000
1737558642.704,18.555,-181.152,-60.547,118.652,0.000
1737558642.708,-11.719,-185.547,-60.059,85.938,0.000
1737558642.712,-53.711,-196.289,-67.383,-3.418,0.000
1737558642.715,-48.340,-191.406,-67.871,-14.160,0.000
1737558642.719,-19.043,-179.688,-57.617,44.434,0.000
1737558642.723,13.672,-167.480,-45.410,109.863,0.000
1737558642.727,-4.395,-170.898,-52.734,60.547,0.000
1737558642.731,-45.410,-178.223,-72.754,-24.902,0.000
1737558642.735,-34.180,-173.828,-77.637,-28.809,0.000
1737558642.739,-2.441,-168.457,-67.871,26.367,0.000
1737558642.743,14.160,-166.504,-53.711,86.426,0.000
1737558642.747,-0.977,-167.969,-51.758,67.871,0.000
1737558642.751,-28.320,-170.898,-58.594,-13.184,0.000
1737558642.754,-25.391,-169.922,-62.500,-36.133,0.000
1737558642.758,0.000,-167.969,-66.406,5.859,0.000
1737558642.762,12.207,-164.551,-58.594,58.594,0.000
1737558642.766,-6.348,-166.992,-55.176,47.363,0.000
1737558642.770,-32.227,-169.922,-59.570,-26.367,0.000
1737558642.774,-32.715,-165.039,-61.523,-47.852,0.000
1737558642.778,-8.789,-159.180,-61.035,-9.766,0.000
1737558642.782,24.414,-151.855,-60.547,56.641,0.000
1737558642.786,-0.977,-158.203,-61.523,53.711,0.000
1737558642.790,-40.527,-166.016,-62.988,-30.273,0.000
1737558642.794,-34.180,-162.598,-71.777,-71.777,0.000
1737558642.798,-11.230,-156.738,-79.590,-29.785,0.000
1737558642.801,10.254,-150.879,-65.430,38.086,0.000
1737558642.805,2.930,-152.344,-56.152,42.480,0.000
1737558642.809,-25.879,-154.297,-55.176,-25.391,0.000
1737558642.813,-35.156,-153.809,-51.270,-74.707,0.000
1737558642.817,-23.926,-149.414,-55.176,-43.945,0.000
1737558642.821,4.395,-145.508,-58.105,31.738,0.000
1737558642.825,0.000,-145.020,-52.246,55.664,0.000
1737558642.829,0.000,-145.996,-51.270,-17.578,0.000
1737558642.833,0.000,-145.996,-55.664,-64.941,0.000
1737558642.837,0.000,-139.648,-60.059,-32.715,0.000
1737558642.841,0.000,-136.719,-62.500,32.715,0.000
1737558642.844,0.000,-137.207,-60.547,71.289,0.000
1737558642.848,0.000,-144.531,-61.035,10.254,0.000
1737558642.852,0.000,-149.414,-69.336,-74.707,0.000
1737558642.856,0.000,-148.926,-73.242,-67.871,0.000
1737558642.860,0.000,-142.090,-62.988,-1.953,0.000
1737558642.864,0.000,-137.207,-50.781,35.156,0.000
1737558642.868,0.000,-141.602,-55.176,-22.949,0.000
1737558642.872,-38.086,-142.578,-62.500,-85.449,0.000
1737558642.876,-22.949,-136.719,-58.105,-78.125,0.000
1737558642.880,-8.301,-133.789,-60.059,-22.461,0.000
1737558642.884,0.488,-130.371,-62.012,36.621,0.000
1737558642.887,-15.137,-128.418,-57.617,-9.766,0.000
1737558642.891,-30.273,-131.348,-61.035,-89.355,0.000
1737558642.895,-31.738,-133.301,-65.430,-85.449,0.000
1737558642.899,-35.156,-135.742,-63.965,-35.156,0.000
1737558642.903,-7.324,-133.301,-63.477,18.555,0.000
1737558642.907,-9.277,-133.301,-61.035,1.953,0.000
1737558642.911,-37.109,-130.371,-59.082,-60.059,0.000
1737558642.915,-33.691,-126.465,-59.082,-67.871,0.000
1737558642.919,-10.254,-123.047,-58.105,-27.832,0.000
1737558642.923,9.766,-117.188,-53.223,30.273,0.000
1737558642.927,-11.719,-123.047,-53.711,11.230,0.000
1737558642.930,-41.016,-131.348,-64.453,-66.406,0.000
1737558642.934,-35.645,-130.371,-66.406,-85.449,0.000
1737558642.938,-17.090,-123.047,-58.594,-43.457,0.000
1737558642.942,6.836,-112.793,-48.828,30.273,0.000
1737558642.946,4.395,-116.699,-50.781,32.715,0.000
1737558642.950,-21.484,-122.070,-53.711,-41.992,0.000
1737558642.954,-25.879,-122.559,-56.152,-63.965,0.000
1737558642.958,4.395,-122.559,-52.246,-22.461,0.000
1737558642.962,29.785,-117.676,-43.457,55.664,0.000
1737558642.966,4.883,-123.047,-52.734,60.547,0.000
1737558642.970,-29.297,-127.930,-61.035,-10.742,0.000
1737558642.973,-27.344,-129.395,-61.523,-36.133,0.000
1737558642.977,-4.395,-119.629,-56.152,10.742,0.000
1737558642.981,13.184,-115.234,-48.340,81.543,0.000
1737558642.985,4.883,-127.441,-52.734,85.449,0.000
1737558642.989,-29.297,-132.324,-56.152,5.371,0.000
1737558642.993,-53.711,-131.836,-55.176,-49.805,0.000
1737558642.997,-32.715,-125.488,-59.082,-27.832,0.000
1737558643.001,12.207,-116.211,-52.246,39.062,0.000
1737558643.005,7.812,-111.816,-48.828,62.988,0.000
1737558643.008,-37.598,-113.281,-57.129,-6.348,0.000
1737558643.012,-54.199,-121.094,-59.082,-85.449,0.000
1737558643.016,-28.320,-119.629,-49.316,-77.148,0.000
1737558643.020,-6.836,-111.328,-47.852,-7.324,0.000
1737558643.024,-2.930,-106.445,-54.688,31.738,0.000
1737558643.028,-13.184,-109.863,-58.105,-20.996,0.000
1737558643.032,-36.621,-111.816,-61.035,-90.820,0.000
1737558643.036,-34.668,-108.398,-59.082,-85.938,0.000
1737558643.040,-3.418,-102.051,-46.387,-20.996,0.000
1737558643.044,17.578,-98.145,-46.875,30.273,0.000
1737558643.048,-21.973,-102.539,-64.453,-11.230,0.000
1737558643.051,-62.988,-108.398,-61.523,-84.473,0.000
1737558643.055,-45.898,-115.723,-51.758,-96.680,0.000
1737558643.059,-10.742,-110.840,-47.852,-41.992,0.000
1737558643.063,7.812,-100.098,-38.574,26.855,0.000
1737558643.067,-11.230,-98.145,-40.039,4.883,0.000
1737558643.071,-29.785,-106.445,-54.199,-71.289,0.000
1737558643.075,-23.438,-108.398,-59.570,-77.637,0.000
1737558643.079,-20.508,-99.609,-59.082,-16.113,0.000
1737558643.083,-4.395,-95.703,-55.176,57.129,0.000
1737558643.087,-3.418,-101.562,-52.246,30.762,0.000
1737558643.091,-32.715,-107.910,-51.270,-52.734,0.000
1737558643.094,-40.039,-108.398,-47.852,-62.012,0.000
1737558643.098,-16.113,-102.539,-51.758,-19.043,0.000
1737558643.102,0.000,-101.074,-45.898,44.434,0.000
1737558643.106,-20.508,-108.398,-42.969,34.668,0.000
1737558643.110,-48.828,-112.793,-53.711,-45.898,0.000
1737558643.114,-45.898,-110.352,-64.453,-74.219,0.000
1737558643.118,-20.020,-105.957,-59.570,-32.715,0.000
1737558643.122,-8.301,-99.121,-51.270,34.668,0.000
1737558643.126,-15.137,-95.215,-52.246,36.133,0.000
1737558643.130,-25.391,-101.562,-56.152,-41.016,0.000
1737558643.134,-22.461,-108.887,-61.523,-82.031,0.000
1737558643.137,-17.090,-107.910,-61.523,-58.594,0.000
1737558643.141,-0.977,-103.027,-56.641,-1.953,0.000
1737558643.145,-1.953,-94.727,-54.688,6.836,0.000
1737558643.149,-41.992,-93.750,-51.270,-73.242,0.000
1737558643.153,-46.387,-94.727,-44.922,-118.652,0.000
1737558643.157,-20.020,-92.285,-46.387,-92.285,0.000
1737558643.161,-2.930,-88.379,-52.734,-24.902,0.000
1737558643.165,-5.859,-89.355,-55.664,2.930,0.000
1737558643.169,-24.902,-87.402,-59.082,-47.363,0.000
1737558643.173,-41.504,-89.844,-73.730,-92.773,0.000
1737558643.177,-40.039,-100.098,-72.266,-93.750,0.000
1737558643.180,-7.812,-101.074,-41.992,-33.691,0.000
1737558643.184,-2.441,-99.609,-31.738,15.625,0.000
1737558643.188,-50.781,-102.051,-46.875,-34.180,0.000
1737558643.192,-67.871,-99.121,-58.594,-99.609,0.000
1737558643.196,-37.598,-90.332,-51.758,-85.938,0.000
1737558643.200,-11.230,-85.938,-41.992,-20.020,0.000
1737558643.204,0.000,-83.496,-38.574,25.879,0.000
1737558643.208,-15.625,-87.891,-41.992,-14.648,0.000
1737558643.212,-49.805,-92.773,-59.570,-80.566,0.000
1737558643.216,-39.551,-88.867,-67.383,-75.195,0.000
1737558643.220,-1.953,-89.844,-53.711,-12.695,0.000
1737558643.223,8.789,-93.262,-39.062,54.688,0.000
1737558643.227,-12.207,-95.703,-35.156,26.855,0.000
1737558643.231,-32.715,-102.539,-39.062,-44.922,0.000
1737558643.235,-25.391,-96.680,-39.551,-45.898,0.000
1737558643.239,4.395,-81.543,-44.434,11.230,0.000
1737558643.243,32.227,-80.078,-45.410,70.801,0.000
1737558643.247,0.977,-82.031,-44.922,45.898,0.000
1737558643.251,-40.039,-85.449,-47.363,-28.320,0.000
1737558643.255,-30.273,-85.938,-47.852,-50.293,0.000
1737558643.259,-10.254,-81.055,-48.828,-8.789,0.000
1737558643.263,9.766,-75.195,-39.551,74.219,0.000
1737558643.266,-4.395,-75.195,-35.156,71.289,0.000
1737558643.270,-36.133,-83.008,-46.875,-9.277,0.000
1737558643.274,-34.668,-85.938,-43.457,-25.391,0.000
1737558643.278,-18.555,-86.914,-41.992,20.508,0.000
1737558643.282,-5.859,-85.938,-44.434,88.379,0.000
1737558643.286,-15.625,-78.613,-40.527,82.031,0.000
1737558643.290,-39.551,-79.102,-43.945,0.000,0.000
1737558643.294,-47.852,-80.566,-43.945,-36.133,0.000
1737558643.298,-24.902,-80.078,-44.434,-14.160,0.000
1737558643.302,8.789,-74.707,-40.527,51.758,0.000
1737558643.306,3.418,-74.219,-37.598,61.523,0.000
1737558643.309,-24.414,-78.125,-45.410,-13.184,0.000
1737558643.313,-29.785,-79.590,-53.223,-67.383,0.000
1737558643.317,-14.648,-83.496,-50.781,-64.941,0.000
1737558643.321,2.441,-85.938,-47.852,5.859,0.000
1737558643.325,-7.812,-90.332,-55.176,34.180,0.000
1737558643.329,-35.645,-85.938,-51.758,-40.039,0.000
1737558643.333,-39.062,-83.496,-45.898,-93.750,0.000
1737558643.337,-19.531,-80.566,-48.828,-76.172,0.000
1737558643.341,0.977,-75.684,-45.898,-14.160,0.000
1737558643.345,-7.324,-80.078,-48.340,4.883,0.000
1737558643.348,-26.367,-81.543,-57.129,-62.500,0.000
1737558643.352,-41.992,-80.566,-58.594,-122.070,0.000
1737558643.356,-31.738,-81.543,-58.105,-106.934,0.000
1737558643.360,11.230,-74.707,-49.316,-31.250,0.000
1737558643.364,25.879,-75.684,-42.969,15.625,0.000
1737558643.368,-7.812,-85.938,-47.852,-45.898,0.000
1737558643.372,-35.156,-93.262,-54.199,-130.859,0.000
1737558643.376,-9.277,-87.891,-50.293,-108.887,0.000
1737558643.380,11.719,-83.496,-42.480,-32.715,0.000
1737558643.384,-0.977,-84.961,-36.133,7.812,0.000
1737558643.388,-23.926,-86.426,-38.574,-38.086,0.000
1737558643.391,-47.363,-90.332,-48.340,-122.559,0.000
1737558643.395,-36.133,-90.820,-54.199,-126.465,0.000
1737558643.399,-3.906,-78.125,-52.734,-58.105,0.000
1737558643.403,15.137,-71.289,-51.758,7.324,0.000
1737558643.407,-1.953,-81.055,-56.152,-18.066,0.000
1737558643.411,-29.785,-93.262,-58.105,-92.285,0.000
1737558643.415,-32.227,-97.168,-60.547,-108.887,0.000
1737558643.419,-13.672,-88.379,-53.223,-66.895,0.000
1737558643.423,-6.348,-83.008,-42.480,-5.371,0.000
1737558643.427,-26.367,-83.984,-42.480,-27.832,0.000
1737558643.430,-54.199,-86.914,-48.828,-103.027,0.000
1737558643.434,-43.457,-84.961,-43.945,-122.070,0.000
1737558643.438,-0.977,-72.754,-37.598,-76.660,0.000
1737558643.442,23.926,-65.918,-42.969,4.883,0.000
1737558643.446,1.465,-73.730,-41.016,-6.836,0.000
1737558643.450,-36.133,-81.543,-41.016,-108.887,0.000
1737558643.454,-34.180,-80.566,-47.363,-123.535,0.000
1737558643.458,-8.789,-76.172,-48.828,-66.406,0.000
1737558643.462,14.160,-65.918,-46.875,-4.395,0.000
1737558643.466,6.348,-64.453,-41.016,4.395,0.000
1737558643.470,-39.551,-82.520,-42.480,-66.406,0.000
1737558643.473,-24.902,-83.984,-39.551,-95.215,0.000
1737558643.477,12.695,-70.801,-32.715,-49.316,0.000
1737558643.481,26.855,-64.453,-35.156,11.230,0.000
1737558643.485,10.254,-73.242,-39.551,14.160,0.000
1737558643.489,-33.203,-85.938,-45.898,-61.035,0.000
1737558643.493,-44.922,-83.984,-51.758,-121.094,0.000
1737558643.497,-26.855,-75.195,-54.199,-91.309,0.000
1737558643.501,9.766,-64.941,-40.527,6.836,0.000
1737558643.505,16.602,-68.848,-37.598,32.227,0.000
1737558643.509,-16.113,-74.707,-52.246,-26.855,0.000
1737558643.513,-37.598,-72.266,-55.176,-60.547,0.000
1737558643.516,-23.926,-72.754,-51.758,-37.598,0.000
1737558643.520,6.836,-65.918,-37.598,29.297,0.000
1737558643.524,2.441,-67.871,-35.645,72.266,0.000
1737558643.528,-27.832,-75.684,-46.387,20.996,0.000
1737558643.532,-38.086,-75.195,-49.316,-38.574,0.000
1737558643.536,-23.438,-72.266,-40.039,-13.672,0.000
1737558643.540,-5.859,-70.312,-34.668,65.430,0.000
1737558643.544,-0.977,-64.941,-35.645,117.676,0.000
1737558643.548,-22.461,-64.941,-39.551,76.660,0.000
1737558643.552,-48.828,-73.730,-57.129,1.465,0.000
1737558643.556,-38.086,-74.707,-60.547,-1.465,0.000
1737558643.559,-20.996,-71.289,-48.340,72.754,0.000
1737558643.563,-7.812,-66.895,-47.363,141.602,0.000
1737558643.567,-11.230,-64.453,-51.758,106.934,0.000
1737558643.571,-34.668,-75.195,-45.898,33.691,0.000
1737558643.575,-30.273,-74.707,-37.109,26.855,0.000
1737558643.579,-12.207,-68.359,-32.227,68.848,0.000
1737558643.583,-3.906,-68.359,-34.180,138.672,0.000
1737558643.587,-22.949,-67.871,-35.156,116.211,0.000
1737558643.591,-47.852,-71.777,-31.738,36.621,0.000
1737558643.595,-36.621,-69.824,-37.598,30.762,0.000
1737558643.599,-19.043,-65.918,-39.551,89.355,0.000
1737558643.602,-6.836,-69.336,-48.340,157.227,0.000
1737558643.606,-11.230,-73.242,-56.152,144.043,0.000
1737558643.610,-35.156,-79.590,-55.664,53.223,0.000
1737558643.614,-32.715,-79.102,-49.316,22.461,0.000
1737558643.618,-23.926,-72.754,-36.133,66.406,0.000
1737558643.622,-7.812,-67.871,-24.414,134.766,0.000
1737558643.626,-2.441,-63.477,-23.926,138.184,0.000
1737558643.630,-22.461,-67.871,-31.250,62.012,0.000
1737558643.634,-30.273,-75.195,-39.062,19.531,0.000
1737558643.638,-14.160,-68.359,-39.551,49.316,0.000
1737558643.642,16.602,-59.082,-37.109,118.652,0.000
1737558643.645,14.648,-64.453,-40.039,117.676,0.000
1737558643.649,-13.184,-66.895,-44.922,42.969,0.000
1737558643.653,-31.250,-61.523,-45.898,6.348,0.000
1737558643.657,-11.230,-60.547,-40.527,36.621,0.000
1737558643.661,24.902,-56.641,-37.598,110.840,0.000
1737558643.665,7.324,-60.547,-44.922,114.746,0.000
1737558643.669,-20.508,-64.453,-52.246,40.527,0.000
1737558643.673,-25.391,-64.453,-43.945,4.395,0.000
1737558643.677,-18.066,-70.312,-41.016,20.996,0.000
1737558643.681,15.625,-64.453,-40.527,76.172,0.000
1737558643.685,22.461,-57.617,-31.738,116.211,0.000
1737558643.688,-10.742,-61.035,-31.250,59.082,0.000
1737558643.692,-36.621,-66.895,-41.016,-9.766,0.000
1737558643.696,-36.621,-74.219,-47.852,3.418,0.000
1737558643.700,-6.348,-70.312,-35.156,70.801,0.000
1737558643.704,13.672,-56.641,-31.738,121.094,0.000
1737558643.708,-15.137,-60.059,-38.574,51.758,0.000
1737558643.712,-48.340,-69.824,-33.691,-28.809,0.000
1737558643.716,-32.715,-67.871,-31.738,-16.602,0.000
1737558643.720,3.906,-64.453,-32.715,44.434,0.000
1737558643.724,10.742,-60.547,-30.273,101.074,0.000
1737558643.727,-29.785,-65.918,-38.574,57.617,0.000
1737558643.731,-52.734,-65.918,-43.945,-8.301,0.000
1737558643.735,-34.180,-59.570,-40.527,-3.418,0.000
1737558643.739,-11.230,-56.641,-32.227,43.457,0.000
1737558643.743,1.953,-57.129,-28.320,102.539,0.000
1737558643.747,-21.484,-63.965,-41.016,66.406,0.000
1737558643.751,-39.062,-67.383,-58.594,-15.137,0.000
1737558643.755,-27.832,-62.988,-60.059,-15.137,0.000
1737558643.759,-5.859,-60.547,-45.410,33.203,0.000
1737558643.763,8.301,-55.176,-28.809,93.262,0.000
1737558643.767,-21.973,-58.594,-28.809,76.172,0.000
1737558643.770,-41.016,-65.918,-40.039,-2.930,0.000
1737558643.774,-31.738,-67.383,-42.480,-29.297,0.000
1737558643.778,-14.648,-65.430,-42.480,2.441,0.000
1737558643.782,12.695,-55.664,-43.457,80.566,0.000
1737558643.786,3.906,-60.059,-51.270,74.707,0.000
1737558643.790,-42.480,-68.848,-58.594,-12.207,0.000
1737558643.794,-46.875,-60.059,-54.688,-36.621,0.000
1737558643.798,-16.113,-55.664,-52.734,11.230,0.000
1737558643.802,15.137,-56.641,-46.875,82.031,0.000
1737558643.806,-6.348,-51.758,-41.016,80.078,0.000
1737558643.810,-40.039,-50.781,-44.434,3.906,0.000
1737558643.813,-37.109,-62.988,-46.875,-33.203,0.000
1737558643.817,-15.137,-64.453,-41.016,3.418,0.000
1737558643.821,12.207,-55.664,-40.527,70.312,0.000
1737558643.825,11.719,-54.199,-40.039,78.125,0.000
1737558643.829,-19.043,-57.129,-35.156,17.578,0.000
1737558643.833,-46.875,-68.359,-41.992,-31.738,0.000
1737558643.837,-37.109,-72.266,-43.457,-7.324,0.000
1737558643.841,-8.789,-62.500,-34.180,68.848,0.000
1737558643.845,-2.441,-55.664,-35.156,96.680,0.000
1737558643.849,-36.621,-62.012,-42.969,22.949,0.000
1737558643.852,-60.059,-62.500,-50.293,-41.016,0.000
1737558643.856,0.000,-55.176,-49.805,-16.113,0.000
1737558643.860,0.000,-54.688,-42.969,53.223,0.000
1737558643.864,0.000,-57.129,-33.691,82.520,0.000
1737558643.868,0.000,-63.477,-36.621,22.949,0.000
1737558643.872,0.000,-62.988,-38.086,-32.227,0.000
1737558643.876,0.000,-53.711,-33.203,-18.066,0.000
1737558643.880,0.000,-56.152,-31.738,36.133,0.000
1737558643.884,0.000,-58.594,-34.180,69.336,0.000
1737558643.888,0.000,-60.059,-44.434,23.926,0.000
1737558643.892,0.000,-68.359,-42.480,-33.691,0.000
1737558643.895,0.000,-63.477,-41.504,-26.367,0.000
1737558643.899,0.000,-56.641,-49.316,28.809,0.000
1737558643.903,8.789,-57.617,-40.527,77.637,0.000
1737558643.907,-9.277,-61.523,-30.273,39.062,0.000
1737558643.911,-37.598,-69.336,-39.062,-27.832,0.000
1737558643.915,-26.855,-69.336,-54.199,-27.344,0.000
1737558643.919,1.465,-55.664,-46.387,30.273,0.000
1737558643.923,13.184,-49.805,-34.180,82.031,0.000
1737558643.927,-4.883,-57.617,-28.809,44.434,0.000
1737558643.931,-39.551,-63.965,-31.250,-32.227,0.000
1737558643.935,-34.668,-70.801,-40.527,-46.875,0.000
1737558643.938,4.395,-64.941,-36.621,12.207,0.000
1737558643.942,15.625,-55.664,-30.762,82.520,0.000
1737558643.946,-10.742,-62.988,-30.273,57.129,0.000
1737558643.950,-32.227,-71.289,-32.715,-16.113,0.000
1737558643.954,-36.133,-67.871,-35.645,-31.250,0.000
1737558643.958,-23.438,-62.012,-33.203,6.836,0.000
1737558643.962,-2.930,-55.176,-30.762,75.195,0.000
1737558643.966,-7.812,-48.828,-30.762,84.473,0.000
1737558643.970,-36.133,-57.129,-36.133,13.672,0.000
1737558643.974,-41.992,-62.988,-41.016,-22.949,0.000
1737558643.978,-24.902,-63.477,-38.574,18.555,0.000
1737558643.981,5.859,-65.918,-37.109,80.078,0.000
1737558643.985,3.418,-69.336,-37.598,74.707,0.000
1737558643.989,-31.250,-67.383,-41.992,5.859,0.000
1737558643.993,-48.340,-62.988,-48.340,-32.227,0.000
1737558643.997,-24.414,-59.570,-43.945,-8.301,0.000
1737558644.001,3.418,-55.664,-32.227,61.035,0.000
1737558644.005,-9.277,-61.035,-28.320,88.379,0.000
1737558644.009,-23.438,-65.918,-34.668,21.484,0.000
1737558644.013,-29.785,-62.988,-40.527,-31.738,0.000
1737558644.017,-27.832,-60.059,-40.527,-10.254,0.000
1737558644.021,9.766,-60.059,-31.250,53.711,0.000
1737558644.024,16.602,-60.059,-30.762,83.008,0.000
1737558644.028,-22.949,-60.547,-40.039,22.949,0.000
1737558644.032,-47.363,-62.012,-43.945,-45.410,0.000
1737558644.036,-35.156,-58.594,-49.316,-35.156,0.000
1737558644.040,-6.836,-58.105,-46.387,27.832,0.000
1737558644.044,-4.883,-62.500,-33.203,62.500,0.000
1737558644.048,-40.039,-67.383,-40.039,3.418,0.000
1737558644.052,-46.387,-66.406,-50.781,-62.988,0.000
1737558644.056,-24.902,-61.523,-40.039,-47.363,0.000
1737558644.060,-7.324,-58.594,-30.762,16.602,0.000
1737558644.064,3.418,-56.152,-32.715,67.871,0.000
1737558644.067,-13.672,-54.688,-43.457,26.367,0.000
1737558644.071,-27.344,-54.688,-48.340,-49.805,0.000
1737558644.075,-21.484,-59.570,-41.016,-52.734,0.000
1737558644.079,-2.441,-62.500,-37.598,-7.324,0.000
1737558644.083,-4.395,-60.059,-37.109,47.363,0.000
1737558644.087,-33.203,-65.430,-38.574,22.949,0.000
1737558644.091,-47.363,-66.895,-47.852,-42.480,0.000
1737558644.095,-26.855,-62.500,-48.828,-43.945,0.000
1737558644.099,0.488,-58.105,-45.410,7.812,0.000
1737558644.103,10.742,-59.570,-45.898,64.941,0.000
1737558644.106,-7.324,-60.059,-42.969,44.434,0.000
1737558644.110,-41.016,-58.105,-42.969,-25.391,0.000
1737558644.114,-41.016,-61.035,-47.852,-48.828,0.000
1737558644.118,-21.484,-62.500,-48.340,-12.695,0.000
1737558644.122,-11.719,-55.176,-38.086,60.059,0.000
1737558644.126,-19.531,-56.641,-37.598,58.594,0.000
1737558644.130,-42.480,-64.453,-45.410,-19.043,0.000
1737558644.134,-41.504,-58.594,-41.504,-40.039,0.000
1737558644.138,-20.996,-50.293,-31.250,2.441,0.000
1737558644.142,-3.906,-48.340,-31.738,52.246,0.000
1737558644.146,-9.277,-58.594,-40.039,45.410,0.000
1737558644.149,-31.738,-62.988,-47.363,-24.902,0.000
1737558644.153,-49.316,-62.988,-58.105,-66.406,0.000
1737558644.157,-34.668,-57.617,-48.828,-34.180,0.000
1737558644.161,-8.301,-55.176,-36.133,35.645,0.000
1737558644.165,-7.812,-56.152,-33.203,36.133,0.000
1737558644.169,-45.898,-56.152,-36.133,-37.109,0.000
1737558644.173,-54.199,-54.199,-38.086,-63.965,0.000
1737558644.177,-22.461,-51.270,-30.762,-29.297,0.000
1737558644.181,-2.930,-49.805,-35.156,30.273,0.000
1737558644.185,-9.766,-52.734,-39.551,50.293,0.000
1737558644.189,-31.738,-67.383,-36.133,-4.883,0.000
1737558644.192,-51.758,-71.289,-41.504,-56.641,0.000
1737558644.196,-35.645,-61.035,-46.875,-47.363,0.000
1737558644.200,-2.441,-52.246,-43.945,12.207,0.000
1737558644.204,-9.277,-49.316,-45.898,52.734,0.000
1737558644.208,-42.969,-54.199,-50.293,-0.977,0.000
1737558644.212,-44.434,-59.570,-48.340,-63.477,0.000
1737558644.216,-24.414,-59.082,-45.410,-55.664,0.000
1737558644.220,-19.531,-57.129,-42.480,-6.348,0.000
1737558644.224,-5.371,-60.059,-40.527,45.410,0.000
1737558644.228,-23.438,-65.918,-45.898,0.977,0.000
1737558644.231,-59.570,-67.383,-47.363,-58.105,0.000
1737558644.235,-48.340,-59.082,-45.410,-42.969,0.000
1737558644.239,-16.113,-51.270,-39.062,12.695,0.000
1737558644.243,-0.977,-47.852,-37.109,69.824,0.000
1737558644.247,-18.066,-53.711,-40.039,29.785,0.000
1737558644.251,-42.480,-56.641,-41.504,-45.898,0.000
1737558644.255,-33.691,-54.688,-44.922,-47.852,0.000
1737558644.259,-5.371,-57.129,-43.945,-3.906,0.000
1737558644.263,7.324,-56.152,-43.945,48.340,0.000
1737558644.267,-13.672,-55.664,-48.828,27.344,0.000
1737558644.270,-41.504,-57.617,-48.340,-49.316,0.000
1737558644.274,-35.645,-52.734,-43.457,-62.500,0.000
1737558644.278,-10.254,-48.340,-34.668,-14.160,0.000
1737558644.282,4.883,-48.828,-26.855,58.594,0.000
1737558644.286,-8.301,-55.176,-36.621,45.410,0.000
1737558644.290,-33.691,-62.012,-44.434,-39.062,0.000
1737558644.294,-34.668,-61.035,-41.016,-50.293,0.000
1737558644.298,-20.020,-59.082,-36.621,0.977,0.000
1737558644.302,4.883,-52.734,-36.621,53.711,0.000
1737558644.306,-9.766,-50.781,-36.621,49.316,0.000
1737558644.310,-40.527,-60.547,-40.527,-17.578,0.000
1737558644.313,-41.992,-63.477,-48.340,-55.664,0.000
1737558644.317,-29.297,-55.176,-48.340,-21.973,0.000
1737558644.321,-11.230,-52.246,-39.062,50.781,0.000
1737558644.325,-12.695,-50.293,-35.156,62.988,0.000
1737558644.329,-41.016,-60.059,-43.945,-14.648,0.000
1737558644.333,-47.363,-69.336,-46.875,-62.500,0.000
1737558644.337,-15.625,-60.059,-41.504,-34.668,0.000
1737558644.341,13.672,-56.641,-34.668,43.945,0.000
1737558644.345,-5.859,-62.500,-30.273,66.406,0.000
1737558644.349,-41.016,-60.059,-40.527,-11.230,0.000
1737558644.353,-42.480,-58.594,-51.758,-69.824,0.000
1737558644.356,-20.996,-63.477,-49.805,-53.711,0.000
1737558644.360,4.883,-57.617,-37.598,7.812,0.000
1737558644.364,13.672,-54.199,-33.691,37.598,0.000
1737558644.368,-21.484,-65.430,-42.969,-20.020,0.000
1737558644.372,-42.969,-72.754,-49.805,-69.824,0.000
1737558644.376,-24.902,-71.289,-50.781,-64.453,0.000
1737558644.380,-7.324,-63.965,-46.875,0.977,0.000
1737558644.384,-0.488,-54.199,-41.992,52.246,0.000
1737558644.388,-21.973,-58.594,-44.434,-2.441,0.000
1737558644.392,-41.504,-56.641,-41.504,-57.129,0.000
1737558644.396,-21.973,-52.246,-33.691,-46.875,0.000
1737558644.399,-4.395,-52.246,-24.902,2.441,0.000
1737558644.403,-5.859,-49.805,-28.320,49.316,0.000
1737558644.407,-22.461,-50.781,-41.016,8.789,0.000
1737558644.411,-31.738,-51.270,-35.156,-50.293,0.000
1737558644.415,-26.367,-58.594,-36.133,-57.129,0.000
1737558644.419,-18.555,-58.105,-40.527,-13.672,0.000
1737558644.423,-1.953,-49.316,-35.645,43.457,0.000
1737558644.427,-19.531,-56.641,-38.574,11.230,0.000
1737558644.431,-37.598,-62.012,-43.945,-56.152,0.000
1737558644.435,-20.996,-56.641,-41.016,-72.754,0.000
1737558644.439,-15.137,-55.176,-40.039,-28.809,0.000
1737558644.442,-11.719,-50.781,-39.551,46.387,0.000
1737558644.446,-23.926,-50.293,-38.574,27.344,0.000
1737558644.450,-41.992,-59.570,-52.246,-51.270,0.000
1737558644.454,-26.367,-53.223,-53.711,-64.453,0.000
1737558644.458,-4.883,-45.410,-41.504,-24.414,0.000
1737558644.462,12.207,-46.387,-34.180,41.992,0.000
1737558644.466,-2.441,-46.387,-33.203,37.598,0.000
1737558644.470,-27.832,-47.852,-38.086,-33.691,0.000
1737558644.474,-33.203,-48.340,-44.922,-66.406,0.000
1737558644.478,-14.648,-41.992,-42.969,-32.715,0.000
1737558644.482,15.137,-36.133,-28.809,42.969,0.000
1737558644.485,1.465,-36.621,-33.203,46.875,0.000
1737558644.489,-23.926,-44.922,-47.363,-35.645,0.000
1737558644.493,-37.109,-56.641,-41.504,-78.613,0.000
1737558644.497,-28.320,-51.758,-27.344,-46.875,0.000
1737558644.501,2.930,-39.062,-25.391,22.461,0.000
1737558644.505,1.953,-42.969,-31.250,32.715,0.000
1737558644.509,-32.227,-51.270,-39.062,-28.809,0.000
1737558644.513,-55.664,-49.316,-41.016,-67.383,0.000
1737558644.517,-32.715,-53.711,-38.574,-40.527,0.000
1737558644.521,6.348,-50.293,-30.762,35.645,0.000
1737558644.524,2.441,-46.387,-31.738,66.406,0.000
1737558644.528,-40.039,-56.641,-40.527,-0.977,0.000
1737558644.532,-49.316,-60.059,-39.551,-60.059,0.000
1737558644.536,-15.137,-55.664,-37.109,-43.945,0.000
1737558644.540,-0.977,-54.199,-36.133,20.020,0.000
1737558644.544,-10.742,-54.199,-33.691,67.871,0.000
1737558644.548,-31.738,-60.059,-33.203,22.949,0.000
1737558644.552,-43.457,-64.941,-42.480,-53.711,0.000
1737558644.556,-21.973,-60.547,-45.410,-42.480,0.000
1737558644.560,4.883,-54.688,-38.574,38.574,0.000
1737558644.564,6.348,-52.246,-30.273,91.797,0.000
1737558644.567,-19.531,-55.176,-25.879,46.875,0.000
1737558644.571,-43.457,-58.594,-27.832,-20.996,0.000
1737558644.575,-28.320,-58.594,-37.598,-23.926,0.000
1737558644.579,0.000,-52.246,-33.691,30.273,0.000
1737558644.583,-12.207,-51.270,-26.367,85.938,0.000
1737558644.587,-30.273,-51.758,-26.367,45.410,0.000
1737558644.591,-49.805,-58.105,-38.574,-37.598,0.000
1737558644.595,-45.410,-61.035,-50.293,-41.504,0.000
1737558644.599,-12.207,-49.805,-41.992,21.484,0.000
1737558644.603,3.418,-43.945,-31.250,85.449,0.000
1737558644.607,-26.855,-54.199,-32.715,57.129,0.000
1737558644.610,-47.363,-62.988,-45.410,-16.602,0.000
1737558644.614,-37.598,-59.082,-53.711,-36.621,0.000
1737558644.618,-22.949,-54.199,-44.434,7.324,0.000
1737558644.622,-5.371,-52.734,-33.691,83.984,0.000
1737558644.626,-21.973,-56.641,-37.598,70.312,0.000
1737558644.630,-46.387,-62.988,-42.969,-9.766,0.000
1737558644.634,-37.109,-65.918,-41.504,-30.762,0.000
1737558644.638,-20.020,-57.617,-37.109,14.160,0.000
1737558644.642,-2.441,-49.316,-28.809,84.473,0.000
1737558644.646,7.812,-48.828,-28.320,86.426,0.000
1737558644.649,-24.414,-53.223,-48.340,12.695,0.000
1737558644.653,-48.828,-53.711,-47.363,-26.855,0.000
1737558644.657,-33.203,-48.828,-27.344,2.441,0.000
1737558644.661,-8.789,-49.805,-27.832,60.547,0.000
1737558644.665,-10.254,-48.828,-36.621,76.172,0.000
1737558644.669,-41.992,-51.270,-41.992,9.766,0.000
1737558644.673,-51.758,-55.176,-48.828,-34.180,0.000
1737558644.677,-27.344,-54.199,-50.781,-12.207,0.000
1737558644.681,-4.395,-51.758,-40.039,48.340,0.000
1737558644.685,-2.930,-44.922,-29.785,71.777,0.000
1737558644.689,-32.715,-49.805,-36.621,3.906,0.000
1737558644.692,-61.523,-55.664,-45.410,-49.316,0.000
1737558644.696,-41.992,-51.758,-41.016,-24.414,0.000
1737558644.700,-3.906,-44.922,-32.227,32.227,0.000
1737558644.704,12.207,-44.922,-30.762,67.383,0.000
1737558644.708,-11.230,-52.734,-37.598,11.719,0.000
1737558644.712,-49.316,-62.500,-43.457,-60.547,0.000
1737558644.716,-31.250,-65.430,-46.875,-52.246,0.000
1737558644.720,3.418,-57.129,-41.016,17.578,0.000
1737558644.724,-3.906,-55.176,-39.062,61.035,0.000
1737558644.728,-37.598,-58.594,-48.828,13.672,0.000
1737558644.732,-63.477,-60.059,-52.246,-53.711,0.000
1737558644.735,-42.480,-57.129,-46.875,-56.152,0.000
1737558644.739,-7.324,-51.758,-41.016,3.418,0.000
1737558644.743,1.953,-54.688,-40.039,51.758,0.000
1737558644.747,-22.949,-60.059,-47.363,5.859,0.000
1737558644.751,-37.598,-53.223,-51.758,-55.664,0.000
1737558644.755,-32.227,-55.176,-52.734,-62.988,0.000
1737558644.759,-23.438,-56.641,-45.410,-10.742,0.000
1737558644.763,-5.859,-54.199,-44.434,57.617,0.000
1737558644.767,-13.672,-54.199,-43.457,28.809,0.000
1737558644.771,-41.504,-50.293,-39.551,-41.992,0.000
1737558644.775,-36.133,-50.781,-49.316,-50.293,0.000
1737558644.778,-15.625,-50.293,-48.340,-3.906,0.000
1737558644.782,-0.977,-47.363,-43.457,55.664,0.000
1737558644.786,-15.137,-52.246,-46.387,31.250,0.000
1737558644.790,-49.316,-61.523,-49.805,-42.480,0.000
1737558644.794,-40.527,-62.012,-49.316,-60.547,0.000
1737558644.798,-12.695,-57.617,-41.016,-21.484,0.000
1737558644.802,0.000,-53.223,-32.227,51.270,0.000
1737558644.806,-9.766,-50.781,-36.133,54.688,0.000
1737558644.810,-40.039,-54.688,-46.875,-27.832,0.000
1737558644.814,-52.734,-47.852,-41.992,-60.059,0.000
1737558644.818,-27.832,-39.062,-31.738,-18.555,0.000
1737558644.821,-1.465,-41.992,-29.785,42.480,0.000
1737558644.825,-9.766,-44.434,-38.086,44.922,0.000
1737558644.829,-33.203,-46.875,-48.828,-22.949,0.000
1737558644.833,-38.086,-55.176,-46.875,-47.363,0.000
1737558644.837,-23.438,-55.664,-44.434,-9.766,0.000
1737558644.841,-4.883,-52.734,-42.969,49.316,0.000
1737558644.845,-9.277,-57.617,-38.574,55.664,0.000
1737558644.849,-45.410,-66.895,-48.828,-16.113,0.000
1737558644.853,-59.570,-69.336,-48.340,-53.711,0.000
1737558644.857,-37.109,-63.965,-37.598,-34.668,0.000
1737558644.860,-14.648,-55.664,-35.645,16.602,0.000
1737558644.864,-14.160,-44.434,-29.785,44.922,0.000
1737558644.868,-43.457,-32.715,-12.207,-18.555,0.000
1737558644.872,-27.832,-16.113,25.879,-41.992,0.000
1737558644.876,-24.414,-25.391,-3.906,-32.715,0.000
1737558644.880,-26.367,-16.113,23.438,13.184,0.000
1737558644.884,-31.250,39.551,78.613,46.387,0.000
1737558644.888,-36.133,190.918,105.957,12.695,0.000
1737558644.892,-55.664,109.375,-12.207,-59.570,0.000
1737558644.896,-119.141,-131.348,-113.770,-148.438,0.000
1737558644.900,-152.832,-106.934,-61.035,-164.062,0.000
1737558644.903,-195.801,-25.879,-2.930,-177.734,0.000
1737558644.907,-233.887,69.336,83.496,-253.906,0.000
1737558644.911,-251.465,133.301,48.828,-319.336,0.000
1737558644.915,-246.094,208.008,-49.805,-319.336,0.000
1737558644.919,-239.746,291.504,10.742,-291.504,0.000
1737558644.923,-253.418,243.652,55.176,-273.926,0.000
1737558644.927,-262.207,236.328,73.730,-312.012,0.000
1737558644.931,-256.348,280.273,79.102,-372.070,0.000
1737558644.935,-260.742,204.590,101.074,-404.785,0.000
1737558644.939,-235.840,112.305,160.645,-366.211,0.000
1737558644.943,-225.098,155.273,187.988,-297.852,0.000
1737558644.946,-255.859,221.191,219.727,-329.590,0.000
1737558644.950,-274.414,236.328,253.906,-396.484,0.000
1737558644.954,-258.301,247.070,280.273,-382.324,0.000
1737558644.958,-237.793,251.953,305.664,-314.941,0.000
1737558644.962,-218.750,246.582,336.914,-211.426,0.000
1737558644.966,-209.961,235.352,358.887,-172.363,0.000
1737558644.970,-209.961,218.750,356.445,-205.566,0.000
1737558644.974,-193.848,200.684,365.234,-204.590,0.000
1737558644.978,-155.273,193.848,381.348,-149.902,0.000
1737558644.982,-135.254,197.266,386.230,-72.266,0.000
1737558644.985,-131.348,196.777,370.605,-59.570,0.000
1737558644.989,-123.535,192.383,343.750,-110.840,0.000
1737558644.993,-120.117,210.449,327.148,-106.445,0.000
1737558644.997,-95.215,258.301,321.289,-44.922,0.000
1737558645.001,-54.199,329.590,301.270,39.062,0.000
1737558645.005,-42.480,423.828,260.742,66.406,0.000
1737558645.009,-48.828,513.184,226.074,-1.465,0.000
1737558645.013,-42.480,574.219,198.242,-32.715,0.000
1737558645.017,-15.137,589.844,179.688,1.953,0.000
1737558645.021,20.996,583.984,162.598,83.496,0.000
1737558645.024,36.133,571.289,128.906,119.141,0.000
1737558645.028,18.555,536.133,84.473,59.082,0.000
1737558645.032,5.859,493.652,57.129,8.301,0.000
1737558645.036,25.391,451.172,43.457,-0.977,0.000
1737558645.040,53.711,412.109,31.738,64.941,0.000
1737558645.044,70.801,371.094,11.719,109.375,0.000
1737558645.048,64.453,328.613,-7.324,54.688,0.000
1737558645.052,51.758,282.715,-16.113,-0.488,0.000
1737558645.056,64.941,244.141,-26.855,1.465,0.000
1737558645.060,96.191,212.891,-33.203,62.012,0.000
1737558645.064,104.492,183.594,-35.156,110.840,0.000
1737558645.067,83.008,153.809,-54.688,52.734,0.000
1737558645.071,70.312,125.977,-78.125,-11.230,0.000
1737558645.075,75.195,103.516,-79.590,0.488,0.000
1737558645.079,84.961,80.078,-69.824,43.457,0.000
1737558645.083,92.773,51.758,-67.871,69.336,0.000
1737558645.087,88.867,31.250,-77.637,27.832,0.000
1737558645.091,53.711,7.812,-103.027,-37.598,0.000
1737558645.095,47.363,-8.301,-108.887,-55.664,0.000
1737558645.099,77.637,-18.066,-93.750,-15.137,0.000
1737558645.103,88.379,-33.691,-83.496,42.969,0.000
1737558645.107,68.848,-49.805,-89.355,11.719,0.000
1737558645.110,45.410,-62.500,-103.027,-57.617,0.000
1737558645.114,54.199,-70.801,-104.004,-63.965,0.000
1737558645.118,71.777,-76.172,-94.727,-19.531,0.000
1737558645.122,69.824,-83.496,-87.402,44.434,0.000
1737558645.126,52.734,-90.820,-94.727,36.621,0.000
1737558645.130,31.738,-104.004,-104.980,-50.293,0.000
1737558645.134,37.598,-117.188,-96.680,-73.242,0.000
1737558645.138,55.176,-119.629,-87.891,-28.320,0.000
1737558645.142,62.988,-114.746,-83.008,25.879,0.000
1737558645.146,47.852,-121.094,-80.566,10.254,0.000
1737558645.150,11.230,-130.371,-92.285,-63.965,0.000
1737558645.153,12.207,-133.789,-99.609,-76.660,0.000
1737558645.157,40.039,-132.324,-100.586,-31.250,0.000
1737558645.161,47.363,-134.277,-87.891,28.320,0.000
1737558645.165,38.574,-133.789,-77.148,35.645,0.000
1737558645.169,16.113,-137.207,-83.496,-37.109,0.000
1737558645.173,12.695,-141.602,-85.449,-84.961,0.000
1737558645.177,34.180,-135.254,-82.520,-46.875,0.000
1737558645.181,44.434,-133.789,-75.195,28.320,0.000
1737558645.185,37.598,-136.719,-70.801,47.363,0.000
1737558645.189,19.531,-140.137,-76.660,-13.672,0.000
1737558645.193,2.930,-147.461,-83.496,-67.383,0.000
1737558645.196,20.996,-149.902,-89.355,-48.340,0.000
1737558645.200,44.922,-144.531,-98.145,21.973,0.000
1737558645.204,34.668,-142.578,-98.633,35.645,0.000
1737558645.208,21.484,-144.531,-85.938,-28.809,0.000
1737558645.212,0.000,-149.902,-75.684,-69.336,0.000
1737558645.216,-8.789,-151.855,-69.336,-63.477,0.000
1737558645.220,21.973,-144.043,-62.988,-0.977,0.000
1737558645.224,28.320,-140.137,-71.777,48.828,0.000
1737558645.228,11.230,-140.137,-72.754,3.906,0.000
1737558645.232,4.883,-138.184,-76.172,-60.547,0.000
1737558645.236,1.953,-137.695,-77.637,-49.805,0.000
1737558645.239,17.578,-137.207,-57.617,10.742,0.000
1737558645.243,32.227,-130.371,-49.805,66.406,0.000
1737558645.247,20.996,-131.836,-61.035,15.137,0.000
1737558645.251,-5.859,-135.742,-70.312,-68.848,0.000
1737558645.255,-12.207,-133.789,-64.453,-65.918,0.000
1737558645.259,11.719,-130.371,-61.523,-8.789,0.000
1737558645.263,28.809,-124.512,-54.199,47.363,0.000
1737558645.267,8.301,-120.117,-44.434,12.695,0.000
1737558645.271,-22.461,-121.582,-60.547,-57.129,0.000
1737558645.275,-13.672,-122.559,-66.406,-58.594,0.000
1737558645.278,2.930,-118.652,-43.457,-4.395,0.000
1737558645.282,18.555,-107.910,-31.250,63.477,0.000
1737558645.286,5.371,-111.816,-38.086,46.387,0.000
1737558645.290,-16.113,-117.188,-47.852,-24.414,0.000
1737558645.294,-15.137,-114.258,-54.199,-46.875,0.000
1737558645.298,-10.254,-114.258,-53.711,-5.859,0.000
1737558645.302,11.719,-105.957,-42.480,60.547,0.000
1737558645.306,7.324,-100.098,-33.203,46.387,0.000
1737558645.310,-18.066,-103.516,-39.062,-30.762,0.000
1737558645.314,-12.207,-105.469,-45.410,-48.828,0.000
1737558645.318,-8.789,-105.469,-40.527,-12.207,0.000
1737558645.321,0.000,-104.492,-32.227,47.852,0.000
1737558645.325,0.488,-103.516,-37.598,52.246,0.000
1737558645.329,-25.879,-95.215,-49.316,-12.695,0.000
1737558645.333,-23.926,-94.727,-55.664,-43.457,0.000
1737558645.337,-2.930,-99.121,-59.082,-14.648,0.000
1737558645.341,15.137,-92.285,-49.805,54.199,0.000
1737558645.345,10.742,-92.773,-33.203,64.453,0.000
1737558645.349,-17.090,-103.516,-36.621,1.953,0.000
1737558645.353,-32.227,-100.098,-44.434,-26.367,0.000
1737558645.357,-15.625,-88.379,-38.574,4.395,0.000
1737558645.360,15.137,-89.844,-31.738,63.965,0.000
1737558645.364,13.672,-96.680,-29.297,78.125,0.000
1737558645.368,-22.461,-105.469,-31.738,8.789,0.000
1737558645.372,-34.180,-109.375,-35.645,-41.016,0.000
1737558645.376,-5.859,-93.750,-40.527,-18.066,0.000
1737558645.380,16.602,-84.473,-43.457,44.922,0.000
1737558645.384,10.742,-95.703,-56.641,65.918,0.000
1737558645.388,-21.484,-101.074,-66.406,3.418,0.000
1737558645.392,-39.551,-100.098,-50.781,-50.293,0.000
1737558645.396,-24.414,-101.562,-36.621,-34.668,0.000
1737558645.399,-2.930,-95.703,-32.227,27.344,0.000
1737558645.404,0.000,-90.332,-32.715,75.195,0.000
1737558645.407,0.000,-93.750,-40.039,27.832,0.000
1737558645.411,0.000,-97.656,-45.898,-43.457,0.000
1737558645.415,0.000,-95.215,-47.852,-27.344,0.000
1737558645.419,0.000,-92.773,-52.734,33.203,0.000
1737558645.423,0.000,-93.750,-43.945,67.871,0.000
1737558645.427,0.000,-99.121,-39.551,22.461,0.000
1737558645.431,0.000,-104.004,-50.781,-46.875,0.000
1737558645.435,0.000,-104.004,-57.129,-43.457,0.000
1737558645.439,0.000,-102.539,-56.641,-3.418,0.000
1737558645.442,0.000,-94.727,-42.969,42.480,0.000
1737558645.446,0.000,-91.797,-31.738,28.809,0.000
1737558645.450,-45.410,-94.727,-36.133,-39.551,0.000
1737558645.454,-33.203,-90.332,-38.574,-49.805,0.000
1737558645.458,-5.371,-83.008,-34.180,-6.348,0.000
1737558645.462,11.230,-81.055,-34.668,49.316,0.000
1737558645.466,1.465,-78.125,-36.133,48.828,0.000
1737558645.470,-31.250,-79.590,-40.039,-20.508,0.000
1737558645.474,-41.016,-88.379,-52.246,-58.594,0.000
1737558645.478,-14.648,-90.332,-55.176,-23.926,0.000
1737558645.482,4.395,-92.285,-40.039,41.504,0.000
1737558645.485,-17.090,-93.750,-28.320,28.809,0.000
1737558645.489,-40.527,-93.262,-30.273,-50.781,0.000
1737558645.493,-28.809,-89.355,-38.086,-68.848,0.000
1737558645.497,-7.812,-81.543,-38.086,-24.414,0.000
1737558645.501,16.113,-77.637,-35.645,35.156,0.000
1737558645.505,8.301,-76.660,-33.691,40.039,0.000
1737558645.509,-29.297,-80.566,-43.945,-31.250,0.000
1737558645.513,-26.855,-78.613,-47.363,-67.383,0.000
1737558645.517,-0.977,-72.266,-42.480,-37.598,0.000
1737558645.521,10.254,-71.289,-42.969,18.066,0.000
1737558645.525,-7.324,-73.730,-38.086,30.762,0.000
1737558645.528,-23.926,-76.172,-33.691,-32.227,0.000
1737558645.532,-24.414,-76.660,-38.086,-77.148,0.000
1737558645.536,-3.906,-72.754,-37.109,-66.406,0.000
1737558645.540,16.602,-69.336,-26.855,-3.418,0.000
1737558645.544,9.277,-66.406,-24.414,28.320,0.000
1737558645.548,-19.043,-66.406,-30.762,-38.574,0.000
1737558645.552,-36.133,-69.336,-32.227,-91.797,0.000
1737558645.556,-26.367,-77.148,-41.504,-80.078,0.000
1737558645.560,5.371,-74.219,-42.969,-13.184,0.000
1737558645.564,14.160,-64.941,-42.480,31.250,0.000
1737558645.568,-19.043,-72.266,-51.758,-24.902,0.000
1737558645.571,-26.855,-76.172,-49.805,-71.289,0.000
1737558645.575,-17.578,-72.754,-43.457,-52.734,0.000
1737558645.579,-10.742,-76.660,-36.621,-7.324,0.000
1737558645.583,-0.977,-75.195,-34.180,23.926,0.000
1737558645.587,-21.484,-75.195,-41.992,-10.254,0.000
1737558645.591,-41.504,-83.984,-55.664,-61.523,0.000
1737558645.595,-44.434,-85.449,-55.176,-69.336,0.000
1737558645.599,-20.020,-81.543,-41.504,-30.273,0.000
1737558645.603,0.977,-79.590,-30.273,35.156,0.000
1737558645.607,-25.391,-83.496,-36.621,7.812,0.000
1737558645.611,-38.086,-79.590,-51.270,-61.035,0.000
1737558645.614,-20.508,-69.336,-56.641,-54.688,0.000
1737558645.618,-6.348,-73.242,-51.270,-13.184,0.000
1737558645.622,11.230,-69.824,-35.645,36.621,0.000
1737558645.626,-9.277,-64.941,-41.016,20.508,0.000
1737558645.630,-38.574,-70.312,-62.500,-42.969,0.000
1737558645.634,-19.531,-72.266,-57.129,-57.617,0.000
1737558645.638,-10.742,-69.336,-47.852,-25.879,0.000
1737558645.642,-0.488,-62.988,-39.062,43.457,0.000
1737558645.646,0.488,-60.547,-29.785,35.156,0.000
1737558645.650,-27.832,-70.801,-41.992,-48.340,0.000
1737558645.654,-30.273,-69.336,-47.852,-56.152,0.000
1737558645.657,-10.254,-60.059,-41.992,-7.812,0.000
1737558645.661,4.395,-68.359,-36.133,42.969,0.000
1737558645.665,-7.812,-69.824,-29.297,39.062,0.000
1737558645.669,-21.973,-67.383,-33.203,-27.832,0.000
1737558645.673,-21.484,-70.801,-43.945,-60.059,0.000
1737558645.677,-24.902,-65.430,-45.898,-20.508,0.000
1737558645.681,-20.508,-63.965,-38.574,38.574,0.000
1737558645.685,-12.207,-60.059,-31.250,51.270,0.000
1737558645.689,-20.996,-62.500,-36.621,-0.977,0.000
1737558645.693,-27.344,-69.336,-42.480,-36.621,0.000
1737558645.696,-22.461,-67.383,-43.457,-25.391,0.000
1737558645.700,-8.789,-63.965,-42.480,18.066,0.000
1737558645.704,-6.348,-62.012,-41.504,50.781,0.000
1737558645.708,-19.531,-61.035,-41.992,3.418,0.000
1737558645.712,-34.180,-62.500,-39.062,-48.828,0.000
1737558645.716,-44.434,-64.453,-36.133,-41.504,0.000
1737558645.720,-20.508,-66.406,-41.504,19.531,0.000
1737558645.724,0.488,-61.523,-38.574,68.848,0.000
1737558645.728,-3.906,-56.152,-34.180,17.090,0.000
1737558645.732,-25.879,-66.895,-42.969,-39.551,0.000
1737558645.736,-31.250,-69.336,-43.945,-33.203,0.000
1737558645.739,-14.648,-67.383,-35.156,17.090,0.000
1737558645.743,-0.977,-64.941,-33.691,61.523,0.000
1737558645.747,-7.812,-56.152,-37.598,24.902,0.000
1737558645.751,-37.109,-54.199,-46.387,-38.574,0.000
1737558645.755,-36.621,-62.500,-46.387,-54.688,0.000
1737558645.759,-15.625,-66.406,-37.598,0.977,0.000
1737558645.763,-0.977,-60.547,-28.809,62.988,0.000
1737558645.767,-16.113,-63.477,-31.738,30.762,0.000
1737558645.771,-39.551,-71.289,-36.621,-37.109,0.000
1737558645.775,-25.879,-69.336,-31.738,-39.551,0.000
1737558645.779,-7.324,-63.477,-32.227,8.301,0.000
1737558645.782,1.465,-52.734,-45.410,71.777,0.000
1737558645.786,-11.230,-46.875,-51.758,52.246,0.000
1737558645.790,-40.527,-60.059,-45.410,-26.367,0.000
1737558645.794,-39.062,-61.035,-33.691,-31.738,0.000
1737558645.798,-18.555,-53.223,-23.926,21.484,0.000
1737558645.802,1.465,-50.293,-13.672,85.449,0.000
1737558645.806,-5.371,-57.129,-13.184,66.895,0.000
1737558645.810,-24.414,-63.477,-32.227,-3.906,0.000
1737558645.814,-21.484,-58.594,-35.645,-11.230,0.000
1737558645.818,-6.348,-56.152,-30.762,20.996,0.000
1737558645.821,3.906,-59.570,-25.391,77.148,0.000
1737558645.825,-8.789,-62.988,-22.949,79.590,0.000
1737558645.829,-23.438,-64.453,-27.832,1.465,0.000
1737558645.833,-30.762,-62.988,-29.785,-30.762,0.000
1737558645.837,-17.090,-60.059,-26.367,11.719,0.000
1737558645.841,-1.953,-57.129,-20.996,74.219,0.000
1737558645.845,-10.254,-57.617,-20.996,82.031,0.000
1737558645.849,-27.344,-60.547,-27.832,18.555,0.000
1737558645.853,-33.691,-63.477,-38.574,-33.203,0.000
1737558645.857,-16.113,-63.965,-38.574,-5.859,0.000
1737558645.861,-3.418,-64.941,-38.086,54.199,0.000
1737558645.864,-11.719,-61.523,-36.133,62.988,0.000
1737558645.868,-33.203,-59.570,-32.715,11.230,0.000
1737558645.872,-34.180,-61.523,-40.039,-27.832,0.000
1737558645.876,-19.531,-60.059,-40.039,-7.812,0.000
1737558645.880,-0.977,-62.988,-33.691,49.316,0.000
1737558645.884,4.395,-58.105,-36.133,83.984,0.000
1737558645.888,-20.996,-52.246,-16.113,26.855,0.000
1737558645.892,-29.785,-54.199,-18.555,-23.438,0.000
1737558645.896,-23.438,-54.199,-30.762,-13.184,0.000
1737558645.900,6.836,-42.969,5.859,51.270,0.000
1737558645.904,6.348,-33.691,42.480,89.355,0.000
1737558645.907,-20.020,5.371,69.824,39.551,0.000
1737558645.911,-35.156,6.836,62.500,-27.344,0.000
1737558645.915,-12.695,111.816,6.348,-4.883,0.000
1737558645.919,-26.367,59.570,-71.289,27.344,0.000
1737558645.923,-108.887,-107.910,-30.273,-26.855,0.000
1737558645.927,-173.828,-22.461,38.086,-128.906,0.000
1737558645.931,-189.453,105.469,66.895,-203.613,0.000
1737558645.935,-189.941,58.594,38.086,-222.656,0.000
1737558645.939,-182.617,74.219,-9.277,-194.336,0.000
1737558645.943,-188.965,182.129,37.109,-168.945,0.000
1737558645.946,-226.562,166.992,73.242,-237.793,0.000
1737558645.950,-271.973,239.746,44.922,-365.234,0.000
1737558645.954,-272.461,229.980,44.922,-401.367,0.000
1737558645.958,-239.746,279.785,102.539,-350.586,0.000
1737558645.962,-252.441,704.590,177.246,-322.754,0.000
1737558645.966,-283.691,977.539,148.438,-371.582,0.000
1737558645.970,-325.684,961.914,157.227,-492.676,0.000
1737558645.974,-359.375,967.285,293.457,-564.453,0.000
1737558645.978,-306.641,972.656,352.051,-530.762,0.000
1737558645.982,-257.324,970.703,454.590,-518.555,0.000
1737558645.986,-295.898,970.703,682.129,-608.398,0.000
1737558645.989,-333.008,971.191,916.504,-722.168,0.000
1737558645.993,-320.801,970.703,978.516,-745.117,0.000
1737558645.997,-315.918,970.703,963.379,-706.055,0.000
1737558646.001,-295.898,970.703,972.168,-633.789,0.000
1737558646.005,-277.832,970.703,970.703,-605.469,0.000
1737558646.009,-284.668,970.703,970.703,-667.480,0.000
1737558646.013,-294.922,970.703,970.703,-664.551,0.000
1737558646.017,-293.945,970.703,970.703,-568.848,0.000
1737558646.021,-254.395,971.191,970.703,-396.484,0.000
1737558646.025,-244.141,970.703,970.703,-280.762,0.000
1737558646.029,-265.625,970.703,970.703,-280.762,0.000
1737558646.032,-251.953,970.703,970.703,-264.648,0.000
1737558646.036,-215.820,970.703,970.703,-169.434,0.000
1737558646.040,-188.965,970.703,970.703,-54.688,0.000
1737558646.044,-159.668,970.703,970.703,-1.953,0.000
1737558646.048,-165.039,970.703,970.703,-31.738,0.000
1737558646.052,-163.086,970.703,970.703,-71.777,0.000
1737558646.056,-132.812,970.703,970.703,-48.340,0.000
1737558646.060,-86.426,970.703,970.703,44.434,0.000
1737558646.064,-56.152,970.703,970.703,103.027,0.000
1737558646.068,-60.059,970.703,970.703,70.801,0.000
1737558646.072,-61.523,970.703,971.191,13.184,0.000
1737558646.075,-49.316,970.703,972.168,12.695,0.000
1737558646.079,-10.742,970.703,967.285,71.777,0.000
1737558646.083,14.160,970.703,973.145,117.676,0.000
1737558646.087,-10.254,970.703,961.426,65.918,0.000
1737558646.091,-16.113,971.191,843.750,10.742,0.000
1737558646.095,9.766,971.191,725.586,15.137,0.000
1737558646.099,37.598,965.332,645.996,49.316,0.000
1737558646.103,61.523,975.098,550.781,109.863,0.000
1737558646.107,56.641,892.578,459.473,82.520,0.000
1737558646.111,45.410,658.691,387.695,8.789,0.000
1737558646.114,59.570,439.941,324.219,0.488,0.000
1737558646.118,71.289,263.184,277.832,31.738,0.000
1737558646.122,91.797,96.191,245.605,81.543,0.000
1737558646.126,89.844,-55.664,196.777,58.105,0.000
1737558646.130,66.895,-204.102,143.555,-26.855,0.000
1737558646.134,78.613,-334.961,103.027,-34.180,0.000
1737558646.138,99.121,-435.059,63.965,26.855,0.000
1737558646.142,114.258,-524.414,48.340,90.332,0.000
1737558646.146,107.422,-615.234,16.602,82.520,0.000
1737558646.150,81.055,-702.637,-39.062,6.348,0.000
1737558646.154,83.496,-776.855,-61.523,-20.020,0.000
1737558646.157,118.164,-826.660,-62.500,41.504,0.000
1737558646.161,135.742,-868.164,-67.383,128.906,0.000
1737558646.165,110.840,-916.504,-91.309,123.535,0.000
1737558646.169,84.473,-961.914,-116.699,53.223,0.000
1737558646.173,92.285,-995.117,-136.230,38.086,0.000
1737558646.177,115.234,-1000.000,-148.926,76.172,0.000
1737558646.181,118.164,-999.512,-149.414,130.859,0.000
1737558646.185,104.004,-1000.000,-155.762,135.742,0.000
1737558646.189,99.609,-1000.000,-166.504,70.312,0.000
1737558646.193,98.633,-1000.000,-168.945,20.508,0.000
1737558646.196,110.352,-1000.000,-179.688,39.551,0.000
1737558646.200,137.207,-1000.000,-190.430,110.840,0.000
1737558646.204,123.047,-1000.000,-176.270,115.723,0.000
1737558646.208,86.426,-1000.000,-170.898,43.457,0.000
1737558646.212,75.684,-1000.000,-180.664,-1.953,0.000
1737558646.216,88.867,-1000.000,-178.711,-1.953,0.000
1737558646.220,111.328,-1000.000,-171.387,47.363,0.000
1737558646.224,104.980,-1000.000,-175.293,76.172,0.000
1737558646.228,82.031,-1000.000,-181.152,2.441,0.000
1737558646.232,64.941,-1000.000,-178.223,-72.266,0.000
1737558646.236,69.336,-1000.000,-178.711,-55.664,0.000
1737558646.239,92.773,-1000.000,-187.012,7.324,0.000
1737558646.243,92.773,-1000.000,-193.359,38.574,0.000
1737558646.247,58.594,-1000.000,-199.219,-30.762,0.000
1737558646.251,41.992,-1000.000,-208.984,-97.168,0.000
1737558646.255,51.758,-1000.000,-207.031,-78.613,0.000
1737558646.259,68.359,-1000.000,-193.848,-11.719,0.000
1737558646.263,70.801,-1000.000,-187.988,38.086,0.000
1737558646.267,51.270,-1000.000,-187.012,-9.277,0.000
1737558646.271,29.785,-1000.000,-194.824,-91.309,0.000
1737558646.275,29.785,-1000.000,-204.590,-104.004,0.000
1737558646.279,48.340,-1000.000,-203.613,-58.105,0.000
1737558646.282,51.270,-1000.000,-192.383,-21.484,0.000
1737558646.286,28.809,-1000.000,-193.359,-60.059,0.000
1737558646.290,-1.465,-1000.000,-206.055,-112.305,0.000
1737558646.294,-6.348,-1000.000,-220.215,-110.840,0.000
1737558646.298,19.531,-1000.000,-219.727,-55.664,0.000
1737558646.302,55.664,-987.793,-195.312,18.066,0.000
1737558646.306,40.039,-979.004,-177.246,-24.414,0.000
1737558646.310,-11.719,-982.422,-177.246,-117.676,0.000
1737558646.314,-6.836,-965.332,-182.129,-125.488,0.000
1737558646.318,26.367,-945.312,-176.758,-80.566,0.000
1737558646.322,30.762,-936.523,-168.457,-18.555,0.000
1737558646.325,18.555,-927.734,-174.805,-15.625,0.000
1737558646.329,-12.695,-919.434,-184.082,-87.402,0.000
1737558646.333,-20.508,-909.668,-182.617,-128.906,0.000
1737558646.337,19.043,-892.578,-173.828,-91.797,0.000
1737558646.341,41.504,-878.418,-165.527,-29.785,0.000
1737558646.345,17.578,-874.023,-165.527,-23.438,0.000
1737558646.349,-15.625,-872.070,-159.668,-93.750,0.000
1737558646.353,-17.090,-862.305,-140.625,-121.582,0.000
1737558646.357,-0.488,-844.727,-148.926,-72.266,0.000
1737558646.361,21.973,-829.590,-156.250,-1.953,0.000
1737558646.365,19.043,-820.312,-140.137,21.973,0.000
1737558646.368,-11.230,-821.289,-130.859,-43.457,0.000
1737558646.372,-21.973,-810.059,-123.047,-89.355,0.000
1737558646.376,5.371,-789.551,-124.023,-60.547,0.000
1737558646.380,28.809,-780.273,-138.184,-3.418,0.000
1737558646.384,20.996,-774.414,-136.230,14.648,0.000
1737558646.388,-12.207,-770.020,-132.324,-51.270,0.000
1737558646.392,-29.785,-760.254,-142.090,-128.906,0.000
1737558646.396,-15.625,-745.117,-140.625,-125.488,0.000
1737558646.400,-0.488,-733.398,-129.883,-56.152,0.000
1737558646.404,9.766,-725.586,-124.023,-17.090,0.000
1737558646.408,-10.254,-715.820,-126.953,-62.988,0.000
1737558646.411,-27.344,-714.844,-127.930,-130.371,0.000
1737558646.415,-8.301,-711.426,-129.395,-130.859,0.000
1737558646.419,11.230,-693.359,-125.000,-66.406,0.000
1737558646.423,12.207,-685.059,-108.398,-12.695,0.000
1737558646.427,-2.441,-680.664,-108.398,-51.758,0.000
1737558646.431,-20.996,-675.293,-127.930,-120.117,0.000
1737558646.435,-5.371,-665.527,-128.906,-110.352,0.000
1737558646.439,13.672,-657.227,-113.770,-40.527,0.000
1737558646.443,7.324,-654.785,-106.445,14.160,0.000
1737558646.447,-3.418,-651.367,-108.887,-31.250,0.000
1737558646.450,-23.926,-650.879,-117.676,-98.145,0.000
1737558646.454,-16.602,-639.160,-109.863,-98.145,0.000
1737558646.458,24.414,-623.047,-110.840,-42.480,0.000
1737558646.462,42.969,-614.746,-116.699,24.902,0.000
1737558646.466,15.137,-609.375,-106.934,-3.906,0.000
1737558646.470,-10.254,-611.328,-98.145,-81.055,0.000
1737558646.474,-2.441,-604.004,-101.074,-96.191,0.000
1737558646.478,3.906,-592.285,-102.539,-58.105,0.000
1737558646.482,13.184,-584.961,-95.703,11.719,0.000
1737558646.486,0.977,-584.961,-92.285,-5.371,0.000
1737558646.490,-27.832,-583.008,-91.797,-87.891,0.000
1737558646.493,-28.809,-578.613,-95.703,-111.816,0.000
1737558646.497,-9.766,-569.336,-101.074,-88.379,0.000
1737558646.501,12.695,-553.223,-87.891,-7.812,0.000
1737558646.505,-2.930,-554.688,-75.195,11.719,0.000
1737558646.509,-37.109,-561.035,-86.914,-79.102,0.000
1737558646.513,-42.969,-555.664,-99.609,-129.395,0.000
1737558646.517,-38.574,-553.711,-97.656,-97.656,0.000
1737558646.521,-13.672,-543.457,-88.867,-23.438,0.000
1737558646.525,-5.371,-529.785,-90.820,-15.137,0.000
1737558646.529,-31.250,-529.785,-96.680,-102.051,0.000
1737558646.533,-36.133,-531.250,-91.309,-154.297,0.000
1737558646.536,-10.254,-522.949,-89.844,-108.398,0.000
1737558646.540,13.672,-512.207,-94.727,-34.180,0.000
1737558646.544,9.766,-507.324,-93.262,-17.090,0.000
1737558646.548,-30.273,-509.766,-89.844,-78.613,0.000
1737558646.552,-41.992,-512.695,-83.496,-135.254,0.000
1737558646.556,-23.438,-507.812,-76.172,-113.770,0.000
1737558646.560,-2.441,-497.559,-70.312,-45.898,0.000
1737558646.564,3.418,-493.164,-75.195,-6.348,0.000
1737558646.568,-24.414,-498.535,-90.820,-67.383,0.000
1737558646.572,-37.598,-493.164,-93.750,-127.441,0.000
1737558646.576,-25.391,-483.887,-82.031,-109.863,0.000
1737558646.579,-8.789,-477.051,-71.777,-41.504,0.000
1737558646.583,3.906,-468.262,-70.312,17.090,0.000
1737558646.587,-16.113,-466.309,-83.008,-31.738,0.000
1737558646.591,-48.340,-470.215,-89.355,-95.215,0.000
1737558646.595,-34.668,-465.820,-74.219,-84.473,0.000
1737558646.599,-2.930,-455.566,-60.547,-14.160,0.000
1737558646.603,8.301,-456.055,-63.477,46.875,0.000
1737558646.607,0.977,-454.102,-77.148,9.277,0.000
1737558646.611,-25.879,-454.102,-103.027,-66.895,0.000
1737558646.615,-31.738,-451.660,-103.027,-62.988,0.000
1737558646.618,-8.789,-445.312,-82.520,-1.465,0.000
1737558646.622,16.602,-438.477,-66.406,52.734,0.000
1737558646.626,4.395,-433.594,-66.406,12.207,0.000
1737558646.630,-34.180,-434.082,-73.242,-63.965,0.000
1737558646.634,-34.180,-429.199,-70.801,-65.918,0.000
1737558646.638,-2.441,-418.457,-71.777,-13.184,0.000
1737558646.642,22.949,-411.621,-65.918,56.641,0.000
1737558646.646,17.090,-412.109,-60.547,40.039,0.000
1737558646.650,-18.066,-416.992,-73.242,-40.039,0.000
1737558646.654,-33.203,-417.969,-83.008,-50.781,0.000
1737558646.658,-8.301,-408.691,-76.172,-8.301,0.000
1737558646.661,20.508,-397.949,-59.082,56.641,0.000
1737558646.665,-0.977,-402.832,-62.012,56.152,0.000
1737558646.669,-23.438,-404.785,-77.148,-30.273,0.000
1737558646.673,-16.602,-400.879,-81.543,-50.781,0.000
1737558646.677,-7.324,-395.020,-81.055,0.488,0.000
1737558646.681,12.695,-384.277,-63.477,56.641,0.000
1737558646.685,-0.977,-382.812,-55.664,61.035,0.000
1737558646.689,-35.156,-388.672,-73.242,-3.906,0.000
1737558646.693,-34.668,-389.648,-84.473,-29.785,0.000
1737558646.697,-20.020,-386.719,-80.078,16.113,0.000
1737558646.701,2.930,-375.977,-71.289,77.637,0.000
1737558646.704,0.000,-367.676,-63.477,97.168,0.000
1737558646.708,-22.949,-371.094,-65.430,38.574,0.000
1737558646.712,-34.180,-372.559,-64.453,-16.602,0.000
1737558646.716,-22.461,-369.629,-61.035,12.207,0.000
1737558646.720,-1.465,-363.281,-63.477,97.168,0.000
1737558646.724,5.859,-358.398,-56.641,131.836,0.000
1737558646.728,-25.391,-362.305,-65.430,56.641,0.000
1737558646.732,-51.270,-364.746,-77.148,-8.301,0.000
1737558646.736,-35.156,-359.863,-72.266,13.184,0.000
1737558646.740,-15.625,-353.027,-62.012,83.984,0.000
1737558646.743,-15.625,-350.586,-60.059,110.352,0.000
1737558646.747,-30.273,-351.562,-78.613,44.434,0.000
1737558646.751,-49.805,-357.422,-83.984,-20.020,0.000
1737558646.755,-39.551,-353.027,-68.359,-19.531,0.000
1737558646.759,-2.930,-339.355,-52.734,59.570,0.000
1737558646.763,4.395,-336.426,-52.734,128.418,0.000
1737558646.767,-20.508,-335.449,-53.711,74.707,0.000
1737558646.771,-36.133,-339.844,-49.805,4.395,0.000
1737558646.775,-29.785,-344.727,-46.387,0.977,0.000
1737558646.779,-3.418,-332.031,-40.527,50.293,0.000
1737558646.783,12.207,-316.895,-50.293,106.445,0.000
1737558646.786,-1.953,-318.848,-71.777,57.617,0.000
1737558646.790,-21.973,-328.613,-53.223,-7.812,0.000
1737558646.794,-19.043,-336.426,-35.156,12.207,0.000
1737558646.798,-4.395,-334.961,-42.480,61.523,0.000
1737558646.802,-0.977,-328.613,-41.016,97.656,0.000
1737558646.806,-14.648,-324.707,-42.480,71.289,0.000
1737558646.810,-27.832,-333.984,-53.223,10.254,0.000
1737558646.814,-15.137,-333.008,-56.641,-9.277,0.000
1737558646.818,-3.906,-319.336,-36.621,24.902,0.000
1737558646.822,8.301,-310.059,-29.785,87.402,0.000
1737558646.826,-4.395,-309.082,-47.852,80.078,0.000
1737558646.829,-22.461,-303.711,-64.453,18.555,0.000
1737558646.833,-24.414,-309.082,-79.590,1.465,0.000
1737558646.837,-5.859,-312.988,-61.035,45.410,0.000
1737558646.841,19.531,-312.500,-46.875,101.562,0.000
1737558646.845,4.395,-306.641,-43.945,116.699,0.000
1737558646.849,-17.578,-290.527,-32.227,56.641,0.000
1737558646.853,-13.672,-292.969,-37.598,7.812,0.000
1737558646.857,1.465,-299.805,-51.270,37.598,0.000
1737558646.861,6.836,-289.551,-46.875,97.656,0.000
1737558646.865,-7.812,-286.133,-46.387,95.703,0.000
1737558646.868,-25.391,-285.156,-56.641,38.086,0.000
1737558646.872,-17.578,-275.391,-70.801,12.207,0.000
1737558646.876,13.184,-276.367,-45.410,44.922,0.000
1737558646.880,9.766,-288.086,-31.738,86.914,0.000
1737558646.884,11.719,-277.344,-54.688,96.191,0.000
1737558646.888,2.441,-270.020,-46.387,31.250,0.000
1737558646.892,-36.133,-281.738,-58.105,-46.387,0.000
1737558646.896,-41.016,-283.691,-90.820,-13.184,0.000
1737558646.900,-3.906,-285.156,-83.008,77.637,0.000
1737558646.904,16.113,-289.551,-36.133,108.887,0.000
1737558646.908,7.812,-276.855,-18.066,81.055,0.000
1737558646.912,-28.320,-282.715,-38.574,0.488,0.000
1737558646.915,-38.574,-293.457,-51.270,3.418,0.000
1737558646.919,-23.926,-286.621,-74.219,93.750,0.000
1737558646.923,-0.488,-281.738,-75.195,120.605,0.000
1737558646.927,-5.859,-291.016,-53.223,73.730,0.000
1737558646.931,-42.480,-303.223,-58.594,14.648,0.000
1737558646.935,-23.926,-284.668,-61.523,30.273,0.000
1737558646.939,7.812,-262.695,-43.457,102.539,0.000
1737558646.943,25.879,-247.070,-56.152,154.785,0.000
1737558646.947,10.742,-243.164,-72.754,120.605,0.000
1737558646.951,-46.875,-275.391,-89.844,30.762,0.000
1737558646.955,-53.223,-289.551,-95.703,2.441,0.000
1737558646.958,-15.625,-277.344,-31.738,67.871,0.000
1737558646.962,9.277,-273.926,-7.324,133.789,0.000
1737558646.966,-12.695,-275.879,-66.895,104.980,0.000
1737558646.970,-61.523,-274.414,-104.980,34.668,0.000
1737558646.974,-55.664,-269.043,-83.984,21.484,0.000
1737558646.978,-20.508,-267.578,-43.457,48.340,0.000
1737558646.982,6.348,-251.953,-26.367,100.098,0.000
1737558646.986,17.090,-233.398,-49.316,116.211,0.000
1737558646.990,-30.762,-251.465,-60.059,35.645,0.000
1737558646.993,-69.336,-281.250,-52.246,-20.508,0.000
1737558646.997,-24.414,-263.184,-70.801,29.297,0.000
1737558647.001,17.090,-244.141,-64.453,89.844,0.000
1737558647.005,-8.789,-251.953,-46.387,75.684,0.000
1737558647.009,-34.668,-250.488,-74.707,20.020,0.000
1737558647.013,-23.926,-251.465,-85.938,-7.324,0.000
1737558647.017,-5.859,-241.699,-47.363,8.789,0.000
1737558647.021,-14.160,-246.582,-45.410,29.297,0.000
1737558647.025,-42.480,-262.695,-80.078,26.855,0.000
1737558647.029,-58.594,-258.789,-104.492,-37.109,0.000
1737558647.033,-49.316,-250.977,-95.703,-79.102,0.000
1737558647.036,-21.973,-238.770,-68.848,-35.645,0.000
1737558647.040,-5.859,-233.887,-58.105,19.043,0.000
1737558647.044,-31.250,-245.117,-47.363,6.836,0.000
1737558647.048,-58.594,-248.047,-44.922,-51.270,0.000
1737558647.052,-73.242,-250.000,-59.570,-95.703,0.000
1737558647.056,-57.617,-244.629,-76.172,-61.035,0.000
1737558647.060,-14.160,-229.492,-75.684,27.832,0.000
1737558647.064,-11.719,-232.910,-50.781,50.293,0.000
1737558647.068,-44.434,-241.699,-73.730,-9.766,0.000
1737558647.072,-37.598,-233.887,-128.418,-41.016,0.000
1737558647.076,-24.902,-225.098,-93.262,-6.836,0.000
1737558647.079,-35.156,-242.676,-49.805,38.086,0.000
1737558647.083,-37.598,-258.301,-51.758,71.289,0.000
1737558647.087,-69.824,-260.742,-53.223,3.418,0.000
1737558647.091,0.000,-259.277,-62.988,-64.453,0.000
1737558647.095,0.000,-245.605,-82.031,-34.668,0.000
1737558647.099,0.000,-234.863,-83.008,33.691,0.000
1737558647.103,0.000,-238.281,-76.660,77.637,0.000
1737558647.107,0.000,-232.910,-74.219,33.691,0.000
1737558647.111,0.000,-227.539,-71.777,-24.414,0.000
1737558647.115,0.000,-226.562,-90.332,-24.902,0.000
1737558647.119,0.000,-224.609,-83.984,41.016,0.000
1737558647.122,0.000,-230.469,-80.078,95.703,0.000
1737558647.126,0.000,-245.117,-82.031,34.180,0.000
1737558647.130,0.000,-240.723,-76.172,-31.738,0.000
1737558647.134,0.000,-226.074,-81.543,-9.766,0.000
1737558647.138,-25.879,-220.703,-90.820,41.504,0.000
1737558647.142,-20.020,-214.844,-95.215,83.496,0.000
1737558647.146,-41.016,-223.633,-66.895,45.898,0.000
1737558647.150,-57.129,-227.051,-45.898,-9.277,0.000
1737558647.154,-45.410,-215.820,-45.898,2.441,0.000
1737558647.158,-29.785,-216.797,-57.617,35.645,0.000
1737558647.162,-17.090,-215.332,-81.055,91.797,0.000
1737558647.165,-28.809,-216.309,-69.824,87.891,0.000
1737558647.169,-47.363,-225.586,-41.504,34.668,0.000
1737558647.173,-42.969,-229.980,-34.668,-3.418,0.000
1737558647.177,-27.832,-222.168,-66.406,36.133,0.000
1737558647.181,1.953,-204.102,-85.449,130.371,0.000
1737558647.185,14.160,-184.082,-38.086,138.184,0.000
1737558647.189,-3.906,-181.152,-7.324,83.496,0.000
1737558647.193,-41.016,-217.285,-42.969,16.113,0.000
1737558647.197,-52.246,-233.887,-73.730,22.949,0.000
1737558647.201,-11.719,-217.773,-73.730,114.746,0.000
1737558647.204,-3.418,-200.684,-51.270,122.559,0.000
1737558647.208,-45.410,-212.402,-63.477,30.762,0.000
1737558647.212,-57.129,-211.426,-81.055,-0.977,0.000
1737558647.216,-19.043,-188.477,-52.734,38.086,0.000
1737558647.220,-24.414,-200.684,-62.500,74.707,0.000
1737558647.224,-43.457,-206.055,-58.594,69.336,0.000
1737558647.228,-55.664,-199.219,-36.621,9.766,0.000
1737558647.232,-69.824,-204.102,-72.266,-30.273,0.000
1737558647.236,-45.898,-203.125,-50.781,12.695,0.000
1737558647.240,-59.570,-225.098,-14.648,53.223,0.000
1737558647.244,-79.590,-241.211,-22.949,61.523,0.000
1737558647.247,-86.914,-232.910,-51.758,19.043,0.000
1737558647.251,-62.500,-210.449,-85.449,-3.418,0.000
1737558647.255,-27.832,-206.543,-78.125,12.695,0.000
1737558647.259,-29.785,-222.656,-68.848,52.246,0.000
1737558647.263,-33.203,-216.309,-65.918,110.352,0.000
1737558647.267,-43.945,-204.590,-59.082,74.707,0.000
1737558647.271,-39.551,-202.637,-62.500,24.414,0.000
1737558647.275,-20.996,-201.172,-55.176,29.785,0.000
1737558647.279,-4.883,-202.148,-48.340,80.078,0.000
1737558647.283,16.113,-195.312,-61.035,143.555,0.000
1737558647.287,6.348,-177.246,-63.965,117.188,0.000
1737558647.291,-12.207,-174.805,-54.688,57.129,0.000
1737558647.294,-9.766,-193.359,-46.387,46.387,0.000
1737558647.298,3.906,-188.965,-56.641,85.938,0.000
1737558647.302,0.977,-185.547,-58.594,116.211,0.000
1737558647.306,-25.879,-199.219,-53.711,74.707,0.000
1737558647.310,-47.852,-202.148,-67.383,14.160,0.000
1737558647.314,-35.645,-187.988,-93.750,34.180,0.000
1737558647.318,5.859,-184.082,-77.637,86.426,0.000
1737558647.322,8.789,-186.035,-43.457,142.090,0.000
1737558647.326,-10.742,-179.199,-33.691,135.742,0.000
1737558647.330,-14.160,-175.781,-67.383,56.641,0.000
1737558647.334,-10.254,-176.758,-87.891,40.039,0.000
1737558647.337,-40.527,-196.289,-59.570,41.016,0.000
1737558647.341,-33.203,-202.148,-86.426,76.172,0.000
1737558647.345,3.906,-174.805,-103.516,125.000,0.000
1737558647.349,-31.738,-177.246,-14.160,24.414,0.000
1737558647.353,-38.574,-180.176,-19.531,-81.055,0.000
1737558647.357,11.719,-157.715,-70.801,70.801,0.000
1737558647.361,9.766,-155.762,-44.434,167.969,0.000
1737558647.365,-3.906,-164.062,-22.461,124.023,0.000
1737558647.369,0.488,-172.852,-34.668,72.754,0.000
1737558647.373,17.090,-163.574,-51.758,44.922,0.000
1737558647.377,12.695,-165.039,-43.945,56.152,0.000
1737558647.380,1.953,-165.039,-44.434,99.121,0.000
1737558647.384,3.418,-159.180,-81.055,100.586,0.000
1737558647.388,-14.160,-158.203,-78.125,48.828,0.000
1737558647.392,-12.695,-158.691,-79.102,15.137,0.000
1737558647.396,15.625,-152.832,-82.031,52.734,0.000
1737558647.400,29.297,-156.250,-65.918,129.883,0.000
1737558647.404,34.668,-167.969,-66.406,159.180,0.000
1737558647.408,30.762,-166.992,-64.941,119.141,0.000
1737558647.412,20.508,-157.715,-72.266,69.336,0.000
1737558647.416,10.742,-161.133,-86.914,54.688,0.000
1737558647.420,13.184,-167.969,-58.105,105.957,0.000
1737558647.423,58.594,-145.508,-22.949,158.691,0.000
1737558647.427,68.848,-139.648,-20.996,106.445,0.000
1737558647.431,14.648,-166.504,-67.383,33.203,0.000
1737558647.435,14.648,-156.738,-119.629,60.059,0.000
1737558647.439,36.621,-142.578,-82.031,110.840,0.000
1737558647.443,35.156,-145.996,-42.480,85.938,0.000
1737558647.447,21.484,-152.344,-55.176,55.176,0.000
1737558647.451,16.602,-156.738,-58.105,35.156,0.000
1737558647.455,21.973,-153.809,-67.871,4.395,0.000
1737558647.459,39.062,-146.484,-79.102,57.617,0.000
1737558647.462,64.941,-150.391,-73.730,133.301,0.000
1737558647.466,52.734,-156.738,-87.402,105.469,0.000
1737558647.470,9.766,-158.691,-79.102,25.879,0.000
1737558647.474,0.488,-150.391,-67.871,21.484,0.000
1737558647.478,0.488,-133.301,-85.449,37.109,0.000
1737558647.482,-12.207,-133.789,-71.777,55.176,0.000
1737558647.486,-29.785,-142.578,-45.898,42.969,0.000
1737558647.490,-47.852,-136.719,-70.312,-7.812,0.000
1737558647.494,10.254,-112.305,-64.941,23.438,0.000
1737558647.498,38.086,-116.699,-53.223,62.988,0.000
1737558647.501,1.953,-148.926,-64.941,60.059,0.000
1737558647.505,-36.621,-174.316,-66.895,3.418,0.000
1737558647.509,-76.660,-180.664,-90.820,-76.172,0.000
1737558647.513,0.000,-175.781,-104.004,-77.148,0.000
1737558647.517,0.000,-161.133,-34.180,-10.742,0.000
1737558647.521,0.000,-126.465,12.207,99.609,0.000
1737558647.525,0.000,-122.070,-25.391,72.754,0.000
1737558647.529,0.000,-142.090,-66.895,-0.488,0.000
1737558647.533,0.000,-153.809,-65.430,-21.484,0.000
1737558647.537,0.000,-163.574,-53.711,7.324,0.000
1737558647.541,0.000,-166.504,-49.316,93.262,0.000
1737558647.544,0.000,-146.973,-49.805,106.445,0.000
1737558647.548,0.000,-143.066,-53.223,60.059,0.000
1737558647.552,0.000,-166.504,-87.402,-7.324,0.000
1737558647.556,0.000,-163.086,-112.305,-0.488,0.000
1737558647.560,27.832,-152.832,-92.773,77.637,0.000
1737558647.564,20.508,-148.438,-65.918,115.234,0.000
1737558647.568,-0.977,-147.461,-45.410,73.730,0.000
1737558647.572,13.184,-137.695,-39.551,42.480,0.000
1737558647.576,19.043,-128.906,-49.316,59.082,0.000
1737558647.580,19.531,-136.230,-33.203,101.074,0.000
1737558647.584,39.062,-151.855,-19.531,109.863,0.000
1737558647.587,48.828,-151.855,-10.742,76.172,0.000
1737558647.591,10.742,-155.273,-26.855,28.320,0.000
1737558647.595,-3.906,-158.691,-48.828,2.441,0.000
1737558647.599,14.160,-143.555,-46.875,40.039,0.000
1737558647.603,38.574,-115.723,-45.898,102.051,0.000
1737558647.607,34.180,-115.234,-65.918,65.430,0.000
1737558647.611,17.578,-130.371,-75.195,7.812,0.000
1737558647.615,12.207,-139.160,-60.547,-15.625,0.000
1737558647.619,16.113,-143.066,-35.645,20.508,0.000
1737558647.623,26.367,-134.277,-49.316,94.727,0.000
1737558647.626,0.977,-132.812,-68.359,65.918,0.000
1737558647.630,-10.254,-131.836,-61.035,-3.906,0.000
1737558647.634,10.254,-125.488,-50.781,-1.953,0.000
1737558647.638,-4.395,-126.953,-44.434,20.508,0.000
1737558647.642,18.555,-125.488,-32.715,57.129,0.000
1737558647.646,16.602,-131.348,-19.043,103.516,0.000
1737558647.650,-14.160,-126.465,-22.949,58.105,0.000
1737558647.654,-29.785,-135.742,-39.551,21.973,0.000
1737558647.658,-32.227,-150.391,-47.363,41.016,0.000
1737558647.662,-5.371,-141.113,-58.105,76.660,0.000
1737558647.666,16.602,-139.648,-59.570,59.082,0.000
1737558647.669,-14.648,-142.578,-55.664,25.879,0.000
1737558647.673,-62.012,-167.969,-35.156,-41.504,0.000
1737558647.677,-72.754,-183.594,41.016,-71.777,0.000
1737558647.681,-74.219,-178.223,45.410,-25.391,0.000
1737558647.685,-100.098,-196.289,-0.977,-60.547,0.000
1737558647.689,-119.629,-228.516,3.906,-115.723,0.000
1737558647.693,-114.258,-234.863,-7.812,-128.906,0.000
1737558647.697,-110.352,-208.984,30.273,-129.883,0.000
1737558647.701,-142.578,-209.961,35.156,-49.805,0.000
1737558647.705,-171.387,-202.148,-2.441,0.488,0.000
1737558647.709,-196.289,-222.168,0.488,-73.242,0.000
1737558647.712,-142.090,-210.449,-25.391,-128.906,0.000
1737558647.716,-101.562,-183.594,40.527,-120.605,0.000
1737558647.720,-184.570,-227.539,98.633,-136.230,0.000
1737558647.724,-214.355,-241.699,86.914,-143.066,0.000
1737558647.728,-157.715,-187.500,28.320,-109.375,0.000
1737558647.732,-151.367,-183.105,-22.949,-113.770,0.000
1737558647.736,-190.918,-237.793,30.273,-207.031,0.000
1737558647.740,-191.406,-248.535,87.891,-207.031,0.000
1737558647.744,-180.176,-241.211,56.152,-151.367,0.000
1737558647.748,-178.223,-231.934,12.207,-140.137,0.000
1737558647.752,-181.641,-226.562,21.484,-155.762,0.000
1737558647.755,-166.992,-213.379,-5.859,-155.762,0.000
1737558647.759,-128.418,-189.941,-8.301,-88.867,0.000
1737558647.763,-109.375,-178.223,42.969,-57.129,0.000
1737558647.767,-161.621,-180.176,15.137,-124.512,0.000
1737558647.771,-176.270,-200.684,-25.391,-171.387,0.000
1737558647.775,-122.070,-196.289,-11.230,-129.395,0.000
1737558647.779,-119.141,-185.547,-30.762,-76.172,0.000
1737558647.783,-126.465,-190.918,-74.219,-54.688,0.000
1737558647.787,-132.324,-181.152,-79.102,-77.637,0.000
1737558647.791,-152.344,-187.500,-38.086,-96.191,0.000
1737558647.795,-136.230,-190.918,-32.715,-92.285,0.000
1737558647.798,-105.957,-173.828,-67.871,-115.723,0.000
1737558647.802,-51.758,-164.551,-41.016,-86.914,0.000
1737558647.806,-61.523,-166.504,-32.715,-52.246,0.000
1737558647.810,-80.078,-149.902,-85.449,-53.711,0.000
1737558647.814,-66.895,-145.508,-73.730,-86.426,0.000
1737558647.818,-89.844,-174.805,-38.086,-99.609,0.000
1737558647.822,-96.191,-182.129,-61.035,-69.824,0.000
1737558647.826,-96.191,-185.059,-90.332,2.441,0.000
1737558647.830,-90.332,-180.176,-90.820,-14.648,0.000
1737558647.834,-112.793,-182.617,-73.730,-60.547,0.000
1737558647.837,-97.656,-171.875,-87.402,-3.418,0.000
1737558647.841,-48.828,-149.414,-70.801,69.824,0.000
1737558647.845,-76.660,-153.809,-35.645,34.180,0.000
1737558647.849,-104.004,-174.316,-37.109,-51.270,0.000
1737558647.853,-83.496,-170.898,-48.340,-64.941,0.000
1737558647.857,-58.105,-150.879,-63.965,-48.828,0.000
1737558647.861,-43.457,-137.207,-74.707,-15.625,0.000
1737558647.865,-39.062,-140.625,-52.734,31.738,0.000
1737558647.869,-41.504,-154.297,-78.613,38.086,0.000
1737558647.873,-59.082,-144.043,-126.465,-44.922,0.000
1737558647.877,-60.547,-141.113,-88.867,-49.805,0.000
1737558647.880,-33.691,-142.578,-24.414,15.625,0.000
1737558647.884,-32.715,-156.738,-24.902,5.371,0.000
1737558647.888,-64.453,-169.922,-83.008,11.230,0.000
1737558647.892,-79.102,-172.363,-71.289,19.531,0.000
1737558647.896,-69.336,-160.645,-61.523,25.391,0.000
1737558647.900,-26.367,-150.879,-104.492,92.285,0.000
1737558647.904,14.160,-148.438,-94.727,77.637,0.000
1737558647.908,41.992,-112.793,-69.824,104.492,0.000
1737558647.912,-24.414,-132.812,-66.406,133.301,0.000
1737558647.916,-98.633,-195.801,-13.184,18.066,0.000
1737558647.919,-26.367,-180.176,-6.348,60.059,0.000
1737558647.923,40.527,-128.418,-67.871,62.988,0.000
1737558647.927,4.883,-144.531,-76.172,28.809,0.000
1737558647.931,-42.480,-182.617,-68.359,75.684,0.000
1737558647.935,-15.625,-150.879,-85.449,71.777,0.000
1737558647.939,38.574,-133.301,-94.238,118.164,0.000
1737558647.943,25.879,-170.410,-95.215,176.270,0.000
1737558647.947,15.137,-175.781,-104.004,160.645,0.000
1737558647.951,29.785,-143.066,-159.180,156.250,0.000
1737558647.955,29.785,-149.414,-111.328,157.715,0.000
1737558647.959,29.297,-171.387,-53.223,146.484,0.000
1737558647.962,80.566,-140.137,-74.219,168.945,0.000
1737558647.966,60.059,-135.742,-68.848,171.875,0.000
1737558647.970,20.996,-153.809,-82.520,163.086,0.000
1737558647.974,28.809,-147.461,-112.793,160.645,0.000
1737558647.978,82.031,-113.281,-104.004,178.223,0.000
1737558647.982,146.484,-96.191,-100.098,219.727,0.000
1737558647.986,88.379,-124.512,-125.977,222.168,0.000
1737558647.990,70.801,-116.699,-126.953,176.270,0.000
1737558647.994,68.359,-137.207,-73.242,119.629,0.000
1737558647.998,28.320,-170.898,-83.496,70.312,0.000
1737558648.002,47.852,-157.227,-112.793,93.750,0.000
1737558648.005,53.223,-148.926,-112.793,144.043,0.000
1737558648.009,6.348,-160.156,-140.137,100.586,0.000
1737558648.013,17.578,-146.484,-127.930,68.359,0.000
1737558648.017,46.387,-134.766,-95.703,25.879,0.000
1737558648.021,53.223,-132.324,-118.164,64.453,0.000
1737558648.025,84.473,-122.559,-159.180,127.441,0.000
1737558648.029,0.000,-127.441,-129.395,127.930,0.000
1737558648.033,0.000,-112.305,-101.562,128.906,0.000
1737558648.037,0.000,-99.609,-72.266,45.898,0.000
1737558648.041,0.000,-125.000,-96.191,38.574,0.000
1737558648.045,0.000,-146.973,-166.504,99.121,0.000
1737558648.048,0.000,-143.555,-104.004,125.000,0.000
1737558648.052,0.000,-142.578,-87.891,56.152,0.000
1737558648.056,0.000,-131.348,-113.770,0.488,0.000
1737558648.060,0.000,-98.633,-100.098,40.039,0.000
1737558648.064,0.000,-113.770,-136.230,-12.207,0.000
1737558648.068,0.000,-131.836,-158.203,26.367,0.000
1737558648.072,0.000,-120.117,-155.273,82.520,0.000
1737558648.076,9.277,-106.934,-143.066,64.453,0.000
1737558648.080,44.922,-97.656,-144.043,83.984,0.000
1737558648.084,61.523,-92.285,-130.859,94.238,0.000
1737558648.088,19.531,-100.098,-114.258,51.758,0.000
1737558648.091,9.277,-96.680,-76.172,61.035,0.000
1737558648.095,14.648,-99.609,-57.129,48.340,0.000
1737558648.099,-14.648,-132.812,-91.309,-49.805,0.000
1737558648.103,-11.719,-124.023,-96.191,-36.133,0.000
1737558648.107,4.883,-92.773,-110.840,32.227,0.000
1737558648.111,-6.348,-95.215,-118.164,34.180,0.000
1737558648.115,-30.273,-114.258,-105.469,-8.301,0.000
1737558648.119,-12.695,-116.699,-109.375,-2.441,0.000
1737558648.123,41.504,-99.609,-108.398,24.902,0.000
1737558648.127,32.715,-100.586,-104.004,42.969,0.000
1737558648.131,-13.672,-120.605,-135.254,76.660,0.000
1737558648.134,26.367,-109.863,-123.047,98.145,0.000
1737558648.138,55.664,-94.238,-96.680,22.461,0.000
1737558648.142,82.031,-95.215,-86.914,-30.762,0.000
1737558648.146,71.777,-88.867,-59.082,-10.254,0.000
1737558648.150,-6.836,-108.398,-86.914,-49.316,0.000
1737558648.154,-14.160,-119.629,-120.605,-54.199,0.000
1737558648.158,1.465,-112.305,-90.820,-49.316,0.000
1737558648.162,29.785,-93.750,-64.453,-40.039,0.000
1737558648.166,36.621,-82.520,-97.656,-49.805,0.000
1737558648.170,16.113,-94.727,-109.863,-16.602,0.000
1737558648.174,-6.836,-103.027,-80.566,4.883,0.000
1737558648.177,-3.418,-91.797,-82.520,-28.809,0.000
1737558648.181,31.250,-90.820,-72.754,-14.160,0.000
1737558648.185,41.016,-83.496,-55.176,37.598,0.000
1737558648.189,47.363,-60.547,-69.336,80.078,0.000
1737558648.193,24.414,-94.238,-110.840,26.855,0.000
1737558648.197,-16.602,-123.535,-101.562,-61.035,0.000
1737558648.201,12.207,-95.703,-72.754,-43.457,0.000
1737558648.205,23.926,-89.355,-116.699,-33.691,0.000
1737558648.209,-30.762,-108.887,-100.098,-59.082,0.000
1737558648.212,-28.320,-100.098,-52.734,-48.828,0.000
1737558648.216,2.441,-98.145,-96.680,-47.852,0.000
1737558648.220,26.855,-93.262,-97.168,-62.988,0.000
1737558648.224,44.434,-76.172,-40.039,-65.918,0.000
1737558648.228,13.184,-87.891,-49.805,-19.531,0.000
1737558648.232,-5.371,-92.773,-76.172,-27.344,0.000
1737558648.236,26.367,-83.496,-67.871,-34.180,0.000
1737558648.240,3.906,-94.727,-67.383,-54.199,0.000
1737558648.244,-22.461,-103.027,-83.496,-85.449,0.000
1737558648.248,-20.020,-93.262,-116.211,-70.801,0.000
1737558648.252,-27.832,-71.289,-121.582,-64.453,0.000
1737558648.255,-44.922,-57.617,-85.938,-89.355,0.000
1737558648.259,-50.293,-88.379,-86.914,-133.301,0.000
1737558648.263,-18.555,-93.750,-104.004,-33.691,0.000
1737558648.267,-15.137,-76.172,-95.703,-27.832,0.000
1737558648.271,-40.039,-89.844,-102.539,-99.609,0.000
1737558648.275,-22.461,-84.961,-110.840,-50.781,0.000
1737558648.279,22.461,-72.754,-69.336,-37.598,0.000
1737558648.283,24.414,-75.684,-62.988,-22.461,0.000
1737558648.287,-1.953,-72.754,-73.242,13.672,0.000
1737558648.291,-31.250,-76.660,-46.387,18.066,0.000
1737558648.295,-23.438,-85.938,-52.246,18.555,0.000
1737558648.298,5.859,-92.773,-36.133,2.441,0.000
1737558648.302,3.418,-87.891,-28.809,6.836,0.000
1737558648.306,-43.457,-97.656,-50.781,31.250,0.000
1737558648.310,-46.387,-118.164,-60.059,61.035,0.000
1737558648.314,2.441,-94.238,-37.598,61.523,0.000
1737558648.318,17.090,-54.688,-32.227,56.152,0.000
1737558648.322,-4.883,-55.664,-76.172,21.973,0.000
1737558648.326,-57.129,-71.289,-61.523,-73.242,0.000
1737558648.330,-103.027,-68.359,-37.109,-82.520,0.000
1737558648.334,-111.328,-66.406,-55.664,-74.707,0.000
1737558648.338,-83.008,-55.664,-71.289,-133.301,0.000
1737558648.341,-78.613,-35.156,-75.684,-109.375,0.000
1737558648.345,-120.117,-33.691,-48.828,-112.793,0.000
1737558648.349,-148.438,-14.160,-23.438,-166.016,0.000
1737558648.353,-140.625,5.371,-36.621,-190.430,0.000
1737558648.357,-139.648,8.301,-58.594,-220.215,0.000
1737558648.361,-132.324,27.344,-66.406,-223.633,0.000
