timestamps,TP9,AF7,AF8,TP10,Right AUX
1737551864.376,-4.883,-12.207,-9.277,-311.035,0.000
1737551864.380,-37.109,-5.859,-20.508,-521.484,0.000
1737551864.384,-39.551,-9.766,-28.809,-436.035,0.000
1737551864.388,-13.672,-23.438,-19.043,-53.711,0.000
1737551864.392,0.488,-30.273,-17.090,-174.316,0.000
1737551864.396,-3.906,-15.137,-22.461,-353.027,0.000
1737551864.399,-13.672,0.977,-24.902,-553.711,0.000
1737551864.403,-17.578,-8.301,-17.090,-517.090,0.000
1737551864.407,-3.906,-20.020,-15.625,-102.539,0.000
1737551864.411,-22.949,-12.695,-22.949,-119.141,0.000
1737551864.415,-37.598,-14.648,-20.020,-332.520,0.000
1737551864.419,-31.250,-30.762,-19.043,-533.203,0.000
1737551864.423,-23.438,-22.461,-20.508,-494.629,0.000
1737551864.427,-20.020,-7.324,-25.879,-63.477,0.000
1737551864.431,-20.508,-7.324,-23.438,-104.980,0.000
1737551864.435,-20.020,-12.207,-14.160,-379.395,0.000
1737551864.438,-35.645,-14.160,-3.906,-520.020,0.000
1737551864.442,-29.785,-9.766,-4.883,-519.043,0.000
1737551864.446,-8.789,-15.625,-18.555,-163.086,0.000
1737551864.450,-10.254,-34.180,-15.137,-106.934,0.000
1737551864.454,-18.066,-28.809,-15.625,-300.293,0.000
1737551864.458,-31.250,-19.043,-25.391,-508.301,0.000
1737551864.462,-33.691,-20.508,-23.926,-587.402,0.000
1737551864.466,-15.137,-16.113,-20.020,-197.266,0.000
1737551864.470,-13.184,-6.836,-28.809,-109.375,0.000
1737551864.474,-19.043,-15.625,-30.762,-353.516,0.000
1737551864.478,-12.207,-21.484,-19.043,-479.980,0.000
1737551864.481,-41.504,-24.902,-22.461,-605.957,0.000
1737551864.485,-41.504,-16.602,-36.133,-283.691,0.000
1737551864.489,-24.414,-8.789,-27.344,-51.270,0.000
1737551864.493,-28.809,-6.348,-19.043,-257.812,0.000
1737551864.497,-16.113,-11.719,-20.996,-466.309,0.000
1737551864.501,-18.555,-18.555,-13.672,-622.070,0.000
1737551864.505,-8.789,-14.648,-3.906,-265.625,0.000
1737551864.509,0.488,-7.812,-5.859,-11.230,0.000
1737551864.513,-9.277,-1.953,-7.812,-207.031,0.000
1737551864.517,-1.465,-0.977,-13.184,-349.609,0.000
1737551864.521,-1.465,-9.766,-13.184,-527.344,0.000
1737551864.524,-8.301,-29.785,-10.742,-266.602,0.000
1737551864.528,2.441,-28.809,-18.066,27.344,0.000
1737551864.532,-17.578,-14.160,-16.602,-178.223,0.000
1737551864.536,-37.598,-8.789,-14.160,-300.781,0.000
1737551864.540,-29.297,-8.789,-18.066,-486.328,0.000
1737551864.544,-16.602,-15.137,-14.648,-391.113,0.000
1737551864.548,-16.602,-5.371,-16.113,-18.555,0.000
1737551864.552,-27.344,3.906,-16.113,-127.441,0.000
1737551864.556,-20.020,-11.719,-14.160,-327.637,0.000
1737551864.560,-25.391,-28.320,-10.254,-505.371,0.000
1737551864.563,-28.320,-30.273,-10.254,-390.625,0.000
1737551864.567,-3.906,-20.508,-15.137,8.789,0.000
1737551864.571,-11.230,-15.137,-22.461,-79.102,0.000
1737551864.575,-25.391,-9.766,-32.715,-254.883,0.000
1737551864.579,-7.324,-7.812,-23.438,-388.672,0.000
1737551864.583,-7.324,-9.766,-6.836,-345.703,0.000
1737551864.587,-4.883,-9.277,-7.812,36.133,0.000
1737551864.591,-13.672,-14.160,-15.625,-7.812,0.000
1737551864.595,-34.668,-19.531,-19.531,-243.652,0.000
1737551864.599,-23.438,-22.949,-22.461,-392.578,0.000
1737551864.603,-6.348,-21.973,-17.090,-389.648,0.000
1737551864.606,-7.324,-18.555,-9.766,22.461,0.000
1737551864.610,-12.695,-13.672,-6.836,49.316,0.000
1737551864.614,-10.254,-18.555,-8.301,-191.406,0.000
1737551864.618,-18.066,-35.156,-20.996,-360.352,0.000
1737551864.622,-11.719,-24.902,-26.367,-436.035,0.000
1737551864.626,-2.930,-6.348,-27.344,-38.086,0.000
1737551864.630,-7.812,-11.719,-21.484,120.605,0.000
1737551864.634,-6.348,-24.902,-8.301,-119.629,0.000
1737551864.638,-3.906,-23.438,-8.789,-298.828,0.000
1737551864.642,-26.367,-16.113,-14.160,-423.340,0.000
1737551864.645,-30.762,-16.602,-20.020,-155.273,0.000
1737551864.649,-19.043,-21.973,-11.230,13.672,0.000
1737551864.653,-22.949,-22.949,-7.812,-159.668,0.000
1737551864.657,-23.926,-15.137,-18.066,-308.105,0.000
1737551864.661,-39.551,-14.160,-25.879,-479.980,0.000
1737551864.665,-30.762,-19.531,-17.578,-198.730,0.000
1737551864.669,-22.949,-25.879,-15.137,43.945,0.000
1737551864.673,-20.508,-21.973,-21.973,-161.133,0.000
1737551864.677,-33.691,-29.297,-20.020,-306.152,0.000
1737551864.681,-48.828,-30.762,-20.508,-458.496,0.000
1737551864.685,-37.109,-12.207,-18.066,-289.551,0.000
1737551864.688,-33.203,-10.254,-22.949,-31.738,0.000
1737551864.692,-29.297,-19.043,-26.855,-173.828,0.000
1737551864.696,-30.273,-22.949,-27.344,-322.266,0.000
1737551864.700,-32.715,-24.414,-27.832,-516.602,0.000
1737551864.704,-33.203,-24.414,-18.066,-353.027,0.000
1737551864.708,-20.996,-18.066,-9.766,4.883,0.000
1737551864.712,-20.020,-9.766,-10.254,-116.699,0.000
1737551864.716,-45.898,-22.949,-19.043,-354.004,0.000
1737551864.720,-42.480,-34.180,-19.043,-576.660,0.000
1737551864.724,-29.785,-16.113,-8.789,-409.668,0.000
1737551864.728,-26.855,-0.977,-13.672,-17.578,0.000
1737551864.731,-28.809,-10.254,-28.809,-141.602,0.000
1737551864.735,-39.062,-24.902,-33.691,-354.492,0.000
1737551864.739,-37.109,-34.180,-25.391,-498.535,0.000
1737551864.743,-23.438,-23.438,-16.602,-414.062,0.000
1737551864.747,-6.836,-6.836,-6.348,-16.602,0.000
1737551864.751,-20.508,-14.160,-7.324,-74.219,0.000
1737551864.755,-32.715,-17.578,-9.766,-296.387,0.000
1737551864.759,-26.855,-17.578,-11.719,-511.719,0.000
1737551864.763,-19.531,-23.926,-16.602,-506.836,0.000
1737551864.767,-2.930,-18.066,-17.090,-100.098,0.000
1737551864.770,-7.812,-19.043,-13.184,-73.730,0.000
1737551864.774,-13.184,-20.020,-20.508,-316.406,0.000
1737551864.778,0.977,-19.531,-24.414,-505.371,0.000
1737551864.782,-19.531,-25.391,-25.879,-535.156,0.000
1737551864.786,-35.645,-21.484,-24.414,-130.859,0.000
1737551864.790,-34.180,-14.648,-23.926,-73.730,0.000
1737551864.794,-50.293,-12.207,-21.973,-323.730,0.000
1737551864.798,-46.387,-12.207,-24.414,-480.957,0.000
1737551864.802,-33.691,-14.648,-26.367,-562.988,0.000
1737551864.806,-17.090,-23.926,-12.695,-170.410,0.000
1737551864.810,-6.836,-16.113,-13.184,-17.090,0.000
1737551864.813,-26.855,-3.906,-29.785,-230.469,0.000
1737551864.817,-26.367,1.465,-30.273,-371.582,0.000
1737551864.821,-24.414,-5.859,-23.926,-569.336,0.000
1737551864.825,-15.625,-21.484,-19.531,-310.547,0.000
1737551864.829,-11.719,-19.531,-21.973,-72.754,0.000
1737551864.833,-20.996,-15.625,-30.762,-263.184,0.000
1737551864.837,-21.973,-16.113,-19.531,-405.762,0.000
1737551864.841,-38.086,-26.855,-4.883,-550.781,0.000
1737551864.845,-24.414,-32.227,-6.836,-290.039,0.000
1737551864.849,-18.555,-19.043,-19.043,-17.578,0.000
1737551864.853,-36.133,-17.090,-27.344,-197.266,0.000
1737551864.856,-31.738,-20.020,-21.973,-376.953,0.000
1737551864.860,-32.715,-12.207,-12.695,-530.273,0.000
1737551864.864,-52.246,-3.906,-12.695,-267.090,0.000
1737551864.868,-55.664,-1.953,-13.184,-5.859,0.000
1737551864.872,-44.922,-16.602,-15.137,-209.961,0.000
1737551864.876,-41.016,-24.902,-28.809,-349.121,0.000
1737551864.880,-33.203,-19.043,-31.250,-500.488,0.000
1737551864.884,-22.461,-24.902,-20.020,-395.508,0.000
1737551864.888,-34.180,-19.531,-15.137,-16.113,0.000
1737551864.892,-26.367,-10.254,-13.672,-125.977,0.000
1737551864.895,-25.391,-6.348,-18.555,-338.867,0.000
1737551864.899,-53.711,-9.277,-18.555,-491.699,0.000
1737551864.903,-43.945,-15.625,-15.137,-401.855,0.000
1737551864.907,-22.949,-23.438,-19.531,-32.227,0.000
1737551864.911,-22.461,-27.832,-22.461,-99.609,0.000
1737551864.915,-19.531,-28.320,-20.508,-324.219,0.000
1737551864.919,-21.973,-34.180,-16.602,-509.277,0.000
1737551864.923,-33.203,-30.762,-13.672,-481.445,0.000
1737551864.927,-32.227,-24.902,-18.555,-44.922,0.000
1737551864.931,-39.062,-29.785,-27.832,-64.453,0.000
1737551864.935,-49.805,-32.715,-13.184,-266.113,0.000
1737551864.938,-31.738,-34.180,-3.906,-377.930,0.000
1737551864.942,-27.344,-26.855,-16.113,-425.293,0.000
1737551864.946,-35.156,-9.277,-17.090,-44.922,0.000
1737551864.950,-21.973,-7.812,-9.766,30.762,0.000
1737551864.954,-15.625,-14.648,-6.836,-201.172,0.000
1737551864.958,-7.324,-20.020,-14.648,-352.539,0.000
1737551864.962,-0.488,-27.344,-24.902,-479.492,0.000
1737551864.966,-12.207,-18.555,-16.602,-173.828,0.000
1737551864.970,-20.996,-6.348,-8.301,-41.992,0.000
1737551864.974,-19.531,-7.812,-9.277,-242.188,0.000
1737551864.977,-24.414,-17.578,-21.973,-360.840,0.000
1737551864.981,-26.855,-30.762,-29.785,-454.102,0.000
1737551864.985,-7.812,-22.949,-18.066,-144.043,0.000
1737551864.989,-9.766,-10.742,-6.836,51.270,0.000
1737551864.993,-32.227,-9.277,-10.254,-158.691,0.000
1737551864.997,-34.180,-11.719,-9.766,-282.227,0.000
1737551865.001,-36.621,-14.648,-10.254,-431.641,0.000
1737551865.005,-31.250,-17.090,-16.602,-160.156,0.000
1737551865.009,-20.508,-4.883,-13.184,95.215,0.000
1737551865.013,-31.250,-5.859,-14.160,-134.766,0.000
1737551865.017,-31.250,-28.320,-14.648,-314.453,0.000
1737551865.020,-31.250,-31.738,-25.879,-473.145,0.000
1737551865.024,-41.016,-20.996,-34.668,-261.719,0.000
1737551865.028,-30.762,-21.973,-38.086,-0.977,0.000
1737551865.032,-33.691,-26.855,-31.250,-131.348,0.000
1737551865.036,-46.387,-19.531,-17.090,-262.695,0.000
1737551865.040,-32.715,-5.371,-12.207,-384.766,0.000
1737551865.044,-13.184,-9.766,-11.719,-250.977,0.000
1737551865.048,-17.090,-21.484,-13.184,68.359,0.000
1737551865.052,-21.484,-13.672,-20.020,9.277,0.000
1737551865.056,-23.926,-12.695,-19.043,-163.086,0.000
1737551865.060,-14.160,-19.043,-16.602,-346.680,0.000
1737551865.063,-17.578,-23.926,-21.484,-260.254,0.000
1737551865.067,-27.344,-29.297,-18.555,86.426,0.000
1737551865.071,-22.461,-20.508,-16.602,45.898,0.000
1737551865.075,-21.973,-15.625,-10.254,-96.680,0.000
1737551865.079,-27.344,-25.879,-21.484,-305.664,0.000
1737551865.083,-17.090,-22.949,-26.855,-316.895,0.000
1737551865.087,8.301,-18.066,-3.418,86.426,0.000
1737551865.091,-2.441,-16.113,4.883,85.449,0.000
1737551865.095,-33.691,-10.254,0.488,-128.906,0.000
1737551865.099,-46.875,-3.906,-7.324,-262.695,0.000
1737551865.102,-48.340,0.977,-12.207,-268.555,0.000
1737551865.106,-40.039,0.488,-7.812,65.918,0.000
1737551865.110,-27.344,-9.277,-4.883,90.820,0.000
1737551865.114,-30.273,-6.348,-11.719,-96.191,0.000
1737551865.118,-44.922,-10.254,-23.438,-256.348,0.000
1737551865.122,-29.297,-31.738,-20.996,-331.543,0.000
1737551865.126,-12.695,-26.855,-12.207,51.270,0.000
1737551865.130,-35.645,-10.742,-17.578,125.488,0.000
1737551865.134,-51.270,-22.949,-18.555,-124.023,0.000
1737551865.138,-43.945,-41.016,-24.414,-261.719,0.000
1737551865.142,-34.180,-20.508,-23.438,-339.844,0.000
1737551865.145,-28.809,-4.395,-10.254,24.414,0.000
1737551865.149,-20.996,-5.859,-7.812,187.012,0.000
1737551865.153,-15.137,-13.184,-12.695,-95.215,0.000
1737551865.157,-31.250,-26.855,-22.461,-270.996,0.000
1737551865.161,-38.086,-27.344,-27.832,-383.301,0.000
1737551865.165,-13.672,-26.367,-22.949,-79.590,0.000
1737551865.169,-2.930,-28.320,-15.625,106.934,0.000
1737551865.173,-15.625,-21.973,-18.555,-56.641,0.000
1737551865.177,-33.691,-17.090,-35.645,-157.715,0.000
1737551865.181,-33.203,-11.719,-25.879,-320.312,0.000
1737551865.185,-12.207,-15.137,-6.836,-115.723,0.000
1737551865.188,-4.883,-16.602,-2.930,146.484,0.000
1737551865.192,-20.508,-8.301,-8.789,-44.434,0.000
1737551865.196,-23.926,-13.672,-18.555,-222.656,0.000
1737551865.200,-29.297,-24.414,-21.973,-359.375,0.000
1737551865.204,-22.949,-24.902,-21.973,-200.684,0.000
1737551865.208,-11.719,-16.602,-16.113,110.840,0.000
1737551865.212,-12.207,-13.184,-12.695,23.926,0.000
1737551865.216,0.977,-20.996,-19.043,-175.781,0.000
1737551865.220,-8.789,-23.926,-25.879,-380.859,0.000
1737551865.224,-22.461,-13.672,-19.043,-252.930,0.000
1737551865.227,-13.672,-6.836,-8.301,104.004,0.000
1737551865.231,-13.672,-1.465,-9.277,-1.953,0.000
1737551865.235,-18.555,-6.836,-12.695,-179.688,0.000
1737551865.239,-24.414,-6.836,-19.531,-331.055,0.000
1737551865.243,-18.555,-10.254,-22.949,-331.055,0.000
1737551865.247,-7.324,-15.625,-16.602,-26.367,0.000
1737551865.251,-10.742,-16.602,-15.137,-41.016,0.000
1737551865.255,5.859,-20.508,-13.184,-226.074,0.000
1737551865.259,2.441,-23.926,-10.254,-393.066,0.000
1737551865.263,-20.508,-19.043,-16.113,-416.016,0.000
1737551865.267,-1.953,-18.555,-31.250,-50.781,0.000
1737551865.270,2.441,-22.949,-26.855,-41.016,0.000
1737551865.274,-35.156,-23.438,-11.230,-300.293,0.000
1737551865.278,-45.410,-19.043,-10.742,-454.590,0.000
1737551865.282,-43.945,-20.020,-6.348,-489.258,0.000
1737551865.286,-31.738,-16.602,1.465,-93.262,0.000
1737551865.290,-30.762,-19.043,-7.812,-24.414,0.000
1737551865.294,-61.523,-35.645,-20.020,-332.031,0.000
1737551865.298,-62.988,-42.969,-23.926,-484.863,0.000
1737551865.302,-33.203,-37.109,-14.160,-546.875,0.000
1737551865.306,-27.832,-29.785,-3.418,-238.770,0.000
1737551865.310,-37.109,-28.809,-11.719,-79.102,0.000
1737551865.313,-43.457,-14.648,-17.578,-293.945,0.000
1737551865.317,-43.457,-8.789,-15.137,-455.566,0.000
1737551865.321,-30.762,-7.812,-16.113,-564.453,0.000
1737551865.325,-26.367,-9.277,-17.090,-320.312,0.000
1737551865.329,-34.180,-25.879,-19.043,-82.031,0.000
1737551865.333,-35.156,-27.344,-14.648,-259.766,0.000
1737551865.337,-32.227,-26.367,-9.766,-440.918,0.000
1737551865.341,-37.109,-30.273,-15.137,-574.219,0.000
1737551865.345,-31.738,-34.180,-22.461,-379.395,0.000
1737551865.349,-18.066,-32.227,-28.809,-184.570,0.000
1737551865.352,0.488,-23.438,-29.785,-332.520,0.000
1737551865.356,-12.207,-17.578,-31.250,-464.844,0.000
1737551865.360,-39.551,-19.531,-20.996,-681.152,0.000
1737551865.364,-22.461,-18.555,-14.160,-492.676,0.000
1737551865.368,1.953,-15.137,-21.484,-146.484,0.000
1737551865.372,-6.348,-21.484,-17.090,-305.664,0.000
1737551865.376,-23.926,-20.508,-19.043,-468.262,0.000
1737551865.380,-36.621,-24.414,-18.555,-585.449,0.000
1737551865.384,-5.371,-19.043,-13.672,-444.336,0.000
1737551865.388,10.254,-15.137,-22.949,-176.758,0.000
1737551865.392,-13.184,-18.555,-27.832,-272.949,0.000
1737551865.395,-20.508,-18.066,-30.762,-427.734,0.000
1737551865.399,-36.621,-26.367,-29.785,-583.496,0.000
1737551865.403,-50.293,-28.809,-20.020,-505.371,0.000
1737551865.407,-40.527,-18.555,-24.902,-183.105,0.000
1737551865.411,-41.504,-12.695,-20.996,-233.887,0.000
1737551865.415,-35.156,-9.277,-4.883,-407.227,0.000
1737551865.419,-28.809,-12.695,-3.418,-554.199,0.000
1737551865.423,-28.809,-22.461,-8.789,-538.086,0.000
1737551865.427,-10.742,-21.484,-12.695,-145.996,0.000
1737551865.431,-20.508,-22.949,-18.555,-160.156,0.000
1737551865.434,-36.621,-27.344,-19.531,-404.785,0.000
1737551865.438,-21.973,-19.043,-20.020,-480.469,0.000
1737551865.442,-22.461,-10.742,-28.320,-475.586,0.000
1737551865.446,-18.555,-12.207,-17.090,-115.234,0.000
1737551865.450,-19.043,-16.602,-11.230,-74.707,0.000
1737551865.454,-25.879,-13.672,-21.484,-298.340,0.000
1737551865.458,-24.414,-8.789,-9.277,-426.758,0.000
1737551865.462,-28.809,-14.160,0.000,-491.211,0.000
1737551865.466,-11.230,-29.297,-6.836,-174.805,0.000
1737551865.470,-2.441,-23.438,-10.742,-75.195,0.000
1737551865.474,-23.438,-5.859,-18.555,-256.348,0.000
1737551865.477,-17.090,-14.160,-27.344,-407.227,0.000
1737551865.481,-21.973,-28.809,-23.438,-534.668,0.000
1737551865.485,-32.227,-17.090,-17.578,-242.676,0.000
1737551865.489,-23.926,-8.789,-14.160,-83.008,0.000
1737551865.493,-17.090,-9.766,-11.719,-265.137,0.000
1737551865.497,-13.184,-8.301,-12.695,-359.375,0.000
1737551865.501,-21.484,-15.137,-14.648,-492.188,0.000
1737551865.505,-16.602,-16.113,-15.625,-261.719,0.000
1737551865.509,-10.254,-25.391,-7.324,-21.973,0.000
1737551865.513,-24.414,-28.809,-7.324,-208.008,0.000
1737551865.517,-36.621,-13.184,-18.066,-349.121,0.000
1737551865.520,-26.367,-9.277,-12.695,-466.797,0.000
1737551865.524,-10.742,-14.648,-11.719,-292.969,0.000
1737551865.528,-9.277,-22.461,-18.555,-70.801,0.000
1737551865.532,-34.668,-38.086,-20.996,-209.961,0.000
1737551865.536,-45.898,-31.738,-29.785,-359.375,0.000
1737551865.540,-40.527,-21.973,-30.273,-499.023,0.000
1737551865.544,-41.016,-14.648,-16.602,-353.516,0.000
1737551865.548,-19.531,-7.324,-5.371,-41.992,0.000
1737551865.552,-10.742,-18.066,-23.438,-154.297,0.000
1737551865.556,-16.602,-24.414,-22.461,-309.082,0.000
1737551865.559,-13.184,-13.672,-1.953,-444.336,0.000
1737551865.563,-20.996,-11.230,-1.465,-392.578,0.000
1737551865.567,-20.996,-20.996,-5.371,-19.043,0.000
1737551865.571,-33.203,-34.668,-20.508,-126.465,0.000
1737551865.575,-40.527,-35.156,-23.438,-367.676,0.000
1737551865.579,-27.344,-29.785,-19.531,-448.242,0.000
1737551865.583,-30.762,-27.832,-29.297,-417.480,0.000
1737551865.587,-23.438,-10.742,-14.648,-51.270,0.000
1737551865.591,-23.438,-6.836,-0.488,-46.875,0.000
1737551865.595,-25.879,-12.695,-9.277,-280.273,0.000
1737551865.599,-28.320,-14.160,-18.555,-421.875,0.000
1737551865.602,-36.133,-24.902,-18.555,-429.199,0.000
1737551865.606,-14.160,-28.320,-13.672,-78.613,0.000
1737551865.610,-9.766,-20.508,-9.766,-9.277,0.000
1737551865.614,-28.809,-22.949,-13.184,-226.074,0.000
1737551865.618,-25.391,-25.391,-15.137,-342.285,0.000
1737551865.622,-16.113,-16.602,-10.742,-414.062,0.000
1737551865.626,-8.301,-21.973,-14.648,-92.773,0.000
1737551865.630,-9.766,-28.809,-20.508,41.504,0.000
1737551865.634,-18.066,-17.578,-22.949,-163.086,0.000
1737551865.638,-23.438,-19.531,-23.438,-289.551,0.000
1737551865.642,-39.062,-18.066,-11.719,-373.047,0.000
1737551865.645,-28.809,-7.812,-8.789,-59.570,0.000
1737551865.649,-15.137,-11.719,-23.438,132.324,0.000
1737551865.653,-13.184,-22.461,-28.320,-75.684,0.000
1737551865.657,-10.254,-23.438,-15.137,-171.875,0.000
1737551865.661,-17.090,-12.207,-15.137,-241.699,0.000
1737551865.665,-28.809,-8.789,-21.484,-66.895,0.000
1737551865.669,-34.668,-7.324,-12.207,136.230,0.000
1737551865.673,-17.090,-9.766,-14.160,20.020,0.000
1737551865.677,-17.090,-23.926,-15.625,-133.301,0.000
1737551865.681,-23.926,-23.926,-12.207,-235.840,0.000
1737551865.684,-8.789,-13.184,-9.766,-34.668,0.000
1737551865.688,-21.484,-13.672,-5.859,269.043,0.000
1737551865.692,-25.879,-18.555,-6.836,155.273,0.000
1737551865.696,-21.484,-23.926,-16.602,15.137,0.000
1737551865.700,-25.879,-13.672,-17.578,-101.074,0.000
1737551865.704,-20.020,-5.859,-14.160,36.621,0.000
1737551865.708,-12.695,-8.301,-11.230,376.953,0.000
1737551865.712,-13.672,-8.301,-6.836,266.113,0.000
1737551865.716,-15.137,-15.625,-9.766,87.891,0.000
1737551865.720,-12.695,-20.508,-14.648,3.906,0.000
1737551865.724,-7.324,-20.020,-16.602,82.520,0.000
1737551865.727,0.000,-14.648,-19.043,393.555,0.000
1737551865.731,-8.301,-13.184,-20.508,307.129,0.000
1737551865.735,-5.859,-19.531,-18.066,107.422,0.000
1737551865.739,-10.254,-22.949,-18.555,-71.777,0.000
1737551865.743,-26.367,-18.066,-28.320,-51.270,0.000
1737551865.747,-13.184,-15.137,-35.156,281.738,0.000
1737551865.751,-13.184,-30.273,-23.926,227.051,0.000
1737551865.755,-28.320,-30.273,-9.277,17.578,0.000
1737551865.759,-17.090,-8.301,-9.277,-123.047,0.000
1737551865.763,-19.043,-6.348,-11.719,-184.082,0.000
1737551865.766,-26.855,-19.531,-5.859,109.375,0.000
1737551865.770,-28.320,-21.973,-11.230,121.582,0.000
1737551865.774,-33.203,-21.484,-26.367,-85.449,0.000
1737551865.778,-13.184,-16.113,-36.133,-195.801,0.000
1737551865.782,-2.930,-13.672,-32.715,-252.441,0.000
1737551865.786,-10.742,-14.648,-20.020,75.684,0.000
1737551865.790,1.465,-15.137,-16.113,166.504,0.000
1737551865.794,-3.906,-26.855,-16.602,-64.453,0.000
1737551865.798,-24.902,-25.879,-14.160,-149.902,0.000
1737551865.802,-13.672,-2.441,-7.324,-182.617,0.000
1737551865.806,-11.719,-2.441,0.488,42.969,0.000
1737551865.809,-23.926,-20.020,-2.930,161.133,0.000
1737551865.813,-17.578,-17.578,-5.371,13.184,0.000
1737551865.817,-23.926,-23.926,-1.465,-150.879,0.000
1737551865.821,-23.438,-35.645,-8.789,-287.109,0.000
1737551865.825,-6.348,-23.926,-16.113,-17.090,0.000
1737551865.829,-1.953,-19.531,-20.508,160.156,0.000
1737551865.833,-18.555,-31.250,-25.879,-51.270,0.000
1737551865.837,-33.203,-23.926,-11.719,-182.617,0.000
1737551865.841,-24.414,-2.441,1.953,-268.066,0.000
1737551865.845,-10.742,-3.418,-7.812,-82.520,0.000
1737551865.849,-13.672,-7.812,-8.789,145.996,0.000
1737551865.852,-16.113,-3.906,-13.672,-47.363,0.000
1737551865.856,-20.996,-15.625,-24.414,-214.355,0.000
1737551865.860,-34.180,-24.414,-16.113,-320.312,0.000
1737551865.864,-14.160,-15.625,-1.953,-183.594,0.000
1737551865.868,-2.441,-15.625,-3.418,101.562,0.000
1737551865.872,-23.926,-15.137,-10.742,-44.922,0.000
1737551865.876,-20.996,-15.137,-13.184,-250.000,0.000
1737551865.880,-16.602,-22.461,-14.648,-404.297,0.000
1737551865.884,-20.020,-24.902,-14.160,-280.762,0.000
1737551865.888,-7.324,-36.621,-13.672,11.719,0.000
1737551865.891,-17.090,-40.527,-16.113,-122.559,0.000
1737551865.895,-27.832,-19.043,-18.066,-267.090,0.000
1737551865.899,-12.695,-17.578,-23.438,-421.387,0.000
1737551865.903,-17.578,-25.391,-27.832,-456.543,0.000
1737551865.907,-20.020,-10.254,-10.254,-123.047,0.000
1737551865.911,-21.973,-7.324,3.906,-143.555,0.000
1737551865.915,-21.973,-21.973,0.488,-353.027,0.000
1737551865.919,-9.766,-24.902,-14.160,-502.441,0.000
1737551865.923,10.254,-17.090,-17.578,-541.016,0.000
1737551865.927,-3.418,-22.461,-15.137,-192.871,0.000
1737551865.931,-16.602,-15.137,-21.484,-172.363,0.000
1737551865.934,-27.832,-13.672,-15.625,-417.480,0.000
1737551865.938,-28.809,-26.855,-9.277,-554.199,0.000
1737551865.942,-12.207,-16.602,-17.090,-569.336,0.000
1737551865.946,-16.602,-6.836,-17.578,-275.391,0.000
1737551865.950,-29.785,-18.555,-18.066,-286.133,0.000
1737551865.954,-31.250,-24.414,-25.879,-465.332,0.000
1737551865.958,-31.738,-23.926,-20.508,-539.062,0.000
1737551865.962,-12.695,-36.133,-20.508,-660.156,0.000
1737551865.966,-21.484,-36.621,-21.973,-366.699,0.000
1737551865.970,-41.992,-18.555,-20.996,-227.539,0.000
1737551865.974,-28.320,-8.789,-20.020,-431.641,0.000
1737551865.977,-30.273,-18.555,-19.531,-543.945,0.000
1737551865.981,-41.992,-20.020,-17.578,-667.969,0.000
1737551865.985,-38.574,-14.648,-14.648,-390.625,0.000
1737551865.989,-27.344,-20.996,-17.578,-199.219,0.000
1737551865.993,-32.227,-31.250,-20.508,-444.336,0.000
1737551865.997,-21.973,-33.691,-22.949,-620.605,0.000
1737551866.001,-18.066,-24.902,-31.738,-706.543,0.000
1737551866.005,-24.902,-18.555,-26.367,-452.148,0.000
1737551866.009,-17.090,-25.879,-13.184,-253.906,0.000
1737551866.013,-32.715,-23.926,-15.625,-409.668,0.000
1737551866.016,-51.758,-12.695,-20.508,-589.844,0.000
1737551866.020,-49.316,-10.254,-24.414,-749.512,0.000
1737551866.024,-37.598,-10.742,-19.531,-537.109,0.000
1737551866.028,-23.438,-11.719,-13.672,-254.395,0.000
1737551866.032,-38.086,-14.160,-19.043,-397.461,0.000
1737551866.036,-41.992,-22.949,-20.508,-522.949,0.000
1737551866.040,-22.949,-33.691,-22.949,-642.090,0.000
1737551866.044,-37.598,-21.484,-20.996,-499.512,0.000
1737551866.048,-34.668,-14.648,-14.160,-205.566,0.000
1737551866.052,-16.113,-27.832,-16.113,-291.504,0.000
1737551866.056,-26.367,-29.785,-24.902,-441.406,0.000
1737551866.059,-32.227,-19.531,-27.344,-576.660,0.000
1737551866.063,-21.973,-18.066,-22.461,-473.633,0.000
1737551866.067,-8.301,-33.691,-15.137,-112.305,0.000
1737551866.071,-10.742,-34.180,-17.090,-142.578,0.000
1737551866.075,-28.809,-18.066,-28.320,-356.934,0.000
1737551866.079,-23.438,-14.160,-33.203,-451.172,0.000
1737551866.083,3.906,-16.113,-25.879,-381.348,0.000
1737551866.087,-2.930,-20.020,-20.996,-110.352,0.000
1737551866.091,-44.434,-20.508,-22.949,-140.625,0.000
1737551866.095,-36.621,-12.207,-22.461,-315.918,0.000
1737551866.099,-15.625,-11.719,-21.484,-476.562,0.000
1737551866.102,-31.738,-19.043,-21.484,-487.305,0.000
1737551866.106,-37.109,-17.578,-19.043,-131.836,0.000
1737551866.110,-41.016,-21.484,-12.695,-87.891,0.000
1737551866.114,-44.922,-36.621,-14.160,-291.016,0.000
1737551866.118,-39.551,-32.227,-22.461,-426.758,0.000
1737551866.122,-34.668,-9.277,-21.973,-451.172,0.000
1737551866.126,-22.949,-4.883,-25.879,-140.625,0.000
1737551866.130,-5.371,-13.184,-29.297,-22.949,0.000
1737551866.134,-17.578,-19.043,-23.926,-211.426,0.000
1737551866.138,-28.320,-12.207,-21.484,-404.785,0.000
1737551866.141,-19.531,0.488,-15.625,-488.281,0.000
1737551866.145,-17.090,-2.930,-16.113,-181.152,0.000
1737551866.149,-14.648,-8.789,-20.508,-5.859,0.000
1737551866.153,-24.902,-6.348,-22.461,-179.688,0.000
1737551866.157,-23.438,-9.277,-21.973,-332.520,0.000
1737551866.161,-18.066,-23.926,-20.996,-474.609,0.000
1737551866.165,0.977,-24.902,-16.602,-212.891,0.000
1737551866.169,9.766,-15.137,-11.719,5.371,0.000
1737551866.173,-18.066,-12.207,-12.207,-177.734,0.000
1737551866.177,-36.621,-6.836,-17.578,-313.477,0.000
1737551866.181,-42.969,-9.766,-26.367,-510.742,0.000
1737551866.184,-35.645,-18.555,-27.832,-343.750,0.000
1737551866.188,-25.879,-11.230,-22.949,-40.039,0.000
1737551866.192,-23.926,-15.137,-30.273,-230.469,0.000
1737551866.196,-10.742,-20.508,-27.344,-386.230,0.000
1737551866.200,-18.066,-19.531,-15.625,-455.078,0.000
1737551866.204,-19.043,-26.367,-11.230,-362.793,0.000
1737551866.208,4.883,-34.180,-3.906,-70.801,0.000
1737551866.212,-14.160,-21.484,-13.672,-190.918,0.000
1737551866.216,-32.715,5.371,-26.367,-378.906,0.000
1737551866.220,-43.945,7.324,-27.832,-483.887,0.000
1737551866.223,-54.199,0.488,-30.762,-421.387,0.000
1737551866.227,-43.945,-1.953,-36.621,-95.215,0.000
1737551866.231,-38.086,-5.371,-41.016,-194.336,0.000
1737551866.235,-34.668,-4.395,-34.668,-371.582,0.000
1737551866.239,-34.180,-9.277,-31.738,-441.406,0.000
1737551866.243,-34.668,-13.184,-34.180,-373.535,0.000
1737551866.247,-29.785,-15.625,-22.949,-47.852,0.000
1737551866.251,-31.738,-16.602,-21.484,-106.445,0.000
1737551866.255,-26.367,-10.254,-29.297,-277.832,0.000
1737551866.259,-16.602,-9.766,-26.367,-348.145,0.000
1737551866.263,-27.344,-8.301,-23.926,-376.465,0.000
1737551866.266,-21.484,-2.930,-17.090,-59.082,0.000
1737551866.270,-14.160,-3.906,-17.578,29.297,0.000
1737551866.274,-3.418,-16.113,-32.227,-176.270,0.000
1737551866.278,-10.254,-22.461,-36.133,-353.516,0.000
1737551866.282,-22.461,-8.301,-29.785,-391.602,0.000
1737551866.286,-11.230,3.418,-21.484,-46.875,0.000
1737551866.290,-23.438,-0.977,-7.324,81.543,0.000
1737551866.294,-43.945,-16.602,-11.230,-144.043,0.000
1737551866.298,-31.738,-19.043,-23.438,-266.602,0.000
1737551866.302,-19.531,-15.137,-29.785,-308.105,0.000
1737551866.306,-31.250,-25.879,-35.645,-6.348,0.000
1737551866.309,-36.621,-22.461,-34.668,132.812,0.000
1737551866.313,-38.086,-18.555,-28.809,-73.730,0.000
1737551866.317,-25.391,-16.602,-34.180,-178.711,0.000
1737551866.321,-13.672,-16.113,-28.809,-326.660,0.000
1737551866.325,-11.719,-24.414,-20.996,-105.957,0.000
1737551866.329,-6.836,-13.672,-23.438,133.789,0.000
1737551866.333,-5.371,3.906,-22.949,-11.230,0.000
1737551866.337,-3.418,-7.324,-35.645,-136.230,0.000
1737551866.341,-3.906,-27.832,-40.527,-258.301,0.000
1737551866.345,-14.160,-23.926,-23.926,-45.898,0.000
1737551866.348,-8.789,-7.324,-16.602,198.730,0.000
1737551866.352,16.602,-15.137,-20.996,27.832,0.000
1737551866.356,-3.418,-18.066,-19.043,-111.816,0.000
1737551866.360,-24.414,-7.812,-27.832,-239.746,0.000
1737551866.364,-19.531,-9.277,-36.133,-52.246,0.000
1737551866.368,-12.207,-8.789,-20.996,247.559,0.000
1737551866.372,13.672,-2.930,-17.578,77.637,0.000
1737551866.376,4.395,1.465,-21.973,-82.031,0.000
1737551866.380,-15.137,-7.324,-10.254,-191.406,0.000
1737551866.384,-8.789,-15.625,-14.160,-73.242,0.000
1737551866.388,-0.488,-26.855,-24.414,277.344,0.000
1737551866.391,-32.715,-22.949,-13.184,187.988,0.000
1737551866.395,-80.078,-9.766,-12.207,20.508,0.000
1737551866.399,-76.172,-10.742,-24.414,-130.371,0.000
1737551866.403,-75.684,-18.555,-5.859,-167.969,0.000
1737551866.407,-101.562,-20.020,4.395,191.895,0.000
1737551866.411,-95.215,-20.996,-9.277,211.914,0.000
1737551866.415,-72.266,-22.461,-7.812,-32.715,0.000
1737551866.419,-72.266,-16.602,-9.766,-217.285,0.000
1737551866.423,-62.988,-12.695,-20.508,-201.660,0.000
1737551866.427,-44.434,-16.602,-16.113,187.500,0.000
1737551866.431,-47.363,-28.320,-5.859,222.656,0.000
1737551866.434,-48.828,-31.738,-17.090,13.672,0.000
1737551866.438,-41.992,-21.973,-13.184,-101.562,0.000
1737551866.442,-32.715,-24.414,-1.953,-115.234,0.000
1737551866.446,-24.414,-16.602,-4.883,170.410,0.000
1737551866.450,-26.367,-9.766,-10.254,179.688,0.000
1737551866.454,-20.020,-29.785,-13.184,-54.688,0.000
1737551866.458,-36.133,-29.785,-16.113,-145.508,0.000
1737551866.462,-34.668,-17.090,-21.484,-230.957,0.000
1737551866.466,-16.602,-20.508,-19.043,18.555,0.000
1737551866.470,-21.973,-29.297,-11.230,195.801,0.000
1737551866.473,-26.367,-22.461,-6.836,46.387,0.000
1737551866.477,-26.855,-14.648,-7.324,-121.094,0.000
1737551866.481,-39.062,-17.578,-4.395,-270.508,0.000
1737551866.485,-30.762,-18.555,-1.953,-18.555,0.000
1737551866.489,-16.113,-20.996,-5.371,186.523,0.000
1737551866.493,-15.137,-28.320,-7.324,5.859,0.000
1737551866.497,-14.648,-22.461,-24.414,-86.426,0.000
1737551866.501,-0.488,-13.184,-30.762,-209.473,0.000
1737551866.505,19.043,-19.043,-11.719,16.113,0.000
1737551866.509,14.648,-19.531,0.488,257.812,0.000
1737551866.513,1.953,-5.371,5.859,31.738,0.000
1737551866.516,-5.859,-19.043,0.488,-140.137,0.000
1737551866.520,-14.160,-34.668,-12.207,-270.020,0.000
1737551866.524,-8.789,-18.555,-9.766,-120.605,0.000
1737551866.528,-4.883,-10.254,-10.742,148.438,0.000
1737551866.532,-14.648,-18.066,-16.113,11.719,0.000
1737551866.536,-25.391,-26.855,-17.090,-147.461,0.000
1737551866.540,-33.691,-33.691,-31.738,-289.062,0.000
1737551866.544,-23.926,-42.480,-42.480,-206.055,0.000
1737551866.548,-3.418,-42.480,-22.949,117.676,0.000
1737551866.552,-5.371,-23.438,-3.906,66.406,0.000
1737551866.556,-26.367,-11.719,-4.883,-149.414,0.000
1737551866.559,-27.832,-28.809,-20.020,-352.539,0.000
1737551866.563,-11.230,-34.668,-18.066,-255.859,0.000
1737551866.567,2.930,-20.020,-0.977,67.383,0.000
1737551866.571,5.859,-14.648,-6.348,22.461,0.000
1737551866.575,8.789,-13.672,-24.414,-145.996,0.000
1737551866.579,1.953,-17.578,-36.621,-258.301,0.000
1737551866.583,-15.137,-17.578,-33.691,-256.836,0.000
1737551866.587,-7.324,-12.207,-16.602,55.664,0.000
1737551866.591,4.883,-19.531,-13.184,23.926,0.000
1737551866.595,-18.555,-26.367,-20.020,-218.262,0.000
1737551866.598,-40.039,-22.949,-24.902,-325.684,0.000
1737551866.602,-29.297,-22.461,-26.855,-354.492,0.000
1737551866.606,-16.113,-19.531,-31.250,-63.965,0.000
1737551866.610,-15.137,-14.160,-45.898,17.090,0.000
1737551866.614,-18.555,-20.508,-33.691,-190.430,0.000
1737551866.618,-25.879,-16.602,-7.324,-330.566,0.000
1737551866.622,-22.949,-9.277,-8.301,-362.793,0.000
1737551866.626,-11.230,-20.508,-2.930,-46.875,0.000
1737551866.630,-0.977,-20.020,0.977,52.734,0.000
1737551866.634,-4.395,-12.695,-13.672,-205.078,0.000
1737551866.638,-18.066,-14.160,-25.879,-330.078,0.000
1737551866.641,-10.254,-14.160,-31.250,-400.391,0.000
1737551866.645,12.695,-14.160,-22.949,-118.164,0.000
1737551866.649,0.488,-11.230,-8.789,55.664,0.000
1737551866.653,-15.625,-14.648,-12.207,-174.805,0.000
1737551866.657,-17.578,-29.785,-19.043,-309.570,0.000
1737551866.661,-37.109,-32.715,-17.578,-421.387,0.000
1737551866.665,-32.227,-15.137,-10.254,-203.125,0.000
1737551866.669,-23.438,-10.742,-4.395,0.488,0.000
1737551866.673,-37.109,-18.555,-5.371,-197.266,0.000
1737551866.677,-39.062,-8.789,-10.254,-327.637,0.000
1737551866.680,-33.691,-16.113,-19.531,-459.961,0.000
1737551866.684,-35.156,-29.785,-29.785,-274.902,0.000
1737551866.688,-32.227,-20.996,-22.949,30.762,0.000
1737551866.692,-39.551,-14.648,-17.578,-72.266,0.000
1737551866.696,-41.992,-14.160,-25.879,-278.320,0.000
1737551866.700,-33.203,-16.602,-29.785,-364.746,0.000
1737551866.704,-16.113,-32.227,-20.996,-181.641,0.000
1737551866.708,-11.230,-32.227,-6.348,27.344,0.000
1737551866.712,-9.766,-13.184,-5.371,-85.938,0.000
1737551866.716,-22.461,-18.555,-10.742,-242.188,0.000
1737551866.720,-52.246,-20.020,-12.695,-362.793,0.000
1737551866.723,-35.645,-15.137,-20.020,-256.836,0.000
1737551866.727,-20.996,-14.160,-15.625,77.637,0.000
1737551866.731,-36.133,-17.578,-11.719,14.160,0.000
1737551866.735,-33.691,-15.137,-18.555,-180.664,0.000
1737551866.739,-25.391,-12.695,-27.344,-302.734,0.000
1737551866.743,-33.691,-16.113,-21.973,-291.992,0.000
1737551866.747,-21.973,-24.414,-6.836,31.250,0.000
1737551866.751,-13.184,-27.344,-13.184,5.859,0.000
1737551866.755,-16.113,-22.461,-28.809,-167.480,0.000
1737551866.759,-35.645,-20.996,-20.996,-278.320,0.000
1737551866.763,-27.344,-17.578,-16.113,-337.891,0.000
1737551866.766,-8.789,-29.785,-18.555,8.789,0.000
1737551866.770,-49.805,-34.668,-17.578,66.895,0.000
1737551866.774,-54.688,-17.578,-21.973,-156.250,0.000
1737551866.778,-38.086,-12.207,-20.508,-271.484,0.000
1737551866.782,-34.180,-22.461,-34.180,-319.824,0.000
1737551866.786,-29.297,-15.137,-35.156,13.672,0.000
1737551866.790,-26.855,-2.930,-12.207,111.328,0.000
1737551866.794,-18.066,-2.930,-6.348,-86.914,0.000
1737551866.798,-13.184,-14.648,-11.719,-199.219,0.000
1737551866.802,-24.902,-27.344,-11.719,-324.219,0.000
1737551866.805,-26.367,-23.926,-7.812,-58.594,0.000
1737551866.809,-15.137,-10.254,-10.742,153.809,0.000
1737551866.813,-8.301,-19.531,-10.742,-62.500,0.000
1737551866.817,-29.785,-37.598,-15.137,-216.797,0.000
1737551866.821,-41.992,-26.855,-35.156,-336.914,0.000
1737551866.825,-32.227,-15.625,-29.785,-99.609,0.000
1737551866.829,-26.855,-19.531,-17.090,119.141,0.000
1737551866.833,-24.902,-19.043,-19.531,-19.043,0.000
1737551866.837,-25.879,-16.602,-19.531,-188.477,0.000
1737551866.841,-17.090,-15.137,-18.555,-357.910,0.000
1737551866.845,-25.879,-19.531,-13.184,-128.418,0.000
1737551866.848,-28.320,-13.184,-10.254,157.227,0.000
1737551866.852,-27.832,-8.301,-17.090,3.906,0.000
1737551866.856,-41.992,-19.531,-17.578,-167.480,0.000
1737551866.860,-39.062,-31.250,-22.461,-307.129,0.000
1737551866.864,-33.691,-25.391,-27.832,-112.305,0.000
1737551866.868,-24.902,-14.160,-16.113,139.160,0.000
1737551866.872,-17.578,-12.695,-15.625,-17.090,0.000
1737551866.876,-37.598,-8.301,-18.066,-154.297,0.000
1737551866.880,-45.410,-12.207,-13.184,-247.070,0.000
1737551866.884,-25.879,-27.344,-15.625,-189.941,0.000
1737551866.888,-27.832,-21.484,-7.324,70.801,0.000
1737551866.891,-45.410,-5.371,-11.230,-4.883,0.000
1737551866.895,-35.645,-10.742,-18.066,-183.105,0.000
1737551866.899,-22.949,-13.184,-9.277,-270.996,0.000
1737551866.903,-29.297,-20.996,0.977,-247.559,0.000
1737551866.907,-16.602,-27.832,-0.488,93.750,0.000
1737551866.911,-10.254,-17.090,-13.672,70.312,0.000
1737551866.915,-20.996,-4.883,-26.855,-116.699,0.000
1737551866.919,-24.414,-11.719,-29.297,-179.688,0.000
1737551866.923,-25.879,-15.137,-20.020,-204.590,0.000
1737551866.927,-6.836,-8.789,-7.324,118.652,0.000
1737551866.930,1.465,-21.484,-5.859,153.809,0.000
1737551866.934,-20.508,-30.273,-20.996,-103.027,0.000
1737551866.938,-33.203,-21.484,-20.020,-232.422,0.000
1737551866.942,-32.227,-16.113,-15.137,-238.770,0.000
1737551866.946,-17.090,-17.578,-27.344,65.430,0.000
1737551866.950,-3.418,-23.438,-20.996,149.902,0.000
1737551866.954,-20.996,-29.297,-20.508,-51.758,0.000
1737551866.958,-28.320,-26.367,-22.949,-180.664,0.000
1737551866.962,-45.898,-26.855,-13.672,-240.723,0.000
1737551866.966,-40.527,-12.695,-6.348,87.891,0.000
1737551866.970,-12.695,-10.742,-4.883,229.492,0.000
1737551866.973,-12.695,-25.879,-8.789,11.230,0.000
1737551866.977,-25.391,-22.461,-18.555,-158.691,0.000
1737551866.981,-20.996,-24.414,-29.785,-255.859,0.000
1737551866.985,-16.602,-31.250,-21.973,46.387,0.000
1737551866.989,-23.438,-15.625,-9.277,235.840,0.000
1737551866.993,-29.785,-16.113,-17.578,3.906,0.000
1737551866.997,-37.598,-23.926,-26.367,-103.516,0.000
1737551867.001,-30.273,-13.672,-18.555,-215.820,0.000
1737551867.005,-23.926,-9.766,-15.625,-6.348,0.000
1737551867.009,-36.133,-22.461,-27.832,257.812,0.000
1737551867.012,-29.297,-30.762,-35.645,62.988,0.000
1737551867.016,-14.160,-27.344,-28.320,-72.754,0.000
1737551867.020,-27.344,-23.438,-20.996,-165.039,0.000
1737551867.024,-19.531,-19.531,-15.625,-19.531,0.000
1737551867.028,-21.973,-21.973,-4.883,242.188,0.000
1737551867.032,-25.879,-18.555,-8.789,88.379,0.000
1737551867.036,-9.766,-17.578,-20.996,-47.363,0.000
1737551867.040,-24.414,-17.578,-14.648,-145.020,0.000
1737551867.044,-16.113,-18.066,-4.883,-48.828,0.000
1737551867.048,2.441,-22.461,-9.766,238.281,0.000
1737551867.052,-16.602,-25.879,-14.648,139.648,0.000
1737551867.055,-34.668,-18.066,-21.484,-35.645,0.000
1737551867.059,-20.996,-13.672,-21.484,-193.359,0.000
1737551867.063,-13.184,-33.691,-18.555,-130.371,0.000
1737551867.067,-22.949,-33.203,-16.602,201.172,0.000
1737551867.071,-19.043,-6.836,-6.348,143.555,0.000
1737551867.075,-11.719,-7.812,-11.230,-73.730,0.000
1737551867.079,-3.906,-14.160,-9.766,-180.664,0.000
1737551867.083,4.883,-7.324,5.371,-124.023,0.000
1737551867.087,3.418,-13.184,0.488,188.965,0.000
1737551867.091,12.695,-11.230,-12.207,156.738,0.000
1737551867.095,5.371,-7.324,-13.672,-47.852,0.000
1737551867.098,-18.555,-20.996,-16.113,-187.988,0.000
1737551867.102,-13.184,-20.508,-19.043,-166.016,0.000
1737551867.106,-18.555,-20.020,-20.508,142.578,0.000
1737551867.110,-34.180,-25.391,-20.508,133.789,0.000
1737551867.114,-22.461,-18.555,-14.648,-20.020,0.000
1737551867.118,-17.578,-20.508,-16.113,-119.629,0.000
1737551867.122,-39.551,-23.926,-14.160,-243.652,0.000
1737551867.126,-20.996,-2.930,-9.766,63.477,0.000
1737551867.130,32.227,12.695,-11.719,214.844,0.000
1737551867.134,22.461,-8.301,-16.602,14.648,0.000
1737551867.137,-31.738,-26.855,-17.090,-138.672,0.000
1737551867.141,-24.414,-17.090,-14.160,-255.371,0.000
1737551867.145,-10.742,-10.254,-17.090,27.832,0.000
1737551867.149,-25.879,-16.113,-16.602,184.082,0.000
1737551867.153,-20.020,-16.113,-16.602,-40.039,0.000
1737551867.157,-13.184,-10.742,-12.695,-127.441,0.000
1737551867.161,2.930,-3.418,-11.230,-182.129,0.000
1737551867.165,5.371,-2.441,-12.695,-4.395,0.000
1737551867.169,-8.789,-14.160,-11.719,164.062,0.000
1737551867.173,-17.578,-20.020,-13.184,0.977,0.000
1737551867.177,-35.156,-27.832,-22.949,-145.508,0.000
1737551867.180,-43.457,-40.527,-26.855,-310.059,0.000
1737551867.184,-36.133,-26.367,-23.438,-115.723,0.000
1737551867.188,-24.902,4.883,-19.043,208.496,0.000
1737551867.192,-17.578,-0.488,-14.160,33.203,0.000
1737551867.196,-5.371,-20.508,-11.719,-112.793,0.000
1737551867.200,-8.789,-18.555,-12.207,-266.602,0.000
1737551867.204,-11.230,-10.742,-10.742,-171.875,0.000
1737551867.208,0.488,-9.277,-11.230,189.453,0.000
1737551867.212,-24.414,-18.066,-15.137,47.363,0.000
1737551867.216,-40.039,-21.484,-20.508,-127.930,0.000
1737551867.220,-25.391,-24.414,-14.160,-229.004,0.000
1737551867.223,-11.719,-15.625,-36.621,-191.895,0.000
1737551867.227,-10.742,-10.254,-27.344,124.023,0.000
1737551867.231,-33.691,-22.461,0.488,60.059,0.000
1737551867.235,-42.480,-8.301,-15.137,-154.785,0.000
1737551867.239,-46.387,-2.930,-19.043,-307.617,0.000
1737551867.243,-44.922,-12.207,-10.742,-308.105,0.000
1737551867.247,-16.113,-20.996,-10.742,43.457,0.000
1737551867.251,-20.996,-27.344,-15.137,35.156,0.000
1737551867.255,-37.109,-22.461,-13.672,-198.242,0.000
1737551867.259,-40.039,-14.160,-15.625,-374.512,0.000
1737551867.262,-41.504,-14.648,-23.926,-434.570,0.000
1737551867.266,-19.043,-27.832,-30.273,-85.938,0.000
1737551867.270,-24.902,-31.250,-34.180,-25.879,0.000
1737551867.274,-46.875,-24.414,-22.461,-209.961,0.000
1737551867.278,-40.039,-27.832,-19.531,-318.848,0.000
1737551867.282,-31.738,-32.715,-29.297,-358.398,0.000
1737551867.286,-29.785,-34.668,-19.043,-51.758,0.000
1737551867.290,-22.461,-24.414,-8.789,20.020,0.000
1737551867.294,-13.184,-12.695,-13.184,-196.289,0.000
1737551867.298,-20.996,-11.719,-16.113,-327.148,0.000
1737551867.302,-24.902,-2.930,-13.184,-422.852,0.000
1737551867.305,-27.344,-10.254,-8.301,-167.480,0.000
1737551867.309,-49.805,-31.250,-15.137,-16.113,0.000
1737551867.313,-38.086,-38.086,-25.879,-213.867,0.000
1737551867.317,-12.207,-28.809,-29.785,-332.031,0.000
1737551867.321,-20.020,-20.996,-26.367,-445.801,0.000
1737551867.325,-16.113,-27.832,-23.926,-202.637,0.000
1737551867.329,-5.859,-24.902,-17.578,27.344,0.000
1737551867.333,-2.441,-14.160,-5.859,-143.555,0.000
1737551867.337,-10.254,-20.996,-10.742,-317.383,0.000
1737551867.341,-18.066,-31.738,-22.949,-481.445,0.000
1737551867.345,-7.812,-26.367,-39.062,-294.922,0.000
1737551867.348,1.465,-14.648,-28.320,14.160,0.000
1737551867.352,-7.324,-8.789,-16.602,-179.688,0.000
1737551867.356,-7.324,-29.785,-9.766,-425.781,0.000
1737551867.360,1.953,-26.855,-8.789,-526.367,0.000
1737551867.364,-10.254,-2.441,-20.508,-373.047,0.000
1737551867.368,-5.859,-2.441,-16.113,-64.941,0.000
1737551867.372,16.602,-9.766,-10.742,-158.691,0.000
1737551867.376,-6.348,-21.484,-15.625,-380.371,0.000
1737551867.380,-43.457,-27.344,-27.344,-522.461,0.000
1737551867.384,-38.086,-13.672,-32.227,-434.570,0.000
1737551867.387,-21.484,-9.277,-20.508,-88.379,0.000
1737551867.391,-35.156,-20.020,-15.137,-179.688,0.000
1737551867.395,-30.762,-19.531,-16.113,-367.188,0.000
1737551867.399,-29.785,-18.555,-23.926,-472.168,0.000
1737551867.403,-37.109,-24.902,-20.996,-463.867,0.000
1737551867.407,-8.789,-21.973,-12.695,-90.332,0.000
1737551867.411,2.930,-18.066,-19.531,-65.918,0.000
1737551867.415,-15.625,-33.691,-19.531,-322.266,0.000
1737551867.419,-48.828,-21.484,-16.113,-553.711,0.000
1737551867.423,-49.805,-1.953,-16.602,-542.480,0.000
1737551867.427,-20.508,-3.418,-19.531,-185.547,0.000
1737551867.430,-27.832,-14.160,-19.531,-166.504,0.000
1737551867.434,-28.809,-18.555,-20.508,-363.281,0.000
1737551867.438,-12.695,-15.137,-26.855,-465.820,0.000
1737551867.442,-22.461,-24.414,-24.414,-520.020,0.000
1737551867.446,-18.555,-25.391,-7.324,-190.430,0.000
1737551867.450,-8.301,-20.020,-9.277,-143.066,0.000
1737551867.454,-22.461,-13.184,-20.508,-369.629,0.000
1737551867.458,-35.645,2.441,-24.414,-403.809,0.000
1737551867.462,-26.367,-1.953,-31.738,-524.414,0.000
1737551867.466,-9.277,-7.324,-20.508,-304.688,0.000
1737551867.469,-0.488,-1.953,-15.137,-148.438,0.000
1737551867.473,-11.230,-5.371,-24.414,-303.223,0.000
1737551867.477,-24.414,-14.160,-17.090,-411.133,0.000
1737551867.481,-34.180,-23.926,-15.625,-545.410,0.000
1737551867.485,-23.438,-28.809,-20.020,-286.621,0.000
1737551867.489,-9.766,-12.207,-20.996,-11.719,0.000
1737551867.493,-28.809,-8.789,-10.254,-239.258,0.000
1737551867.497,-49.316,-19.531,-14.160,-425.293,0.000
1737551867.501,-41.016,-22.461,-23.438,-510.742,0.000
1737551867.505,-24.414,-23.926,-22.949,-288.086,0.000
1737551867.509,-31.738,-18.066,-21.484,-18.555,0.000
1737551867.512,-29.297,-16.113,-20.508,-184.570,0.000
1737551867.516,-10.742,-28.809,-19.043,-349.121,0.000
1737551867.520,-23.438,-27.344,-26.367,-475.586,0.000
1737551867.524,-35.156,-11.230,-23.926,-287.109,0.000
1737551867.528,-15.625,-8.789,-8.789,13.184,0.000
1737551867.532,-7.324,-19.043,-17.578,-114.258,0.000
1737551867.536,-9.277,-23.926,-24.414,-207.520,0.000
1737551867.540,-9.277,-31.250,-18.066,-354.492,0.000
1737551867.544,16.602,-34.668,-10.742,-251.465,0.000
1737551867.548,22.949,-20.508,-11.719,147.461,0.000
1737551867.552,-6.348,-16.113,-18.555,21.973,0.000
1737551867.555,-21.973,-22.949,-23.926,-193.848,0.000
1737551867.559,-23.926,-25.879,-31.250,-295.410,0.000
1737551867.563,-6.348,-15.625,-37.598,-201.172,0.000
1737551867.567,10.254,-7.324,-22.949,145.508,0.000
1737551867.571,12.207,-16.602,-11.719,88.379,0.000
1737551867.575,8.789,-25.879,-18.555,-106.934,0.000
1737551867.579,-3.906,-31.738,-18.066,-226.074,0.000
1737551867.583,-9.277,-20.020,-13.184,-209.473,0.000
1737551867.587,1.465,-13.672,-15.625,103.516,0.000
1737551867.591,10.254,-20.508,-18.066,100.586,0.000
1737551867.594,16.113,-21.484,-25.391,-114.746,0.000
1737551867.598,-7.812,-30.762,-38.086,-239.258,0.000
1737551867.602,-42.969,-21.973,-26.367,-261.230,0.000
1737551867.606,-26.855,-6.836,-7.812,64.453,0.000
1737551867.610,-9.766,-4.883,-13.672,163.574,0.000
1737551867.614,-21.484,-14.648,-10.254,-66.406,0.000
1737551867.618,-12.695,-25.879,-4.883,-167.969,0.000
1737551867.622,-16.113,-26.367,-13.672,-279.785,0.000
1737551867.626,-22.949,-20.508,-20.996,4.395,0.000
1737551867.630,-19.043,-10.742,-23.438,194.336,0.000
1737551867.634,-20.508,-13.184,-20.508,-55.176,0.000
1737551867.637,-16.602,-15.625,-20.996,-227.539,0.000
1737551867.641,-16.113,-19.043,-23.926,-335.449,0.000
1737551867.645,-16.113,-18.555,-20.508,-71.289,0.000
1737551867.649,-13.184,-11.230,-5.859,128.906,0.000
1737551867.653,-5.371,-11.230,-7.324,-35.156,0.000
1737551867.657,6.836,-9.766,-16.113,-166.504,0.000
1737551867.661,9.277,-20.508,-16.602,-328.613,0.000
1737551867.665,10.254,-27.832,-15.137,-85.449,0.000
1737551867.669,13.672,-14.648,-18.066,211.914,0.000
1737551867.673,0.488,-9.766,-12.695,71.777,0.000
1737551867.677,-6.836,-3.418,-12.695,-78.125,0.000
1737551867.680,-3.906,-3.418,-21.973,-256.836,0.000
1737551867.684,-13.672,-15.137,-20.020,-105.957,0.000
1737551867.688,-19.043,-22.461,-5.371,176.758,0.000
1737551867.692,-19.531,-16.113,4.395,13.672,0.000
1737551867.696,-30.273,-11.719,-6.836,-127.441,0.000
1737551867.700,-20.020,-20.508,-24.414,-261.719,0.000
1737551867.704,-12.207,-11.230,-32.715,-182.129,0.000
1737551867.708,-9.766,-16.113,-18.066,141.113,0.000
1737551867.712,10.742,-30.273,-17.578,25.879,0.000
1737551867.716,-4.395,-19.531,-18.555,-151.367,0.000
1737551867.719,-42.969,-21.484,-10.742,-301.758,0.000
1737551867.723,-33.203,-24.902,-18.555,-273.926,0.000
1737551867.727,-15.625,-18.066,-19.043,78.613,0.000
1737551867.731,-26.367,-6.836,-12.695,4.395,0.000
1737551867.735,-39.062,-1.953,-20.020,-213.379,0.000
1737551867.739,-34.668,-14.160,-24.902,-359.375,0.000
1737551867.743,-22.949,-27.344,-19.043,-351.562,0.000
1737551867.747,-19.531,-23.926,-15.625,14.160,0.000
1737551867.751,-24.902,-21.484,-12.695,24.902,0.000
1737551867.755,-31.250,-24.414,-28.320,-205.078,0.000
1737551867.759,-23.438,-17.578,-34.180,-312.988,0.000
1737551867.762,-24.902,-17.090,-19.043,-326.660,0.000
1737551867.766,-14.160,-20.020,-24.414,-35.156,0.000
1737551867.770,-10.254,-15.137,-23.926,40.527,0.000
1737551867.774,-41.992,-6.836,-19.043,-199.707,0.000
1737551867.778,-45.410,-15.137,-24.902,-385.254,0.000
1737551867.782,-38.574,-26.855,-20.996,-465.332,0.000
1737551867.786,-33.691,-27.344,-11.719,-190.430,0.000
1737551867.790,-21.484,-19.043,-5.859,-50.781,0.000
1737551867.794,-36.621,-17.578,-13.672,-212.402,0.000
1737551867.798,-37.598,-19.531,-20.020,-333.984,0.000
1737551867.801,-26.855,-22.461,-15.625,-439.453,0.000
1737551867.805,-23.438,-17.578,-18.066,-138.672,0.000
1737551867.809,-21.973,-18.066,-20.996,58.594,0.000
1737551867.813,-31.250,-22.461,-16.602,-141.113,0.000
1737551867.817,-15.625,-18.066,0.000,-223.633,0.000
1737551867.821,-24.414,-18.066,-3.906,-367.188,0.000
1737551867.825,-21.484,-7.812,-10.742,-192.383,0.000
1737551867.829,0.977,-8.789,-3.906,81.543,0.000
1737551867.833,9.277,-24.902,-11.230,-54.199,0.000
1737551867.837,-8.301,-11.230,-9.277,-227.539,0.000
1737551867.841,-38.086,-2.930,-16.602,-397.461,0.000
1737551867.844,-34.180,-9.277,-20.996,-177.246,0.000
1737551867.848,-35.645,-17.090,-0.977,187.500,0.000
1737551867.852,-54.688,-23.438,1.953,43.945,0.000
1737551867.856,-58.105,-23.438,-10.254,-142.578,0.000
1737551867.860,-51.758,-18.555,-12.207,-281.738,0.000
1737551867.864,-42.969,-16.113,-8.789,-120.117,0.000
1737551867.868,-29.297,-13.672,-14.160,225.586,0.000
1737551867.872,-17.090,-21.484,-21.973,65.918,0.000
1737551867.876,-15.137,-31.250,-30.273,-161.621,0.000
1737551867.880,-35.645,-25.391,-26.855,-288.086,0.000
1737551867.884,-44.922,-23.926,-16.113,-186.523,0.000
1737551867.887,-27.832,-23.926,-19.531,187.012,0.000
1737551867.891,-34.668,-28.320,-16.602,126.953,0.000
1737551867.895,-14.648,-18.066,-9.766,-88.867,0.000
1737551867.899,-7.324,-20.508,-19.531,-220.215,0.000
1737551867.903,-25.391,-28.809,-27.344,-146.484,0.000
1737551867.907,-6.836,-12.207,-15.137,198.242,0.000
1737551867.911,5.859,-8.789,-6.348,179.688,0.000
1737551867.915,1.465,-26.855,-15.625,-35.156,0.000
1737551867.919,-27.832,-23.926,-20.020,-225.098,0.000
1737551867.923,-43.457,-4.883,-28.809,-217.285,0.000
1737551867.926,-34.180,-8.301,-32.715,175.781,0.000
1737551867.930,-30.273,-18.066,-22.461,209.961,0.000
1737551867.934,-31.738,-18.066,-24.414,10.254,0.000
1737551867.938,-26.855,-21.484,-27.344,-164.062,0.000
1737551867.942,-24.414,-21.484,-24.902,-289.062,0.000
1737551867.946,-20.996,-21.484,-13.672,81.055,0.000
1737551867.950,-19.043,-20.996,-5.371,181.641,0.000
1737551867.954,-23.926,-13.184,-13.672,-47.852,0.000
1737551867.958,-8.301,-13.672,-18.066,-84.473,0.000
1737551867.962,-11.719,-12.207,-14.160,-201.660,0.000
1737551867.966,-16.602,-10.742,-17.090,-8.301,0.000
1737551867.969,-4.883,-16.602,-20.508,169.922,0.000
1737551867.973,-2.930,-19.531,-23.438,-5.371,0.000
1737551867.977,-11.230,-15.625,-29.785,-138.672,0.000
1737551867.981,-28.809,-20.508,-24.414,-277.344,0.000
1737551867.985,-31.250,-20.020,-15.625,-42.969,0.000
1737551867.989,-0.488,-6.836,-17.578,229.492,0.000
1737551867.993,-2.441,-16.113,-23.926,30.762,0.000
1737551867.997,-41.016,-27.344,-15.625,-115.234,0.000
1737551868.001,-38.574,-19.531,-8.301,-268.555,0.000
1737551868.005,-20.020,-17.578,-9.277,-102.539,0.000
1737551868.009,-22.461,-25.391,-11.230,195.312,0.000
1737551868.012,-15.137,-29.297,-15.137,5.371,0.000
1737551868.016,-17.578,-19.043,-20.020,-140.625,0.000
1737551868.020,-32.227,-14.160,-23.438,-290.527,0.000
1737551868.024,-43.945,-15.137,-23.438,-196.289,0.000
1737551868.028,-37.598,-14.648,-17.090,145.508,0.000
1737551868.032,-28.320,-13.184,-13.672,8.301,0.000
1737551868.036,-20.508,-19.043,-8.301,-210.449,0.000
1737551868.040,-19.043,-27.832,-8.301,-355.957,0.000
1737551868.044,-24.902,-29.297,-10.254,-256.348,0.000
1737551868.048,-26.367,-21.973,-8.789,106.934,0.000
1737551868.051,-23.438,-13.184,-8.789,22.461,0.000
1737551868.055,-16.602,-14.160,-16.113,-192.383,0.000
1737551868.059,-17.578,-6.348,-26.367,-389.648,0.000
1737551868.063,-42.480,-3.906,-23.926,-363.770,0.000
1737551868.067,-38.086,-17.578,-24.414,18.555,0.000
1737551868.071,-22.949,-19.531,-30.762,-24.414,0.000
1737551868.075,-22.949,-16.113,-18.555,-196.777,0.000
1737551868.079,-18.066,-20.020,-16.113,-340.820,0.000
1737551868.083,-15.625,-31.250,-10.254,-398.926,0.000
1737551868.087,-18.555,-34.668,3.906,-12.207,0.000
1737551868.091,-20.020,-13.184,-7.812,54.688,0.000
1737551868.094,-19.531,-14.160,-16.113,-176.758,0.000
1737551868.098,-12.695,-23.438,-11.230,-338.379,0.000
1737551868.102,-30.762,-12.695,-19.043,-449.219,0.000
1737551868.106,-43.457,-5.859,-29.785,-163.086,0.000
1737551868.110,-41.504,-17.578,-20.020,-42.480,0.000
1737551868.114,-33.203,-20.996,-23.926,-235.840,0.000
1737551868.118,-23.926,-16.602,-23.926,-375.977,0.000
1737551868.122,-34.668,-22.461,-13.184,-482.910,0.000
1737551868.126,-27.344,-30.273,-14.648,-148.438,0.000
1737551868.130,-15.625,-24.902,-17.578,20.508,0.000
1737551868.134,-28.320,-21.973,-16.113,-190.430,0.000
1737551868.137,-36.621,-31.738,-13.184,-357.910,0.000
1737551868.141,-38.086,-25.391,-29.297,-506.836,0.000
1737551868.145,-41.016,-23.926,-32.227,-212.402,0.000
1737551868.149,-36.133,-30.273,-25.391,18.555,0.000
1737551868.153,-30.273,-32.227,-20.020,-181.152,0.000
1737551868.157,-23.926,-34.180,-9.766,-286.133,0.000
1737551868.161,-13.672,-26.855,-6.348,-417.969,0.000
1737551868.165,-20.996,-24.902,-11.719,-233.398,0.000
1737551868.169,-12.207,-18.555,-18.066,35.156,0.000
1737551868.173,-35.645,-16.602,-14.648,-146.484,0.000
1737551868.176,-60.547,-29.297,-14.648,-261.719,0.000
1737551868.180,-33.203,-29.297,-15.625,-388.184,0.000
1737551868.184,-15.625,-18.066,-22.461,-235.840,0.000
1737551868.188,-11.230,-14.648,-29.297,131.348,0.000
1737551868.192,-8.789,-16.602,-33.691,25.391,0.000
1737551868.196,-9.766,-18.555,-36.621,-155.273,0.000
1737551868.200,-33.203,-31.250,-24.414,-336.426,0.000
1737551868.204,-30.273,-18.066,-9.766,-211.914,0.000
1737551868.208,-7.324,4.883,-8.301,171.387,0.000
1737551868.212,-3.906,-1.465,-9.277,54.688,0.000
1737551868.216,-20.020,-22.461,-13.184,-152.832,0.000
1737551868.219,-38.086,-22.949,-15.625,-300.293,0.000
1737551868.223,-34.180,-20.020,-16.113,-272.949,0.000
1737551868.227,-16.113,-19.531,-16.113,91.309,0.000
1737551868.231,-13.184,-14.160,-17.578,89.844,0.000
1737551868.235,-7.812,-16.602,-27.344,-122.070,0.000
1737551868.239,5.859,-21.973,-16.113,-237.793,0.000
1737551868.243,-12.207,-26.367,-9.766,-269.531,0.000
1737551868.247,-7.812,-18.066,-27.832,46.875,0.000
1737551868.251,7.324,-14.648,-38.086,101.562,0.000
1737551868.255,-10.742,-28.320,-22.949,-128.418,0.000
1737551868.258,-31.250,-23.438,-14.160,-281.250,0.000
1737551868.262,-29.297,-9.277,-16.602,-317.871,0.000
1737551868.266,-24.902,-9.766,-11.230,48.340,0.000
1737551868.270,-31.738,-21.973,-20.508,121.094,0.000
1737551868.274,-20.996,-23.438,-21.973,-92.773,0.000
1737551868.278,-17.578,-19.531,-13.672,-213.867,0.000
1737551868.282,-22.461,-9.277,-15.625,-320.312,0.000
1737551868.286,-12.207,-8.789,-22.461,19.043,0.000
1737551868.290,-14.160,-10.254,-15.137,188.477,0.000
1737551868.294,-20.508,-4.395,1.465,-51.270,0.000
1737551868.298,-13.184,-2.930,1.953,-188.965,0.000
1737551868.301,5.859,-16.113,-19.531,-310.547,0.000
1737551868.305,0.977,-17.090,-15.625,-5.859,0.000
1737551868.309,-21.484,-8.789,-6.836,187.012,0.000
1737551868.313,-17.578,-14.648,-8.789,17.090,0.000
1737551868.317,-12.207,-23.438,-7.812,-127.441,0.000
1737551868.321,-12.695,-24.902,-10.742,-285.645,0.000
1737551868.325,-15.625,-16.602,-21.973,-21.484,0.000
1737551868.329,-10.254,-20.020,-24.414,247.559,0.000
1737551868.333,6.348,-19.531,-17.578,136.230,0.000
1737551868.337,-0.488,-14.160,-22.949,-14.648,0.000
1737551868.341,-32.227,-14.648,-32.227,-231.934,0.000
1737551868.344,-26.855,-11.230,-33.203,-18.066,0.000
1737551868.348,-18.555,-12.695,-15.625,319.336,0.000
1737551868.352,-16.602,-19.531,-6.348,149.414,0.000
1737551868.356,-23.926,-7.324,-14.160,-19.043,0.000
1737551868.360,-32.715,2.930,-12.695,-168.457,0.000
1737551868.364,-25.391,-11.230,-13.184,-32.227,0.000
1737551868.368,-12.207,-23.926,-14.160,272.461,0.000
1737551868.372,-5.371,-23.438,-16.113,162.598,0.000
1737551868.376,-18.555,-18.555,-13.672,36.133,0.000
1737551868.380,-25.391,-0.977,-21.973,-114.258,0.000
1737551868.383,-19.531,-1.465,-24.414,-68.359,0.000
1737551868.387,-14.648,-14.648,-10.742,279.297,0.000
1737551868.391,-26.855,-20.020,-13.184,188.965,0.000
1737551868.395,-20.508,-26.367,-14.160,-2.930,0.000
1737551868.399,-18.066,-22.949,-10.742,-162.598,0.000
1737551868.403,-27.344,-13.672,-13.184,-164.551,0.000
1737551868.407,-23.438,-25.391,-16.602,212.402,0.000
1737551868.411,-25.391,-33.691,-27.832,169.922,0.000
1737551868.415,-17.578,-14.160,-21.484,-52.734,0.000
1737551868.419,-13.184,-20.996,-14.160,-137.207,0.000
1737551868.423,-6.348,-28.809,-20.508,-212.402,0.000
1737551868.426,-2.441,-11.230,-14.648,96.680,0.000
1737551868.430,-15.625,-15.625,-10.254,161.133,0.000
1737551868.434,-8.789,-29.785,-18.555,-103.027,0.000
1737551868.438,-3.906,-23.438,-12.207,-202.637,0.000
1737551868.442,-16.602,-19.531,-5.859,-308.594,0.000
1737551868.446,-20.996,-22.461,-10.742,-16.113,0.000
1737551868.450,-17.090,-17.578,-14.648,155.273,0.000
1737551868.454,-34.668,-17.090,-23.926,-78.613,0.000
1737551868.458,-40.527,-16.602,-15.625,-215.820,0.000
1737551868.462,-31.250,-5.371,-9.277,-327.148,0.000
1737551868.466,-25.391,-4.395,-16.602,-50.781,0.000
1737551868.469,-17.090,-7.324,-6.836,194.824,0.000
1737551868.473,-17.578,-13.184,-0.977,21.484,0.000
1737551868.477,-20.508,-20.020,-10.742,-147.461,0.000
1737551868.481,-27.344,-13.184,-12.207,-327.637,0.000
1737551868.485,-22.949,-17.578,-1.953,-101.074,0.000
1737551868.489,-13.184,-23.926,-3.418,193.848,0.000
1737551868.493,-20.996,-22.949,-12.695,32.227,0.000
1737551868.497,-30.762,-20.996,-13.184,-110.840,0.000
1737551868.501,-27.344,-23.438,-11.230,-257.812,0.000
1737551868.505,-17.578,-16.602,-8.789,-84.961,0.000
1737551868.508,-21.484,-22.949,-3.418,200.195,0.000
1737551868.512,-29.297,-24.902,-7.324,11.719,0.000
1737551868.516,-13.672,-10.742,-19.043,-165.039,0.000
1737551868.520,-26.367,-9.766,-20.020,-273.438,0.000
1737551868.524,-45.898,-18.066,-13.672,-158.691,0.000
1737551868.528,-24.902,-25.391,-9.766,164.551,0.000
1737551868.532,-22.949,-21.973,-4.883,80.078,0.000
1737551868.536,-43.945,-15.625,-9.766,-119.141,0.000
1737551868.540,-41.992,-19.531,-19.531,-295.898,0.000
1737551868.544,-39.551,-26.367,-16.113,-248.047,0.000
1737551868.548,-42.480,-22.949,-13.184,104.004,0.000
1737551868.551,-45.410,-21.484,-18.555,45.898,0.000
1737551868.555,-49.316,-25.391,-21.973,-145.996,0.000
1737551868.559,-36.621,-22.949,-22.949,-292.969,0.000
1737551868.563,-31.738,-22.461,-19.043,-258.301,0.000
1737551868.567,-21.973,-14.160,-17.578,136.719,0.000
1737551868.571,-17.090,-8.789,-11.719,102.539,0.000
1737551868.575,-31.250,-12.695,-13.184,-180.176,0.000
1737551868.579,-23.926,-12.207,-24.902,-304.688,0.000
1737551868.583,-18.555,-12.695,-24.414,-303.711,0.000
1737551868.587,-27.832,-26.367,-15.137,49.316,0.000
1737551868.590,-15.137,-29.297,-17.578,158.203,0.000
1737551868.594,-6.348,-20.020,-18.066,-77.148,0.000
1737551868.598,-23.926,-12.695,-15.137,-317.383,0.000
1737551868.602,-28.809,-10.254,-22.461,-337.891,0.000
1737551868.606,-19.043,-9.766,-23.926,26.855,0.000
1737551868.610,-14.160,-6.836,-22.461,98.145,0.000
1737551868.614,-8.789,-6.348,-24.902,-80.078,0.000
1737551868.618,-18.555,-18.066,-25.391,-253.418,0.000
1737551868.622,-28.809,-33.203,-24.414,-392.578,0.000
1737551868.626,-7.324,-32.715,-25.391,-48.340,0.000
1737551868.630,-3.418,-22.461,-22.461,125.000,0.000
1737551868.633,-15.625,-25.391,-20.508,-85.449,0.000
1737551868.637,3.418,-9.277,-14.648,-213.379,0.000
1737551868.641,18.066,11.230,-11.230,-341.797,0.000
1737551868.645,-25.879,-0.488,-7.324,-92.285,0.000
1737551868.649,-41.016,-2.930,-1.465,160.156,0.000
1737551868.653,-35.645,0.000,-4.395,-47.852,0.000
1737551868.657,-44.922,-6.348,-20.996,-198.730,0.000
1737551868.661,-23.926,-10.742,-32.227,-324.219,0.000
1737551868.665,-21.973,-18.066,-18.066,-173.340,0.000
1737551868.669,-35.156,-20.020,-3.906,52.734,0.000
1737551868.673,-34.668,-18.066,-3.906,-105.469,0.000
1737551868.676,-28.809,-29.297,-3.906,-270.996,0.000
1737551868.680,-29.785,-27.832,-4.395,-427.734,0.000
1737551868.684,-23.438,-11.719,-6.836,-254.883,0.000
1737551868.688,-10.254,-13.672,-8.789,92.773,0.000
1737551868.692,-12.207,-25.879,-14.160,-75.195,0.000
1737551868.696,-25.879,-37.598,-17.578,-243.652,0.000
1737551868.700,-18.555,-28.809,-18.555,-379.395,0.000
1737551868.704,-15.625,-20.508,-16.113,-303.223,0.000
1737551868.708,-18.555,-15.625,-15.137,106.934,0.000
1737551868.712,-13.184,-11.719,-17.090,13.672,0.000
1737551868.715,-16.602,-11.230,-20.020,-226.074,0.000
1737551868.719,-3.906,-15.137,-12.207,-367.676,0.000
1737551868.723,-2.930,-31.250,-9.766,-330.078,0.000
1737551868.727,-28.809,-20.508,-18.066,50.293,0.000
1737551868.731,-15.137,-13.184,-10.254,11.719,0.000
1737551868.735,-4.395,-21.973,-11.719,-206.543,0.000
1737551868.739,-23.926,-13.672,-18.555,-338.867,0.000
1737551868.743,-19.043,-9.766,-18.066,-371.582,0.000
1737551868.747,-1.465,-14.648,-28.320,-29.785,0.000
1737551868.751,-15.137,-12.695,-20.508,41.016,0.000
1737551868.755,-23.438,-7.812,-9.766,-149.414,0.000
1737551868.758,-11.719,-10.742,-22.949,-348.145,0.000
1737551868.762,-11.230,-18.555,-35.645,-428.711,0.000
1737551868.766,-15.625,-20.508,-25.879,-51.270,0.000
1737551868.770,-20.996,-28.320,-14.648,41.016,0.000
1737551868.774,-36.621,-24.902,-22.461,-192.871,0.000
1737551868.778,-41.504,-10.742,-23.438,-349.609,0.000
1737551868.782,-33.203,-11.230,-21.484,-422.363,0.000
1737551868.786,-22.461,-14.160,-23.438,-95.215,0.000
1737551868.790,-29.297,-20.020,-19.043,24.414,0.000
1737551868.794,-26.855,-26.855,-16.113,-191.895,0.000
1737551868.798,-12.695,-31.738,-28.320,-321.289,0.000
1737551868.801,-18.066,-29.785,-37.109,-426.758,0.000
1737551868.805,-7.324,-13.672,-15.137,-132.812,0.000
1737551868.809,1.953,-17.578,-6.836,65.430,0.000
1737551868.813,-23.438,-29.297,-23.438,-177.734,0.000
1737551868.817,-36.621,-18.066,-26.855,-292.969,0.000
1737551868.821,-30.762,-8.789,-14.160,-396.973,0.000
1737551868.825,-0.977,-2.441,-9.277,-207.520,0.000
1737551868.829,23.438,-14.160,-18.555,59.082,0.000
1737551868.833,2.441,-29.297,-28.320,-99.121,0.000
1737551868.837,0.977,-7.324,-20.996,-210.938,0.000
1737551868.840,9.277,11.719,-5.859,-380.371,0.000
1737551868.844,-4.395,0.000,-4.395,-253.906,0.000
1737551868.848,-16.113,-10.254,-9.766,80.566,0.000
1737551868.852,-25.391,-21.973,-16.113,-80.566,0.000
1737551868.856,-22.461,-40.039,-21.973,-278.320,0.000
1737551868.860,-3.906,-37.109,-20.996,-436.523,0.000
1737551868.864,-14.648,-27.344,-25.879,-322.266,0.000
1737551868.868,-28.320,-21.973,-18.555,31.250,0.000
1737551868.872,-23.926,-14.648,-10.254,-67.383,0.000
1737551868.876,-13.184,-18.555,-12.695,-225.098,0.000
1737551868.880,-12.695,-15.137,-16.113,-376.953,0.000
1737551868.883,-30.762,-9.766,-21.973,-342.773,0.000
1737551868.887,-30.273,-11.719,-20.508,65.430,0.000
1737551868.891,-30.273,-11.230,-15.625,29.297,0.000
1737551868.895,-19.043,-11.230,-15.137,-151.367,0.000
1737551868.899,-0.977,-16.113,-21.484,-267.090,0.000
1737551868.903,-18.066,-19.531,-23.438,-324.219,0.000
1737551868.907,-32.715,-17.578,-8.301,14.648,0.000
1737551868.911,-27.832,-17.578,-8.789,41.504,0.000
1737551868.915,-25.391,-32.715,-19.531,-156.250,0.000
1737551868.919,-31.738,-49.805,-13.184,-286.133,0.000
1737551868.923,-32.715,-42.969,-10.742,-357.422,0.000
1737551868.926,-24.902,-23.926,-7.324,10.742,0.000
1737551868.930,-15.137,-15.137,-5.859,137.207,0.000
1737551868.934,-19.043,-20.508,-16.113,-108.887,0.000
1737551868.938,-18.066,-20.020,-23.438,-288.086,0.000
1737551868.942,-20.996,-8.301,-24.902,-368.164,0.000
1737551868.946,-21.973,-13.672,-22.461,-36.133,0.000
1737551868.950,-34.180,-27.344,-12.207,60.547,0.000
1737551868.954,-45.898,-19.043,-10.742,-131.348,0.000
1737551868.958,-35.645,-9.766,-20.020,-271.973,0.000
1737551868.962,-26.367,-20.508,-22.461,-380.371,0.000
1737551868.965,-10.254,-29.297,-24.902,-105.957,0.000
1737551868.969,2.441,-21.973,-16.113,114.746,0.000
1737551868.973,-20.508,-18.066,-9.766,-63.477,0.000
1737551868.977,-34.180,-27.832,-16.113,-240.234,0.000
1737551868.981,-30.762,-27.344,-16.113,-398.438,0.000
1737551868.985,-13.672,-16.602,-11.719,-164.062,0.000
1737551868.989,21.484,-10.254,-17.090,114.258,0.000
1737551868.993,7.812,-3.906,-14.648,-99.121,0.000
1737551868.997,-18.555,-8.301,-8.789,-307.129,0.000
1737551869.001,-0.488,-11.719,-10.254,-468.262,0.000
1737551869.005,10.254,-5.371,-11.719,-291.992,0.000
1737551869.008,0.977,-16.602,-15.137,28.809,0.000
1737551869.012,-26.855,-38.574,-17.578,-117.676,0.000
1737551869.016,-48.828,-33.203,-7.812,-271.973,0.000
1737551869.020,-65.430,-14.648,-10.254,-456.055,0.000
1737551869.024,-49.316,-13.184,-11.230,-352.539,0.000
1737551869.028,-23.926,-18.066,0.488,6.836,0.000
1737551869.032,-25.879,-13.672,-15.137,-126.953,0.000
1737551869.036,-22.949,-7.812,-33.691,-325.195,0.000
1737551869.040,-20.508,-15.625,-21.484,-477.051,0.000
1737551869.044,-13.184,-11.719,-12.207,-408.691,0.000
1737551869.047,5.859,-10.254,-16.602,-21.973,0.000
1737551869.051,3.418,-14.160,-20.508,-102.051,0.000
1737551869.055,-12.207,-22.461,-16.602,-334.473,0.000
1737551869.059,-28.320,-32.715,-7.812,-494.629,0.000
1737551869.063,-28.809,-20.996,-12.695,-481.445,0.000
1737551869.067,-20.020,-8.789,-26.855,-98.633,0.000
1737551869.071,-14.648,-8.789,-20.996,-112.305,0.000
1737551869.075,-9.766,-12.695,-19.531,-323.730,0.000
1737551869.079,-17.578,-16.602,-30.273,-442.383,0.000
1737551869.083,-31.250,-8.789,-23.438,-461.426,0.000
1737551869.087,-31.250,-12.695,-14.160,-136.719,0.000
1737551869.090,-18.555,-28.809,-12.695,-55.664,0.000
1737551869.094,-23.438,-35.156,-17.578,-264.648,0.000
1737551869.098,-19.043,-25.879,-23.926,-409.668,0.000
1737551869.102,-17.578,-17.090,-26.367,-441.406,0.000
1737551869.106,-5.371,-8.789,-24.902,-125.000,0.000
1737551869.110,8.789,0.977,-20.508,-39.062,0.000
1737551869.114,-10.254,-3.906,-20.508,-286.133,0.000
1737551869.118,-20.020,-9.766,-20.996,-372.559,0.000
1737551869.122,-5.859,-12.695,-13.672,-487.305,0.000
1737551869.126,-3.418,-19.043,-1.465,-208.496,0.000
1737551869.130,-23.926,-20.020,-2.930,13.184,0.000
1737551869.133,-29.297,-18.555,-15.625,-201.172,0.000
1737551869.137,-21.484,-21.973,-14.648,-354.980,0.000
1737551869.141,-17.578,-24.902,-10.254,-480.469,0.000
1737551869.145,-21.973,-27.344,-9.766,-192.383,0.000
1737551869.149,-25.391,-23.438,-7.324,115.234,0.000
1737551869.153,-29.297,-18.555,-12.695,-43.945,0.000
1737551869.157,-31.250,-27.344,-22.949,-256.348,0.000
1737551869.161,-31.738,-24.902,-31.250,-455.078,0.000
1737551869.165,-19.043,-13.184,-30.762,-187.988,0.000
1737551869.169,12.695,-8.301,-14.648,111.328,0.000
1737551869.172,5.859,-12.207,-11.230,-51.758,0.000
1737551869.176,-7.812,-20.020,-18.066,-181.152,0.000
1737551869.180,1.953,-22.461,-13.672,-401.855,0.000
1737551869.184,-0.977,-19.531,-9.277,-282.227,0.000
1737551869.188,-14.160,-14.160,-7.324,100.586,0.000
1737551869.192,-35.645,-8.789,-13.672,-31.738,0.000
1737551869.196,-33.691,-14.648,-11.719,-229.004,0.000
1737551869.200,-28.320,-24.414,-16.113,-439.941,0.000
1737551869.204,-41.992,-25.391,-25.879,-337.402,0.000
1737551869.208,-38.574,-18.066,-17.090,103.516,0.000
1737551869.212,-17.090,-10.254,-19.043,6.348,0.000
1737551869.215,3.906,-15.625,-28.320,-180.664,0.000
1737551869.219,1.953,-17.090,-21.484,-275.879,0.000
1737551869.223,-7.812,-12.695,-18.555,-231.445,0.000
1737551869.227,3.418,-8.301,-14.160,142.090,0.000
1737551869.231,-1.465,-10.742,-15.137,116.211,0.000
1737551869.235,7.324,-13.672,-11.719,-66.406,0.000
1737551869.239,5.859,-9.277,-11.230,-172.852,0.000
1737551869.243,-13.672,-11.719,-20.020,-232.422,0.000
1737551869.247,-7.324,-19.531,-20.508,138.184,0.000
1737551869.251,-14.160,-14.648,-17.090,224.121,0.000
1737551869.255,-26.855,-18.555,-19.043,-2.441,0.000
1737551869.258,-11.230,-26.855,-20.020,-140.137,0.000
1737551869.262,-5.859,-27.832,-23.438,-256.348,0.000
1737551869.266,-15.137,-35.645,-24.414,35.645,0.000
1737551869.270,5.371,-24.414,-23.926,194.336,0.000
1737551869.274,23.438,-7.324,-33.203,-16.602,0.000
1737551869.278,20.508,-12.207,-30.762,-155.762,0.000
1737551869.282,15.625,-14.160,-17.578,-294.922,0.000
1737551869.286,8.789,-5.859,-10.254,2.930,0.000
1737551869.290,13.184,-11.719,-14.160,200.195,0.000
1737551869.294,-31.738,-27.344,-19.531,-27.344,0.000
1737551869.297,-56.641,-30.762,-17.578,-114.258,0.000
1737551869.301,-21.973,-30.273,-19.531,-281.738,0.000
1737551869.305,-15.137,-19.043,-20.996,-67.383,0.000
1737551869.309,-4.395,-7.812,-7.812,236.328,0.000
1737551869.313,13.184,-18.066,4.395,84.961,0.000
1737551869.317,-0.977,-14.648,-3.418,-33.203,0.000
1737551869.321,-53.223,-0.488,-12.695,-221.191,0.000
1737551869.325,-75.195,-5.371,-11.230,-102.539,0.000
1737551869.329,-58.105,-16.113,-9.277,207.031,0.000
1737551869.333,-70.801,-37.109,-17.090,110.840,0.000
1737551869.337,-86.426,-31.738,-20.020,-20.508,0.000
1737551869.340,-88.867,-7.812,-11.230,-225.586,0.000
1737551869.344,-72.266,-4.395,-13.184,-133.301,0.000
1737551869.348,-84.473,-9.277,-19.531,213.867,0.000
1737551869.352,-81.055,-17.578,-9.277,159.180,0.000
1737551869.356,-44.922,-19.043,-1.953,-34.668,0.000
1737551869.360,-14.160,-13.184,-13.672,-279.297,0.000
1737551869.364,-3.418,-9.766,-18.066,-231.934,0.000
1737551869.368,-32.715,-18.555,-10.742,98.145,0.000
1737551869.372,-42.969,-25.391,-1.953,90.332,0.000
1737551869.376,-34.180,-16.602,-10.742,-134.766,0.000
1737551869.380,-31.738,-13.184,-20.020,-380.371,0.000
1737551869.383,-17.578,-6.348,-23.926,-374.512,0.000
1737551869.387,-7.324,-7.812,-31.738,-29.785,0.000
1737551869.391,-23.438,-16.602,-32.715,-28.320,0.000
1737551869.395,-41.504,-20.508,-22.461,-203.613,0.000
1737551869.399,-37.598,-10.254,-19.043,-387.695,0.000
1737551869.403,5.859,0.000,-25.391,-390.137,0.000
1737551869.407,15.137,-10.742,-16.113,-17.578,0.000
1737551869.411,-13.672,-23.926,-0.977,11.719,0.000
1737551869.415,-20.996,-24.414,-6.348,-185.547,0.000
1737551869.419,-25.879,-20.996,-16.113,-390.137,0.000
1737551869.422,-34.180,-17.090,-24.902,-496.094,0.000
1737551869.426,-52.734,-24.414,-33.203,-141.602,0.000
1737551869.430,-68.359,-20.996,-22.949,-68.359,0.000
1737551869.434,-62.988,-13.184,-17.090,-309.570,0.000
1737551869.438,-52.246,-19.531,-26.367,-533.203,0.000
1737551869.442,-43.457,-17.090,-22.461,-729.980,0.000
1737551869.446,-26.367,-15.625,-14.648,-419.434,0.000
1737551869.450,-27.832,-18.555,-23.438,-264.648,0.000
1737551869.454,-14.160,-17.578,-27.832,-453.613,0.000
1737551869.458,10.254,-20.508,-25.879,-555.664,0.000
1737551869.462,-9.277,-24.902,-25.879,-760.254,0.000
1737551869.465,-9.277,-9.277,-14.160,-457.031,0.000
1737551869.469,-3.906,-9.277,-10.254,-139.160,0.000
1737551869.473,-21.484,-19.043,-13.672,-278.809,0.000
1737551869.477,-31.738,-5.859,-22.461,-402.344,0.000
1737551869.481,-22.461,-3.906,-25.391,-546.387,0.000
1737551869.485,-13.672,-20.020,-19.043,-316.895,0.000
1737551869.489,-4.883,-24.414,-13.184,10.742,0.000
1737551869.493,-4.883,-22.949,-24.902,-196.777,0.000
1737551869.497,13.672,-16.602,-25.391,-411.133,0.000
1737551869.501,-0.977,-14.648,-15.625,-607.910,0.000
1737551869.504,-10.254,-21.484,-8.789,-437.988,0.000
1737551869.508,16.602,-20.020,-8.301,-82.520,0.000
1737551869.512,-18.066,-16.602,-10.742,-231.934,0.000
1737551869.516,-63.965,-12.695,-10.254,-379.395,0.000
1737551869.520,-51.270,-11.230,-13.672,-521.973,0.000
1737551869.524,-46.387,-13.184,-15.137,-418.945,0.000
1737551869.528,-30.762,-10.742,-19.043,8.789,0.000
1737551869.532,13.184,-10.254,-20.508,7.324,0.000
1737551869.536,-2.441,-11.719,-23.926,-150.391,0.000
1737551869.540,-37.598,-18.555,-34.668,-312.500,0.000
1737551869.544,-26.367,-18.066,-27.344,-308.105,0.000
1737551869.547,-8.301,-15.137,-16.113,37.598,0.000
1737551869.551,27.344,-24.414,-21.484,76.172,0.000
1737551869.555,22.949,-30.273,-31.738,-100.586,0.000
1737551869.559,-2.441,-17.578,-33.691,-349.609,0.000
1737551869.563,-16.602,-21.973,-36.621,-388.184,0.000
1737551869.567,-35.645,-27.344,-28.320,25.391,0.000
1737551869.571,-13.672,-13.672,-10.254,191.406,0.000
1737551869.575,-0.488,-12.695,-11.719,93.262,0.000
1737551869.579,-25.879,-20.020,-24.902,-108.398,0.000
1737551869.583,-12.695,-12.207,-21.484,-260.742,0.000
1737551869.587,14.160,-11.719,-14.160,114.746,0.000
1737551869.590,20.996,-21.973,-18.066,344.238,0.000
1737551869.594,36.133,-9.277,-26.855,219.727,0.000
1737551869.598,21.484,0.488,-26.855,29.785,0.000
1737551869.602,-3.906,-12.207,-20.996,-172.852,0.000
1737551869.606,7.812,-17.090,-21.973,125.488,0.000
1737551869.610,11.719,-15.137,-14.160,376.465,0.000
1737551869.614,10.742,-15.137,-11.719,202.637,0.000
1737551869.618,2.441,-13.184,-15.137,-3.418,0.000
1737551869.622,-30.273,-16.113,-17.090,-231.445,0.000
1737551869.626,-48.828,-19.043,-15.137,-21.484,0.000
1737551869.629,-53.223,-16.113,-6.836,217.773,0.000
1737551869.633,-33.203,-19.043,-8.789,107.910,0.000
1737551869.637,-29.297,-23.926,-19.531,-62.012,0.000
1737551869.641,-29.297,-17.578,-14.160,-315.430,0.000
1737551869.645,-15.137,-11.230,-15.625,-62.012,0.000
1737551869.649,0.000,-18.066,-24.902,296.387,0.000
1737551869.653,12.695,-15.137,-14.160,219.238,0.000
1737551869.657,-9.766,-7.812,-6.836,98.145,0.000
1737551869.661,-41.016,-4.883,-16.602,-215.332,0.000
1737551869.665,-39.551,-6.836,-12.695,-122.559,0.000
1737551869.669,-9.766,-9.277,-5.859,283.691,0.000
1737551869.672,9.277,-7.812,-5.859,236.328,0.000
1737551869.676,-6.836,-9.766,-12.207,28.320,0.000
1737551869.680,-12.207,-10.254,-20.508,-243.652,0.000
1737551869.684,18.555,-10.254,-15.625,-187.988,0.000
1737551869.688,52.246,-6.348,-9.277,192.871,0.000
1737551869.692,54.688,-6.348,-14.648,167.480,0.000
1737551869.696,28.809,-24.414,-22.949,-48.340,0.000
1737551869.700,41.016,-28.809,-21.973,-316.895,0.000
1737551869.704,68.848,-7.812,-15.137,-300.293,0.000
1737551869.708,29.785,0.977,-5.371,95.215,0.000
1737551869.712,-9.766,-9.766,2.441,112.305,0.000
1737551869.715,-41.992,-22.461,-0.977,-33.691,0.000
1737551869.719,-72.754,-28.320,-11.230,-261.230,0.000
1737551869.723,-67.871,-34.668,-21.973,-359.375,0.000
1737551869.727,-61.523,-31.250,-25.391,32.715,0.000
1737551869.731,-44.434,-20.508,-24.414,211.914,0.000
1737551869.735,-35.645,-6.348,-23.438,122.559,0.000
1737551869.739,-45.898,-2.441,-15.625,-57.129,0.000
1737551869.743,-39.551,-2.930,-14.648,-185.547,0.000
1737551869.747,-20.020,-9.766,-14.160,131.348,0.000
1737551869.751,-15.625,-19.043,-9.277,295.898,0.000
1737551869.754,-50.781,-14.648,-14.648,162.598,0.000
1737551869.758,-76.172,-19.531,-20.020,-57.617,0.000
1737551869.762,-34.668,-22.949,-13.184,-243.164,0.000
1737551869.766,-9.766,-9.766,-6.348,82.520,0.000
1737551869.770,-36.133,-18.066,-4.395,285.156,0.000
1737551869.774,-28.809,-20.996,-3.906,147.949,0.000
1737551869.778,-18.066,-9.766,-19.531,-94.727,0.000
1737551869.782,-30.273,-9.766,-23.438,-356.934,0.000
1737551869.786,-12.695,-7.812,-13.672,-41.016,0.000
1737551869.790,13.184,-11.230,-19.043,183.105,0.000
1737551869.794,34.180,-9.766,-22.949,55.664,0.000
1737551869.797,23.438,-10.254,-24.902,-69.336,0.000
1737551869.801,12.207,-22.461,-23.438,-315.430,0.000
1737551869.805,0.488,-29.785,-11.230,-90.332,0.000
1737551869.809,-30.762,-18.555,-15.625,230.469,0.000
1737551869.813,-40.527,0.977,-14.648,157.227,0.000
1737551869.817,-43.457,0.488,-5.859,25.391,0.000
1737551869.821,-13.672,-16.602,-1.953,-257.812,0.000
1737551869.825,-7.812,-18.066,-11.719,-163.086,0.000
1737551869.829,-23.438,-4.395,-17.578,190.918,0.000
1737551869.833,-11.230,-0.488,-9.277,148.438,0.000
1737551869.837,-15.625,-7.324,-8.301,-26.855,0.000
1737551869.840,-18.066,-9.766,-12.695,-356.934,0.000
1737551869.844,6.836,-8.789,-19.531,-288.086,0.000
1737551869.848,19.531,-3.906,-22.949,131.836,0.000
1737551869.852,13.672,-1.953,-24.414,112.305,0.000
1737551869.856,-11.719,-0.977,-21.484,-80.078,0.000
1737551869.860,-20.508,2.441,-16.602,-352.539,0.000
1737551869.864,-27.344,-9.277,-12.207,-332.520,0.000
1737551869.868,-40.527,-25.879,-13.184,26.855,0.000
1737551869.872,-39.062,-15.137,-15.625,27.832,0.000
1737551869.876,-46.387,-17.090,-22.949,-92.773,0.000
1737551869.879,-51.270,-18.066,-35.156,-323.242,0.000
1737551869.883,-63.477,-11.719,-20.996,-465.332,0.000
1737551869.887,-52.246,-13.672,-7.324,-106.934,0.000
1737551869.891,-58.594,-21.973,-20.508,6.348,0.000
1737551869.895,-56.641,-28.320,-21.484,-134.277,0.000
1737551869.899,-31.250,-18.066,-20.996,-346.191,0.000
1737551869.903,-30.762,-10.742,-25.391,-455.566,0.000
1737551869.907,-23.926,-11.719,-16.602,-43.945,0.000
1737551869.911,-10.254,-7.324,-11.230,156.738,0.000
1737551869.915,-13.672,-9.277,-17.090,1.465,0.000
1737551869.919,-10.742,-8.301,-16.602,-132.324,0.000
1737551869.922,-1.953,-13.184,-20.020,-280.762,0.000
1737551869.926,-13.672,-20.020,-27.832,26.855,0.000
1737551869.930,-25.879,-7.324,-20.508,239.746,0.000
1737551869.934,-25.879,-3.418,-17.578,125.000,0.000
1737551869.938,-19.531,-10.742,-17.578,-34.180,0.000
1737551869.942,-31.250,-11.719,-9.766,-281.250,0.000
1737551869.946,-14.160,-10.742,-6.348,-58.105,0.000
1737551869.950,-3.906,-8.789,-14.160,213.379,0.000
1737551869.954,-9.766,-11.230,-20.996,98.633,0.000
1737551869.958,-14.648,-14.160,-16.113,-120.605,0.000
1737551869.961,-34.180,-13.672,-15.625,-361.328,0.000
1737551869.965,-27.832,-14.648,-15.625,-133.789,0.000
1737551869.969,-20.996,-21.484,-10.254,150.391,0.000
1737551869.973,-20.020,-23.926,-16.602,60.059,0.000
1737551869.977,-7.324,-6.836,-24.414,-103.027,0.000
1737551869.981,-7.324,-10.254,-21.484,-401.855,0.000
1737551869.985,-25.879,-21.973,-16.113,-244.141,0.000
1737551869.989,-28.809,-25.391,-13.672,162.598,0.000
1737551869.993,-4.395,-14.160,-17.578,108.887,0.000
1737551869.997,20.508,-12.695,-23.438,-91.797,0.000
1737551870.001,-9.766,-25.391,-21.484,-336.914,0.000
1737551870.004,-41.016,-22.461,-20.508,-172.363,0.000
1737551870.008,-33.691,-8.301,-24.902,241.699,0.000
1737551870.012,-54.199,-8.301,-29.297,127.441,0.000
1737551870.016,-53.711,-6.348,-20.996,-23.438,0.000
1737551870.020,-39.062,-8.301,-5.859,-226.074,0.000
1737551870.024,-46.387,-26.367,-9.766,-217.285,0.000
1737551870.028,-53.711,-26.855,-13.672,73.730,0.000
1737551870.032,-44.922,-21.484,-13.672,19.531,0.000
1737551870.036,-46.875,-18.066,-21.484,-82.031,0.000
1737551870.040,-61.035,-17.090,-26.367,-316.406,0.000
1737551870.044,-66.406,-24.414,-26.367,-358.398,0.000
1737551870.047,-46.387,-23.438,-18.555,59.082,0.000
1737551870.051,-49.805,-23.438,-14.160,128.418,0.000
1737551870.055,-42.480,-14.648,-23.438,-17.090,0.000
1737551870.059,-16.602,-1.953,-25.879,-270.996,0.000
1737551870.063,-40.527,-12.207,-20.996,-398.438,0.000
1737551870.067,-47.363,-19.531,-13.184,-2.441,0.000
1737551870.071,-27.344,-20.508,-9.277,87.402,0.000
1737551870.075,-35.645,-17.578,-10.742,-82.520,0.000
1737551870.079,-49.805,-18.066,-15.625,-279.785,0.000
1737551870.083,-50.293,-19.531,-23.926,-458.008,0.000
1737551870.086,-39.551,-18.555,-23.926,-179.688,0.000
1737551870.090,-25.879,-17.578,-23.438,-27.832,0.000
1737551870.094,-44.434,-26.855,-27.344,-172.852,0.000
1737551870.098,-73.730,-17.090,-29.297,-374.023,0.000
1737551870.102,-63.477,-7.324,-32.715,-595.215,0.000
1737551870.106,-63.477,-16.602,-31.250,-339.355,0.000
1737551870.110,-54.199,-19.043,-19.531,-65.430,0.000
1737551870.114,-55.664,-13.672,-16.602,-80.566,0.000
1737551870.118,-62.012,-13.672,-24.902,-239.258,0.000
1737551870.122,-46.387,-27.832,-25.391,-447.754,0.000
1737551870.126,-32.715,-33.691,-26.855,-145.996,0.000
1737551870.129,-42.969,-25.391,-24.414,180.176,0.000
1737551870.133,-47.852,-19.531,-13.672,126.953,0.000
1737551870.137,-37.598,-21.484,-14.648,7.812,0.000
1737551870.141,-39.062,-21.484,-23.438,-250.000,0.000
1737551870.145,-33.691,-20.996,-28.809,-97.656,0.000
1737551870.149,-17.578,-25.879,-20.020,226.074,0.000
1737551870.153,-14.648,-31.738,-15.625,83.496,0.000
1737551870.157,-13.184,-21.973,-13.184,-110.840,0.000
1737551870.161,-27.832,-11.719,-9.277,-340.332,0.000
1737551870.165,-45.410,-9.766,-17.578,-312.500,0.000
1737551870.169,-47.852,-11.719,-30.762,-44.434,0.000
1737551870.172,-55.664,-17.578,-27.832,-88.867,0.000
1737551870.176,-54.199,-28.809,-19.531,-254.395,0.000
1737551870.180,-56.641,-29.297,-28.320,-508.789,0.000
1737551870.184,-60.547,-20.020,-31.738,-424.805,0.000
1737551870.188,-40.527,-25.879,-21.484,-4.883,0.000
1737551870.192,-28.320,-41.016,-8.789,16.113,0.000
1737551870.196,-30.762,-21.484,-12.695,-115.723,0.000
1737551870.200,-37.109,4.883,-20.508,-390.137,0.000
1737551870.204,-31.250,2.441,-22.461,-431.152,0.000
1737551870.208,-20.020,0.977,-30.762,52.246,0.000
1737551870.211,-21.973,-2.930,-35.156,98.633,0.000
1737551870.215,-16.113,-9.766,-22.461,-85.938,0.000
1737551870.219,14.648,-17.090,-22.461,-340.820,0.000
1737551870.223,7.812,-22.949,-36.621,-473.145,0.000
1737551870.227,-35.645,-13.672,-32.227,-62.500,0.000
1737551870.231,-54.688,-14.648,-21.484,22.949,0.000
1737551870.235,-56.152,-32.715,-2.930,-134.277,0.000
1737551870.239,-64.941,-31.250,1.465,-301.758,0.000
1737551870.243,-53.711,-17.090,-10.742,-458.008,0.000
1737551870.247,-20.020,-13.672,-20.508,-79.102,0.000
1737551870.251,-33.203,-5.371,-26.855,112.793,0.000
1737551870.254,-66.406,-2.930,-23.438,-26.855,0.000
1737551870.258,-86.426,-13.672,-30.273,-271.484,0.000
1737551870.262,-79.590,-24.902,-28.809,-492.676,0.000
1737551870.266,-56.152,-29.785,-13.672,-134.277,0.000
1737551870.270,-41.992,-30.273,-11.230,101.074,0.000
1737551870.274,-41.992,-20.508,-20.508,-12.695,0.000
1737551870.278,-18.066,-16.113,-30.762,-144.531,0.000
1737551870.282,3.418,-18.555,-34.668,-346.680,0.000
1737551870.286,-12.207,-23.926,-27.344,-67.871,0.000
1737551870.290,-0.488,-18.555,-19.043,197.754,0.000
1737551870.293,2.930,-6.836,-19.531,88.379,0.000
1737551870.297,-18.066,-1.465,-20.996,-60.059,0.000
1737551870.301,-21.484,-3.906,-22.949,-290.039,0.000
1737551870.305,5.859,-20.508,-31.738,-127.930,0.000
1737551870.309,17.090,-22.461,-26.367,159.180,0.000
1737551870.313,-14.160,-13.672,-29.785,82.520,0.000
1737551870.317,-11.719,-26.367,-28.320,-34.180,0.000
1737551870.321,-19.531,-29.297,-12.695,-316.895,0.000
1737551870.325,-27.344,-11.719,-13.184,-235.352,0.000
1737551870.329,-9.766,-5.371,-19.043,105.469,0.000
1737551870.333,5.371,-13.672,-14.648,66.406,0.000
1737551870.336,7.324,-16.602,-10.742,-61.035,0.000
1737551870.340,9.277,-4.395,-10.254,-333.496,0.000
1737551870.344,2.441,-8.301,-15.137,-216.797,0.000
1737551870.348,-7.324,-16.113,-19.043,184.570,0.000
1737551870.352,-0.488,-3.906,-18.555,145.508,0.000
1737551870.356,-17.090,-3.906,-17.090,-41.504,0.000
1737551870.360,-42.969,-14.160,-17.090,-272.949,0.000
1737551870.364,-55.176,-12.207,-8.789,-200.195,0.000
1737551870.368,-43.457,-14.160,-7.812,181.152,0.000
1737551870.372,-32.715,-24.902,-8.301,137.207,0.000
1737551870.376,-29.785,-23.926,-11.230,-17.578,0.000
1737551870.379,-43.945,-24.902,-20.020,-260.742,0.000
1737551870.383,-56.641,-21.973,-21.484,-326.172,0.000
1737551870.387,-56.152,-17.578,-17.090,77.637,0.000
1737551870.391,-35.156,-14.160,-8.301,216.797,0.000
1737551870.395,-20.020,-25.879,-8.301,62.500,0.000
1737551870.399,-20.020,-24.902,-16.113,-198.242,0.000
1737551870.403,-30.762,-7.324,-21.973,-339.355,0.000
1737551870.407,-16.602,-0.488,-9.277,1.465,0.000
1737551870.411,11.719,5.859,-2.441,156.250,0.000
1737551870.415,-7.812,-4.395,-11.230,17.090,0.000
1737551870.418,-20.508,-18.066,-9.277,-195.801,0.000
1737551870.422,-15.137,-16.602,-3.906,-358.398,0.000
1737551870.426,-10.254,-17.090,0.000,-5.371,0.000
1737551870.430,7.812,-14.648,-5.859,157.715,0.000
1737551870.434,12.207,-3.418,-13.184,-27.344,0.000
1737551870.438,-2.930,-8.301,-4.395,-220.215,0.000
1737551870.442,4.395,-17.090,-11.230,-427.734,0.000
1737551870.446,3.906,-19.531,-17.090,-162.598,0.000
1737551870.450,-4.883,-20.508,-4.395,91.797,0.000
1737551870.454,-12.207,-23.926,-9.277,2.930,0.000
1737551870.458,-14.648,-17.090,-22.461,-150.391,0.000
1737551870.461,-19.531,-3.906,-24.414,-414.551,0.000
1737551870.465,-5.859,-3.906,-14.648,-147.461,0.000
1737551870.469,14.648,-7.324,-10.742,197.266,0.000
1737551870.473,9.277,-10.742,-20.020,104.492,0.000
1737551870.477,-7.324,-10.742,-22.949,-18.066,0.000
1737551870.481,-17.090,-9.766,-17.578,-284.180,0.000
1737551870.485,-0.977,-10.254,-20.996,-98.633,0.000
1737551870.489,1.465,-10.742,-20.508,289.551,0.000
1737551870.493,-18.066,-6.836,-10.742,179.688,0.000
1737551870.497,-28.809,-7.324,-3.418,-8.789,0.000
1737551870.501,-9.766,-16.113,-7.812,-260.254,0.000
1737551870.504,-1.953,-15.625,-19.531,-139.160,0.000
1737551870.508,-6.348,-19.531,-17.578,239.258,0.000
1737551870.512,-2.930,-34.668,-14.160,173.340,0.000
1737551870.516,-11.230,-30.762,-18.555,36.621,0.000
1737551870.520,-4.395,-26.367,-25.391,-231.934,0.000
1737551870.524,11.230,-26.367,-26.855,-250.977,0.000
1737551870.528,0.977,-9.766,-23.926,132.812,0.000
1737551870.532,20.020,-6.836,-16.602,138.672,0.000
1737551870.536,16.602,-12.695,-12.207,-0.977,0.000
1737551870.540,-53.223,-14.160,-13.184,-270.020,0.000
1737551870.543,-89.355,-20.020,-10.742,-333.984,0.000
1737551870.547,-69.824,-22.949,-12.695,55.664,0.000
1737551870.551,-42.480,-24.902,-21.484,102.539,0.000
1737551870.555,-30.762,-24.414,-26.367,-50.781,0.000
1737551870.559,-42.480,-24.902,-20.996,-301.270,0.000
1737551870.563,-42.480,-27.832,-15.137,-406.738,0.000
1737551870.567,-22.949,-25.879,-14.648,6.348,0.000
1737551870.571,-9.766,-18.555,-13.672,134.766,0.000
1737551870.575,-5.859,-19.043,-15.625,-12.207,0.000
1737551870.579,1.953,-20.508,-20.508,-212.891,0.000
1737551870.583,-4.395,-16.113,-15.625,-355.957,0.000
1737551870.586,-6.836,-13.672,-6.348,-39.551,0.000
1737551870.590,-12.207,-14.648,-11.230,66.406,0.000
1737551870.594,-21.973,-12.207,-13.184,-58.105,0.000
1737551870.598,-17.090,-7.324,-9.277,-208.496,0.000
1737551870.602,-7.812,-16.602,-16.602,-461.426,0.000
1737551870.606,15.137,-26.855,-15.137,-171.387,0.000
1737551870.610,0.000,-30.762,-18.066,77.148,0.000
1737551870.614,-18.066,-36.621,-15.625,-34.668,0.000
1737551870.618,-13.672,-27.344,-15.137,-185.059,0.000
1737551870.622,-18.066,-15.137,-23.926,-396.973,0.000
1737551870.626,-1.953,-7.812,-13.672,-134.277,0.000
1737551870.629,-16.602,-2.930,-3.906,149.902,0.000
1737551870.633,-41.504,-22.949,-9.766,17.090,0.000
1737551870.637,-42.969,-26.367,-16.113,-146.973,0.000
1737551870.641,-45.410,-18.066,-17.090,-384.766,0.000
1737551870.645,-24.414,-33.203,-21.973,-173.340,0.000
1737551870.649,-19.531,-28.809,-23.926,197.754,0.000
1737551870.653,-22.949,-14.160,-18.555,148.438,0.000
1737551870.657,-5.371,-16.602,-9.766,-1.465,0.000
1737551870.661,-11.719,-23.926,-10.742,-259.277,0.000
1737551870.665,-49.316,-14.648,-21.484,-147.461,0.000
1737551870.668,-65.918,-11.230,-17.090,214.355,0.000
1737551870.672,-47.363,-24.902,-19.531,164.551,0.000
1737551870.676,-19.531,-27.832,-23.926,5.371,0.000
1737551870.680,-15.625,-27.832,-6.836,-265.137,0.000
1737551870.684,-9.766,-21.973,-9.766,-231.445,0.000
1737551870.688,-20.996,-19.043,-13.184,168.457,0.000
1737551870.692,-29.297,-29.297,-3.418,160.156,0.000
1737551870.696,-19.043,-23.926,-14.160,5.371,0.000
1737551870.700,-15.625,-21.484,-16.113,-239.258,0.000
1737551870.704,-16.113,-28.809,-18.555,-270.020,0.000
1737551870.708,-15.137,-18.555,-30.762,92.773,0.000
1737551870.711,-20.996,-10.254,-22.461,151.855,0.000
1737551870.715,-21.484,-17.090,-15.137,-14.160,0.000
1737551870.719,-1.953,-5.859,-14.160,-249.023,0.000
1737551870.723,-2.441,-3.418,-22.461,-309.570,0.000
1737551870.727,-2.441,-21.484,-21.484,23.438,0.000
1737551870.731,-11.719,-28.809,-10.742,63.477,0.000
1737551870.735,-28.320,-34.180,-17.090,-49.805,0.000
1737551870.739,-39.062,-36.621,-18.066,-240.234,0.000
1737551870.743,-39.551,-27.344,-10.254,-423.828,0.000
1737551870.747,-10.254,-19.531,-7.324,-47.852,0.000
1737551870.750,-16.113,-19.531,-13.672,101.074,0.000
1737551870.754,-32.715,-24.902,-23.438,-84.961,0.000
1737551870.758,-17.090,-28.809,-17.090,-241.699,0.000
1737551870.762,-32.227,-24.902,-14.648,-423.828,0.000
1737551870.766,-39.062,-18.555,-15.625,-124.023,0.000
1737551870.770,-25.391,-17.578,-17.578,149.902,0.000
1737551870.774,-37.598,-18.066,-24.902,24.414,0.000
1737551870.778,-20.508,-23.438,-21.973,-165.039,0.000
1737551870.782,-11.230,-25.391,-27.832,-441.406,0.000
1737551870.786,-30.273,-16.113,-32.715,-189.453,0.000
1737551870.790,-4.883,-14.160,-20.020,108.398,0.000
1737551870.793,7.324,-21.484,-15.625,-8.301,0.000
1737551870.797,-20.020,-29.785,-12.695,-143.066,0.000
1737551870.801,-40.527,-28.320,-13.184,-434.570,0.000
1737551870.805,-37.598,-17.578,-24.902,-240.234,0.000
1737551870.809,-20.020,-16.602,-18.066,106.934,0.000
1737551870.813,-35.156,-23.926,-2.441,44.922,0.000
1737551870.817,-27.344,-9.766,-12.695,-55.664,0.000
1737551870.821,-17.578,-8.789,-21.973,-312.012,0.000
1737551870.825,-22.949,-23.926,-18.066,-185.547,0.000
1737551870.829,-17.090,-28.809,-20.020,139.160,0.000
1737551870.833,-1.465,-25.391,-19.043,89.844,0.000
1737551870.836,-6.348,-27.344,-16.113,-54.688,0.000
1737551870.840,-22.949,-29.785,-5.371,-319.336,0.000
1737551870.844,-0.977,-28.320,-1.465,-245.117,0.000
1737551870.848,8.301,-28.320,-5.859,111.816,0.000
1737551870.852,-6.348,-25.879,-4.395,96.191,0.000
1737551870.856,-7.324,-14.648,-3.418,-4.883,0.000
1737551870.860,-1.465,-6.348,-9.766,-272.461,0.000
1737551870.864,0.977,-9.277,-16.113,-304.199,0.000
1737551870.868,15.137,-6.836,-14.160,109.863,0.000
1737551870.872,18.555,-16.602,-16.113,93.750,0.000
1737551870.875,-8.301,-29.297,-18.555,-75.195,0.000
1737551870.879,-22.949,-14.160,-14.160,-251.953,0.000
1737551870.883,-8.789,-3.418,-13.672,-275.391,0.000
1737551870.887,-13.672,-7.812,-10.742,62.988,0.000
1737551870.891,-24.902,-15.625,-0.977,124.512,0.000
1737551870.895,5.371,-15.137,-10.742,16.602,0.000
1737551870.899,13.672,-15.137,-25.391,-187.988,0.000
1737551870.903,-4.883,-33.203,-21.973,-316.895,0.000
1737551870.907,-15.625,-18.066,-1.465,69.336,0.000
1737551870.911,-20.020,5.859,1.953,231.934,0.000
1737551870.915,-6.836,-6.836,-19.043,28.809,0.000
1737551870.918,-8.789,-20.508,-16.602,-208.984,0.000
1737551870.922,-25.391,-17.090,-14.648,-385.742,0.000
1737551870.926,-26.855,-12.207,-26.855,-60.059,0.000
1737551870.930,-12.695,-3.418,-22.461,165.039,0.000
1737551870.934,8.789,-0.488,-16.113,-32.227,0.000
1737551870.938,-0.488,-9.766,-19.043,-188.965,0.000
1737551870.942,-30.273,-10.742,-25.391,-350.586,0.000
1737551870.946,-25.879,-13.184,-14.160,-126.953,0.000
1737551870.950,-8.789,-18.066,9.766,127.930,0.000
1737551870.954,-15.137,-12.207,-5.371,0.977,0.000
1737551870.958,-16.602,-9.277,-24.414,-144.531,0.000
1737551870.961,-7.324,-4.883,-24.414,-401.855,0.000
1737551870.965,-9.277,2.441,-19.531,-194.336,0.000
1737551870.969,-7.812,-2.930,-12.695,140.137,0.000
1737551870.973,0.488,-19.043,-18.066,37.598,0.000
1737551870.977,-4.883,-16.602,-21.484,-129.395,0.000
1737551870.981,-26.367,-10.742,-16.113,-385.742,0.000
1737551870.985,-21.484,-7.324,-11.230,-233.887,0.000
1737551870.989,-2.930,-9.277,-15.625,142.090,0.000
1737551870.993,-14.160,-24.902,-20.508,111.816,0.000
1737551870.997,-20.996,-16.113,-25.879,-47.363,0.000
1737551871.000,-25.391,-3.906,-27.832,-343.262,0.000
1737551871.004,-33.203,-13.184,-21.973,-286.133,0.000
1737551871.008,-53.223,-14.160,-17.578,76.172,0.000
1737551871.012,-51.758,-15.625,-19.531,-5.371,0.000
1737551871.016,-40.039,-22.949,-24.902,-141.602,0.000
1737551871.020,-38.574,-27.832,-40.527,-423.340,0.000
1737551871.024,-33.203,-20.508,-40.039,-395.508,0.000
1737551871.028,-15.137,-18.066,-19.043,86.426,0.000
1737551871.032,7.324,-20.020,-12.695,85.938,0.000
1737551871.036,7.812,-20.508,-21.484,-76.660,0.000
1737551871.040,-17.578,-13.184,-23.926,-294.434,0.000
1737551871.043,-18.066,-13.672,-27.344,-386.719,0.000
1737551871.047,-16.602,-15.625,-32.227,26.855,0.000
1737551871.051,-3.418,-16.602,-29.297,119.629,0.000
1737551871.055,-6.836,-16.602,-30.273,-72.266,0.000
1737551871.059,-43.945,-13.672,-21.484,-309.570,0.000
1737551871.063,-28.320,-16.602,-22.949,-396.484,0.000
1737551871.067,-2.441,-18.555,-38.086,2.441,0.000
1737551871.071,-20.020,-19.043,-29.297,126.953,0.000
1737551871.075,-36.133,-23.926,-26.367,-6.348,0.000
1737551871.079,-43.457,-20.020,-30.273,-203.613,0.000
1737551871.083,-66.406,-6.348,-20.996,-342.773,0.000
1737551871.086,-49.805,-18.066,-21.973,-34.668,0.000
1737551871.090,-22.461,-24.902,-23.926,145.508,0.000
1737551871.094,-24.902,-6.348,-15.137,63.965,0.000
1737551871.098,-19.043,6.348,-22.461,-100.098,0.000
1737551871.102,-31.250,-2.441,-33.203,-342.773,0.000
1737551871.106,-42.480,-11.230,-30.273,-67.383,0.000
1737551871.110,-26.855,-1.465,-26.855,196.777,0.000
1737551871.114,-13.184,-5.859,-19.531,50.781,0.000
1737551871.118,-20.996,-18.555,-14.648,-163.574,0.000
1737551871.122,-21.973,-12.207,-13.184,-389.160,0.000
1737551871.125,-13.672,-7.324,-13.184,-152.344,0.000
1737551871.129,-4.883,-1.953,-15.137,144.531,0.000
1737551871.133,-9.766,-11.719,-20.020,70.801,0.000
1737551871.137,-28.320,-24.902,-25.391,-102.051,0.000
1737551871.141,-32.227,-12.695,-27.832,-371.582,0.000
1737551871.145,-41.992,-0.488,-28.320,-138.672,0.000
1737551871.149,-24.902,-6.836,-31.738,208.496,0.000
1737551871.153,-0.977,-19.043,-38.574,78.125,0.000
1737551871.157,-3.906,-11.719,-27.832,-51.270,0.000
1737551871.161,-14.160,-4.883,-14.648,-301.758,0.000
1737551871.165,-16.602,-6.348,-10.254,-212.402,0.000
1737551871.168,1.953,2.441,-7.324,221.191,0.000
1737551871.172,8.301,-1.953,-16.602,148.926,0.000
1737551871.176,-11.230,-13.672,-30.762,-63.965,0.000
1737551871.180,-29.785,-18.066,-25.391,-317.383,0.000
1737551871.184,-13.672,-24.902,-12.207,-272.461,0.000
1737551871.188,0.000,-28.809,-10.742,81.055,0.000
1737551871.192,-35.156,-17.090,-22.949,83.496,0.000
1737551871.196,-42.480,-15.137,-27.344,-37.598,0.000
1737551871.200,-31.738,-23.438,-23.926,-310.547,0.000
1737551871.204,-47.363,-13.672,-12.695,-305.664,0.000
1737551871.207,-40.527,-6.348,-9.766,119.141,0.000
1737551871.211,-19.043,-6.348,-13.672,190.430,0.000
1737551871.215,-19.043,-2.441,-6.836,38.574,0.000
1737551871.219,-26.367,-4.883,-9.277,-263.672,0.000
1737551871.223,-13.672,-12.207,-15.625,-371.094,0.000
1737551871.227,-21.973,-17.090,-19.531,50.781,0.000
1737551871.231,-47.852,-24.414,-22.949,102.539,0.000
1737551871.235,-43.457,-28.809,-25.879,-53.223,0.000
1737551871.239,-21.484,-21.484,-35.156,-200.195,0.000
1737551871.243,-20.996,-6.836,-41.016,-425.293,0.000
1737551871.247,-22.461,-7.324,-19.531,-98.145,0.000
1737551871.250,-20.020,-13.184,-6.836,116.699,0.000
1737551871.254,-36.621,-7.812,-19.043,-25.879,0.000
1737551871.258,-42.480,-5.371,-12.207,-178.223,0.000
1737551871.262,-40.527,-16.113,-5.371,-348.145,0.000
1737551871.266,-48.828,-17.578,-10.742,-82.031,0.000
1737551871.270,-24.414,-13.184,-13.672,134.766,0.000
1737551871.274,-2.930,-21.973,-24.902,30.273,0.000
1737551871.278,-25.879,-26.367,-30.762,-169.922,0.000
1737551871.282,-29.785,-19.531,-27.832,-418.457,0.000
1737551871.286,-12.207,-19.043,-25.391,-161.621,0.000
1737551871.290,-8.789,-24.902,-18.066,84.961,0.000
1737551871.293,-19.043,-18.066,-18.555,-33.691,0.000
1737551871.297,-20.996,-16.602,-23.438,-172.852,0.000
1737551871.301,-24.414,-23.926,-24.414,-440.918,0.000
1737551871.305,-21.973,-35.645,-21.484,-246.094,0.000
1737551871.309,-16.113,-25.879,-24.902,98.633,0.000
1737551871.313,-21.973,-8.301,-32.715,-7.324,0.000
1737551871.317,-29.297,-17.090,-25.391,-150.879,0.000
1737551871.321,-20.996,-26.367,-17.090,-358.398,0.000
1737551871.325,-11.719,-26.367,-14.160,-237.305,0.000
1737551871.329,-17.578,-35.645,-23.438,109.375,0.000
1737551871.332,-17.090,-26.367,-35.645,96.191,0.000
1737551871.336,-17.578,-8.789,-26.367,-98.633,0.000
1737551871.340,-17.090,-12.695,-22.949,-369.141,0.000
1737551871.344,-17.578,-15.137,-20.020,-277.344,0.000
1737551871.348,-26.855,-20.020,-23.438,38.574,0.000
1737551871.352,-30.762,-29.785,-29.785,6.348,0.000
1737551871.356,-29.785,-24.414,-24.902,-110.840,0.000
1737551871.360,-14.160,-22.461,-23.926,-307.617,0.000
1737551871.364,-10.742,-23.438,-28.320,-306.152,0.000
1737551871.368,-7.324,-13.672,-16.602,68.848,0.000
1737551871.372,-16.113,-4.395,-6.836,82.520,0.000
1737551871.375,-18.066,-7.324,-11.719,-123.535,0.000
1737551871.379,-0.488,-7.812,-7.324,-329.102,0.000
1737551871.383,-2.930,-9.766,-9.766,-401.367,0.000
1737551871.387,-11.719,-10.742,-18.066,-71.289,0.000
1737551871.391,-16.602,-8.789,-19.531,28.809,0.000
1737551871.395,-14.648,-23.438,-21.973,-102.051,0.000
1737551871.399,-13.672,-42.480,-26.855,-262.695,0.000
1737551871.403,-24.414,-31.250,-26.367,-421.387,0.000
1737551871.407,-6.836,-15.625,-21.973,-116.211,0.000
1737551871.411,1.465,-12.695,-21.973,64.453,0.000
1737551871.415,-9.766,-9.277,-15.137,-52.246,0.000
1737551871.418,-20.996,-8.789,-15.137,-239.746,0.000
1737551871.422,-34.180,-19.043,-22.461,-446.777,0.000
1737551871.426,-31.250,-16.113,-20.996,-109.863,0.000
1737551871.430,-15.137,-10.742,-19.531,145.020,0.000
1737551871.434,-21.484,-14.160,-21.973,41.016,0.000
1737551871.438,-33.203,-20.020,-17.090,-141.602,0.000
1737551871.442,-25.879,-21.973,-7.324,-394.043,0.000
1737551871.446,-28.809,-19.043,-4.883,-95.215,0.000
1737551871.450,-40.527,-13.184,-8.789,189.941,0.000
1737551871.454,-43.457,-13.672,-12.695,84.961,0.000
1737551871.457,-28.320,-30.273,-20.020,-73.242,0.000
1737551871.461,-22.461,-26.855,-38.574,-349.121,0.000
1737551871.465,-11.719,-12.695,-37.598,-135.742,0.000
1737551871.469,6.348,-2.930,-9.277,207.520,0.000
1737551871.473,-18.066,-4.883,-5.371,123.535,0.000
1737551871.477,-36.621,-11.230,-16.113,-29.297,0.000
1737551871.481,-41.992,-19.043,-20.508,-318.848,0.000
1737551871.485,-38.574,-26.367,-14.648,-195.801,0.000
1737551871.489,-35.156,-29.297,-8.789,157.715,0.000
1737551871.493,-36.133,-25.879,-10.254,74.219,0.000
1737551871.497,-34.668,-20.508,-11.719,-73.242,0.000
1737551871.500,-31.250,-14.648,-23.438,-332.520,0.000
1737551871.504,-35.156,-1.953,-35.156,-283.691,0.000
1737551871.508,-28.809,-7.812,-34.180,104.980,0.000
1737551871.512,-16.113,-22.461,-18.066,85.449,0.000
1737551871.516,-31.738,-15.625,-15.625,-114.258,0.000
1737551871.520,-37.598,-9.277,-20.020,-341.797,0.000
1737551871.524,-38.086,-21.484,-20.508,-328.125,0.000
1737551871.528,-41.016,-29.297,-16.113,24.414,0.000
1737551871.532,-2.441,-27.832,-19.043,87.891,0.000
1737551871.536,24.902,-22.461,-24.414,-43.945,0.000
1737551871.539,-4.395,-15.625,-13.184,-286.621,0.000
1737551871.543,-24.414,-20.020,-9.277,-329.590,0.000
1737551871.547,-23.926,-15.625,-22.949,79.590,0.000
1737551871.551,-20.020,-4.395,-27.832,189.453,0.000
1737551871.555,-17.090,-11.230,-5.859,-6.836,0.000
1737551871.559,-26.367,-22.949,-0.488,-264.648,0.000
1737551871.563,-45.898,-23.438,-10.254,-346.680,0.000
1737551871.567,-48.340,-14.648,-12.695,76.172,0.000
1737551871.571,-27.344,-11.230,-15.137,175.293,0.000
1737551871.575,-5.859,-6.348,-22.461,-21.484,0.000
1737551871.579,-18.555,-6.348,-26.367,-250.488,0.000
1737551871.582,-26.855,-15.625,-16.113,-391.602,0.000
1737551871.586,-24.902,-17.578,-10.254,-27.344,0.000
1737551871.590,-28.320,-10.254,-19.043,97.656,0.000
1737551871.594,-26.367,-19.531,-27.344,-42.480,0.000
1737551871.598,-26.367,-29.785,-25.879,-189.941,0.000
1737551871.602,-29.785,-21.973,-21.484,-389.160,0.000
1737551871.606,-17.090,-21.973,-8.301,-95.215,0.000
1737551871.610,-10.742,-29.785,-6.836,142.578,0.000
1737551871.614,-4.395,-23.438,-19.043,73.730,0.000
1737551871.618,-13.184,-18.555,-14.160,-96.680,0.000
1737551871.622,-43.457,-22.461,-14.160,-408.691,0.000
1737551871.625,-34.668,-17.090,-18.555,-158.691,0.000
1737551871.629,-23.926,-13.184,-19.043,169.434,0.000
1737551871.633,-19.531,-22.949,-21.973,31.250,0.000
1737551871.637,-0.977,-36.621,-20.996,-140.137,0.000
1737551871.641,-18.066,-29.785,-15.625,-343.262,0.000
1737551871.645,-23.438,-20.020,-10.742,-165.527,0.000
1737551871.649,-20.508,-19.531,-14.648,116.699,0.000
1737551871.653,-19.531,-13.184,-9.766,37.109,0.000
1737551871.657,-4.395,-17.578,-0.488,-97.656,0.000
1737551871.661,-16.113,-24.414,-6.836,-350.586,0.000
1737551871.664,-9.766,-19.043,-15.137,-263.184,0.000
1737551871.668,19.531,-13.184,-19.531,92.773,0.000
1737551871.672,-10.742,-18.555,-14.648,46.875,0.000
1737551871.676,-28.320,-27.344,-15.137,-115.723,0.000
1737551871.680,-24.414,-33.691,-25.879,-383.301,0.000
1737551871.684,-39.062,-26.367,-21.973,-324.707,0.000
1737551871.688,-47.363,-7.324,-4.395,90.820,0.000
1737551871.692,-45.410,-1.953,-9.766,69.824,0.000
1737551871.696,-36.133,-4.883,-23.926,-72.754,0.000
1737551871.700,-33.691,-16.602,-25.391,-347.168,0.000
1737551871.704,-41.016,-17.090,-26.855,-361.328,0.000
1737551871.707,-22.461,-1.953,-29.785,106.445,0.000
1737551871.711,-2.441,-18.555,-30.762,104.980,0.000
1737551871.715,7.324,-38.086,-25.391,-83.008,0.000
1737551871.719,-3.418,-19.531,-12.695,-253.418,0.000
1737551871.723,-18.066,-4.883,-16.113,-375.488,0.000
1737551871.727,-6.348,-10.742,-15.137,-29.785,0.000
1737551871.731,1.953,-12.207,-10.254,71.777,0.000
1737551871.735,0.977,-8.301,-15.625,-66.895,0.000
1737551871.739,-1.465,-8.789,-17.578,-231.934,0.000
1737551871.743,-8.301,-18.555,-17.578,-374.023,0.000
1737551871.747,-15.625,-23.926,-13.672,-45.410,0.000
1737551871.750,-27.832,-28.320,-22.949,130.859,0.000
1737551871.754,-39.551,-24.414,-27.344,26.855,0.000
1737551871.758,-33.203,-19.531,-9.277,-182.617,0.000
1737551871.762,-10.254,-24.414,-8.789,-417.969,0.000
1737551871.766,-2.441,-14.160,-12.207,-89.355,0.000
1737551871.770,-8.301,-1.465,-6.348,137.207,0.000
1737551871.774,-15.137,-4.395,-2.441,-13.672,0.000
1737551871.778,-18.066,-20.996,-12.695,-132.324,0.000
1737551871.782,-20.996,-22.949,-25.391,-315.430,0.000
1737551871.786,-9.766,-21.484,-28.320,-93.750,0.000
1737551871.789,14.648,-40.039,-29.785,134.277,0.000
1737551871.793,-20.508,-34.180,-23.438,-42.480,0.000
1737551871.797,-63.965,-12.207,-15.625,-142.090,0.000
1737551871.801,-69.824,-16.113,-10.742,-350.586,0.000
1737551871.805,-83.496,-23.926,-3.906,-200.684,0.000
1737551871.809,-92.773,-18.066,0.977,92.285,0.000
1737551871.813,-99.121,-25.879,-12.207,-20.508,0.000
1737551871.817,-95.215,-20.996,-15.625,-146.973,0.000
1737551871.821,-106.445,-18.066,-22.461,-391.602,0.000
1737551871.825,-97.656,-22.949,-28.320,-230.957,0.000
1737551871.829,-64.941,-20.020,-16.113,127.441,0.000
1737551871.832,-52.246,-36.621,-16.113,34.668,0.000
1737551871.836,-55.176,-31.250,-21.973,-106.934,0.000
1737551871.840,-59.082,-15.137,-13.672,-338.867,0.000
1737551871.844,-51.758,-15.625,-5.859,-271.973,0.000
1737551871.848,-47.852,-18.555,-5.371,104.980,0.000
1737551871.852,-36.621,-20.508,-11.230,87.891,0.000
1737551871.856,-27.832,-23.926,-26.367,-83.984,0.000
1737551871.860,-31.738,-23.926,-32.715,-347.656,0.000
1737551871.864,-26.367,-28.809,-26.367,-343.750,0.000
1737551871.868,-33.203,-22.949,-14.648,77.637,0.000
1737551871.872,-40.039,-9.277,-18.555,91.309,0.000
1737551871.875,-24.902,-9.277,-33.691,-57.129,0.000
1737551871.879,-24.902,-15.137,-26.855,-250.488,0.000
1737551871.883,-32.715,-9.277,-9.277,-361.816,0.000
1737551871.887,-39.062,-12.207,-8.301,2.930,0.000
1737551871.891,-47.852,-12.695,-12.207,105.957,0.000
1737551871.895,-51.270,-6.348,-16.602,-29.785,0.000
1737551871.899,-34.668,-13.184,-24.414,-217.773,0.000
1737551871.903,-24.902,-26.367,-33.691,-375.488,0.000
1737551871.907,-26.367,-24.902,-38.574,-35.156,0.000
1737551871.911,-8.789,-16.113,-12.695,166.016,0.000
1737551871.914,11.230,-18.066,-12.695,27.832,0.000
1737551871.918,4.883,-19.043,-43.457,-208.008,0.000
1737551871.922,-3.906,-4.395,-28.320,-393.555,0.000
1737551871.926,-3.906,-0.488,-2.930,-54.199,0.000
1737551871.930,9.277,-8.789,-2.441,162.598,0.000
1737551871.934,25.391,-8.789,-5.859,7.812,0.000
1737551871.938,22.949,-11.719,-10.742,-157.227,0.000
1737551871.942,15.625,-15.137,-14.648,-338.867,0.000
1737551871.946,26.855,-7.812,-14.160,-88.867,0.000
1737551871.950,22.949,-12.207,-16.602,141.113,0.000
1737551871.954,-2.441,-19.531,-23.438,34.180,0.000
1737551871.957,-0.488,-15.137,-23.438,-87.402,0.000
1737551871.961,2.441,-18.066,-24.902,-368.164,0.000
1737551871.965,-5.859,-3.906,-18.555,-143.555,0.000
1737551871.969,-2.441,8.789,-7.324,217.773,0.000
1737551871.973,-17.090,-6.348,-4.883,87.402,0.000
1737551871.977,-9.766,-22.461,-3.418,-100.586,0.000
1737551871.981,-0.977,-33.691,-11.719,-393.066,0.000
1737551871.985,-14.160,-32.227,-19.531,-220.215,0.000
1737551871.989,-19.043,-24.414,-18.555,163.574,0.000
1737551871.993,-27.344,-15.625,-9.766,71.289,0.000
1737551871.996,-26.367,-12.207,-5.859,-102.051,0.000
1737551872.000,-20.996,-16.113,-15.137,-311.035,0.000
1737551872.004,-25.391,-13.184,-25.391,-180.664,0.000
1737551872.008,-13.184,-18.555,-20.020,157.715,0.000
1737551872.012,18.066,-18.555,-6.348,105.469,0.000
1737551872.016,5.371,-11.230,-6.836,-30.273,0.000
1737551872.020,2.441,-11.230,-22.461,-302.734,0.000
1737551872.024,-18.555,-25.391,-26.367,-331.543,0.000
1737551872.028,-39.062,-27.344,-8.789,63.965,0.000
1737551872.032,-11.230,-9.277,-0.488,124.512,0.000
1737551872.036,16.113,0.488,-7.812,-11.719,0.000
1737551872.039,21.973,-4.883,-18.555,-273.438,0.000
1737551872.043,-18.066,-16.602,-22.461,-336.426,0.000
1737551872.047,-36.133,-17.578,-28.809,67.871,0.000
1737551872.051,-22.949,-12.695,-25.879,173.828,0.000
1737551872.055,-19.531,-11.230,-16.113,38.574,0.000
1737551872.059,-9.766,-19.043,-15.625,-186.035,0.000
1737551872.063,-6.836,-26.367,-19.043,-327.148,0.000
1737551872.067,-18.555,-22.461,-19.531,-2.930,0.000
1737551872.071,-9.277,-20.508,-9.766,183.594,0.000
1737551872.075,-11.230,-25.879,-16.602,10.254,0.000
1737551872.079,-21.484,-20.020,-22.949,-226.562,0.000
1737551872.082,-13.672,-14.160,-14.648,-319.824,0.000
1737551872.086,-10.254,-15.137,-15.137,-19.043,0.000
1737551872.090,-29.297,-11.230,-19.043,129.395,0.000
1737551872.094,-41.504,-18.066,-28.809,2.441,0.000
1737551872.098,-37.598,-19.531,-25.879,-180.176,0.000
1737551872.102,-36.621,-22.461,-25.879,-383.789,0.000
1737551872.106,-3.418,-24.414,-34.180,-74.219,0.000
1737551872.110,7.324,-24.902,-25.391,189.941,0.000
1737551872.114,-11.230,-27.832,-13.672,63.477,0.000
1737551872.118,-12.695,-31.250,-9.766,-125.000,0.000
1737551872.121,-15.625,-27.832,-11.719,-382.324,0.000
1737551872.125,-7.324,-20.996,-17.090,-125.488,0.000
1737551872.129,2.441,-23.926,-16.602,246.094,0.000
1737551872.133,-22.949,-20.020,-10.254,118.164,0.000
1737551872.137,-39.551,-9.766,-16.602,-104.492,0.000
1737551872.141,-25.391,-4.883,-15.625,-334.961,0.000
1737551872.145,-5.859,-0.488,-21.973,-182.617,0.000
1737551872.149,0.488,-6.836,-21.973,150.391,0.000
1737551872.153,-10.254,-22.461,-15.137,103.516,0.000
1737551872.157,-24.414,-33.691,-18.066,-104.004,0.000
1737551872.161,-23.926,-31.250,-14.648,-351.074,0.000
1737551872.164,-12.695,-37.109,-15.137,-218.750,0.000
1737551872.168,-5.859,-34.180,-24.902,167.480,0.000
1737551872.172,-5.859,-11.719,-19.531,147.461,0.000
1737551872.176,-19.043,-3.418,-14.648,6.836,0.000
1737551872.180,-11.719,-3.906,-16.602,-291.016,0.000
1737551872.184,-17.578,-12.207,-22.461,-306.152,0.000
1737551872.188,-38.086,-22.461,-24.414,106.934,0.000
1737551872.192,-31.250,-22.461,-18.555,119.629,0.000
1737551872.196,-34.180,-23.438,-16.602,-31.250,0.000
1737551872.200,-30.762,-31.250,-21.973,-269.043,0.000
1737551872.204,-41.992,-30.273,-20.508,-338.379,0.000
1737551872.207,-48.340,-20.996,-18.066,22.461,0.000
1737551872.211,-37.109,-17.090,-19.531,91.797,0.000
1737551872.215,-38.574,-28.320,-18.555,0.977,0.000
1737551872.219,-29.297,-26.855,-15.137,-219.238,0.000
1737551872.223,-11.719,-9.766,-22.949,-319.336,0.000
1737551872.227,-30.273,-9.766,-28.809,63.965,0.000
1737551872.231,-35.156,-25.391,-21.484,145.020,0.000
1737551872.235,-28.809,-27.344,-16.602,-1.465,0.000
1737551872.239,-29.785,-21.484,-32.227,-206.543,0.000
1737551872.243,-8.789,-23.926,-31.738,-378.418,0.000
1737551872.246,-0.977,-23.926,-7.812,1.953,0.000
1737551872.250,-6.348,-22.949,-5.371,204.590,0.000
1737551872.254,23.438,-23.438,-12.207,72.266,0.000
1737551872.258,1.953,-23.926,-12.207,-150.391,0.000
1737551872.262,-43.945,-11.719,-19.531,-376.465,0.000
1737551872.266,-19.043,-9.766,-16.113,-58.105,0.000
1737551872.270,-12.207,-12.207,-12.695,171.875,0.000
1737551872.274,-7.812,-9.766,-17.090,82.031,0.000
1737551872.278,5.859,-16.602,-22.949,-101.074,0.000
1737551872.282,-19.043,-19.531,-28.809,-401.855,0.000
1737551872.286,-52.734,-14.160,-28.809,-155.762,0.000
1737551872.289,-39.551,-8.789,-7.812,193.359,0.000
1737551872.293,-20.508,-11.230,0.977,100.586,0.000
1737551872.297,-20.996,-10.742,-10.254,-74.707,0.000
1737551872.301,-34.180,-19.043,-11.230,-347.656,0.000
1737551872.305,-31.738,-25.879,-5.859,-132.324,0.000
1737551872.309,-11.719,-11.719,-0.977,207.520,0.000
1737551872.313,-5.859,-7.324,-5.371,55.176,0.000
1737551872.317,-4.395,-8.789,-9.277,-65.430,0.000
1737551872.321,-21.973,-9.766,-16.602,-340.820,0.000
1737551872.325,-27.344,-22.949,-22.461,-288.574,0.000
1737551872.329,-16.602,-23.926,-18.066,115.234,0.000
1737551872.332,-17.090,-19.043,-24.414,84.473,0.000
1737551872.336,-20.996,-20.996,-33.203,-95.703,0.000
1737551872.340,-14.648,-27.344,-23.926,-331.543,0.000
1737551872.344,-5.371,-26.855,-6.836,-252.441,0.000
1737551872.348,18.066,-10.742,-2.930,145.508,0.000
1737551872.352,-12.695,1.465,-6.836,115.723,0.000
1737551872.356,-41.992,-1.465,-7.812,-66.406,0.000
1737551872.360,-23.926,-2.930,-6.348,-302.734,0.000
1737551872.364,-24.414,2.441,-8.789,-282.715,0.000
1737551872.368,-27.344,-5.371,-16.113,62.988,0.000
1737551872.371,-50.781,-9.277,-14.648,64.941,0.000
1737551872.375,-59.570,-12.207,-13.672,-76.660,0.000
1737551872.379,-50.781,-9.277,-5.371,-319.824,0.000
1737551872.383,-58.594,6.836,2.441,-430.176,0.000
1737551872.387,-93.262,8.301,-2.930,-80.566,0.000
1737551872.391,-131.348,0.000,-0.977,0.977,0.000
1737551872.395,-137.207,1.465,4.883,-138.184,0.000
1737551872.399,-150.879,6.836,1.953,-349.121,0.000
1737551872.403,-181.641,5.859,-0.488,-528.809,0.000
1737551872.407,-197.754,1.465,5.371,-166.016,0.000
1737551872.411,-205.078,8.789,4.883,-5.859,0.000
1737551872.414,-187.012,4.883,0.000,-159.180,0.000
1737551872.418,-165.039,-3.418,-2.930,-406.250,0.000
1737551872.422,-216.309,5.371,-5.859,-640.137,0.000
1737551872.426,-233.887,22.461,-18.555,-308.105,0.000
1737551872.430,-232.422,23.926,-21.973,-91.797,0.000
1737551872.434,-261.719,6.836,-13.672,-293.945,0.000
1737551872.438,-274.902,9.766,-18.555,-418.945,0.000
1737551872.442,-260.254,10.742,-15.137,-609.375,0.000
1737551872.446,-220.215,-5.859,2.441,-342.285,0.000
1737551872.450,-222.656,-6.836,8.789,-0.488,0.000
1737551872.453,-224.121,11.230,1.953,-85.449,0.000
1737551872.457,-186.523,19.531,-3.418,-198.242,0.000
1737551872.461,-173.828,12.695,-9.277,-457.031,0.000
1737551872.465,-140.625,0.977,-12.695,-222.168,0.000
1737551872.469,-108.398,-4.883,-11.230,187.500,0.000
1737551872.473,-107.910,-18.066,-17.090,106.934,0.000
1737551872.477,-87.402,-35.645,-22.949,-69.824,0.000
1737551872.481,-65.918,-35.156,-19.043,-320.801,0.000
1737551872.485,-42.969,-18.066,-10.254,-154.297,0.000
1737551872.489,-40.039,-19.531,-10.254,183.105,0.000
1737551872.493,-23.438,-28.320,-13.184,101.074,0.000
1737551872.496,21.973,-27.344,-23.926,-68.359,0.000
1737551872.500,41.016,-26.855,-36.621,-267.090,0.000
1737551872.504,58.594,-25.879,-27.832,-123.047,0.000
1737551872.508,48.340,-30.273,-24.414,209.473,0.000
1737551872.512,25.879,-34.668,-22.461,190.918,0.000
1737551872.516,42.480,-26.855,-10.742,135.742,0.000
1737551872.520,53.223,-34.668,-14.160,-120.605,0.000
1737551872.524,65.918,-36.621,-28.320,-176.270,0.000
1737551872.528,83.008,-20.996,-37.109,235.840,0.000
1737551872.532,70.312,-21.973,-31.738,241.211,0.000
1737551872.536,62.988,-30.762,-35.156,50.293,0.000
1737551872.539,66.895,-40.039,-47.363,-194.336,0.000
1737551872.543,74.219,-37.598,-34.180,-259.766,0.000
1737551872.547,68.848,-25.879,-11.719,178.223,0.000
1737551872.551,80.566,-20.020,-10.742,286.133,0.000
1737551872.555,84.961,-18.555,-15.625,60.059,0.000
1737551872.559,61.035,-20.996,-22.461,-197.754,0.000
1737551872.563,62.012,-23.926,-24.902,-302.734,0.000
1737551872.567,75.684,-33.203,-17.578,70.312,0.000
1737551872.571,78.125,-29.297,-29.297,196.289,0.000
1737551872.575,72.266,-21.484,-34.668,65.918,0.000
1737551872.578,40.039,-24.902,-19.043,-131.836,0.000
1737551872.582,27.832,-27.832,-16.113,-359.375,0.000
1737551872.586,49.316,-24.902,-22.461,-43.945,0.000
1737551872.590,52.246,-23.438,-24.414,176.758,0.000
1737551872.594,40.039,-21.484,-21.973,87.402,0.000
1737551872.598,45.410,-19.531,-23.926,-76.660,0.000
1737551872.602,66.406,-19.043,-33.203,-299.316,0.000
1737551872.606,70.801,-34.180,-39.062,-59.082,0.000
1737551872.610,71.777,-31.250,-23.926,137.207,0.000
1737551872.614,66.406,-19.531,-19.531,40.039,0.000
1737551872.618,16.113,-25.879,-28.320,-90.332,0.000
1737551872.621,20.996,-24.414,-30.273,-298.340,0.000
1737551872.625,69.824,-17.578,-21.973,-54.199,0.000
1737551872.629,48.340,-17.090,-19.043,207.520,0.000
1737551872.633,27.832,-23.926,-20.508,125.977,0.000
1737551872.637,57.617,-20.508,-24.414,-4.395,0.000
1737551872.641,52.734,-17.090,-25.391,-252.441,0.000
1737551872.645,36.621,-19.531,-19.531,-91.309,0.000
1737551872.649,30.273,-30.762,-20.508,210.938,0.000
1737551872.653,13.184,-32.715,-32.715,82.031,0.000
1737551872.657,-15.625,-32.715,-37.598,-14.160,0.000
1737551872.661,-40.527,-29.297,-31.250,-221.680,0.000
1737551872.664,-22.949,-17.578,-22.949,-134.277,0.000
1737551872.668,5.371,-7.324,-19.531,239.258,0.000
1737551872.672,16.113,-4.883,-24.414,187.012,0.000
1737551872.676,13.672,-13.672,-28.809,67.871,0.000
1737551872.680,5.371,-20.020,-31.250,-171.387,0.000
1737551872.684,7.812,-15.137,-25.879,-181.641,0.000
1737551872.688,11.230,-15.625,-15.137,203.613,0.000
1737551872.692,3.906,-22.949,-15.625,247.559,0.000
1737551872.696,20.508,-20.508,-13.184,107.422,0.000
1737551872.700,31.250,-18.555,-15.137,-173.828,0.000
1737551872.703,18.066,-26.367,-18.066,-225.586,0.000
1737551872.707,4.883,-30.762,-12.207,179.688,0.000
1737551872.711,20.020,-15.137,-20.020,215.332,0.000
1737551872.715,32.227,-1.953,-20.508,106.934,0.000
1737551872.719,14.648,-21.973,-17.578,-126.465,0.000
1737551872.723,3.418,-33.691,-31.250,-319.336,0.000
1737551872.727,14.648,-21.484,-26.855,114.258,0.000
1737551872.731,36.133,-12.695,-10.742,300.781,0.000
1737551872.735,41.992,-13.184,-8.301,172.852,0.000
1737551872.739,29.785,-16.113,-8.789,-42.480,0.000
1737551872.743,10.742,-19.043,-13.672,-266.602,0.000
1737551872.746,16.113,-12.695,-14.648,35.156,0.000
1737551872.750,41.016,-13.184,-12.207,242.188,0.000
1737551872.754,10.742,-21.973,-11.719,109.863,0.000
1737551872.758,10.254,-17.578,-20.996,-98.145,0.000
1737551872.762,-13.184,-16.602,-20.508,-332.520,0.000
1737551872.766,-44.922,-26.367,-15.137,-30.762,0.000
1737551872.770,-10.254,-18.066,-18.066,251.465,0.000
1737551872.774,6.836,-12.695,-17.578,159.180,0.000
1737551872.778,-1.953,-18.555,-17.090,-8.789,0.000
1737551872.782,16.602,-19.531,-18.555,-217.773,0.000
1737551872.785,27.832,-20.508,-24.414,50.293,0.000
1737551872.789,-10.742,-20.020,-24.414,279.297,0.000
1737551872.793,-7.812,-16.602,-17.090,162.598,0.000
1737551872.797,6.348,-13.672,-25.879,33.203,0.000
1737551872.801,-0.488,-17.090,-21.484,-233.887,0.000
1737551872.805,11.230,-25.879,-13.672,-87.891,0.000
1737551872.809,7.812,-20.020,-17.578,266.602,0.000
1737551872.813,5.371,-4.395,-18.555,180.176,0.000
1737551872.817,6.348,-3.418,-15.625,11.230,0.000
1737551872.821,5.371,-14.648,-10.742,-250.977,0.000
1737551872.825,-41.992,-23.438,-9.277,-181.641,0.000
1737551872.828,-50.781,-21.973,-18.066,177.246,0.000
1737551872.832,-35.156,-20.508,-21.484,132.812,0.000
1737551872.836,-49.316,-25.391,-14.160,-41.504,0.000
1737551872.840,-66.406,-23.438,-18.555,-349.121,0.000
1737551872.844,-95.703,-22.461,-31.738,-335.449,0.000
1737551872.848,-91.309,-20.508,-26.855,77.148,0.000
1737551872.852,-81.055,-13.184,-17.578,64.941,0.000
1737551872.856,-94.238,-18.066,-26.855,-133.301,0.000
1737551872.860,-89.844,-23.926,-34.180,-426.270,0.000
1737551872.864,-55.664,-18.555,-34.180,-471.680,0.000
1737551872.868,-30.273,-15.137,-24.414,-60.547,0.000
1737551872.871,-29.297,-14.160,-18.066,-78.613,0.000
1737551872.875,-29.297,-10.742,-16.602,-257.812,0.000
1737551872.879,-32.227,-13.672,-13.672,-417.480,0.000
1737551872.883,-36.133,-15.137,-13.184,-499.512,0.000
1737551872.887,-41.016,-8.301,-20.508,-159.668,0.000
1737551872.891,-45.898,-27.832,-18.555,-76.660,0.000
1737551872.895,-22.949,-35.156,-20.508,-209.473,0.000
1737551872.899,1.953,-15.625,-27.832,-388.184,0.000
1737551872.903,-2.930,-11.230,-25.391,-526.367,0.000
1737551872.907,-34.180,-13.184,-17.578,-241.699,0.000
1737551872.910,-17.090,-5.371,-17.578,-104.980,0.000
1737551872.914,2.441,-2.930,-26.855,-253.906,0.000
1737551872.918,-8.789,-16.602,-17.090,-502.930,0.000
1737551872.922,-8.301,-23.438,-12.207,-693.848,0.000
1737551872.926,-9.277,-11.719,-27.344,-346.680,0.000
1737551872.930,3.906,-6.836,-31.738,-167.480,0.000
1737551872.934,20.996,-10.742,-22.461,-306.641,0.000
1737551872.938,-5.859,-16.113,-9.277,-440.918,0.000
1737551872.942,-48.828,-20.996,-6.836,-626.953,0.000
1737551872.946,-38.086,-20.996,-6.836,-345.215,0.000
1737551872.950,-18.066,-22.949,-5.371,-126.953,0.000
1737551872.953,-20.508,-25.391,-4.883,-264.648,0.000
1737551872.957,-6.836,-18.555,-9.277,-407.227,0.000
1737551872.961,18.066,-4.883,-16.602,-587.891,0.000
1737551872.965,6.836,-2.930,-23.926,-441.895,0.000
1737551872.969,2.930,-4.395,-12.207,-177.734,0.000
1737551872.973,8.301,-10.742,-4.883,-197.266,0.000
1737551872.977,16.113,-9.766,-18.066,-391.113,0.000
1737551872.981,20.508,-4.883,-20.020,-708.496,0.000
1737551872.985,17.090,-8.301,4.395,-544.922,0.000
1737551872.989,13.184,-10.254,8.789,-162.598,0.000
1737551872.993,3.418,-11.230,-5.371,-189.941,0.000
1737551872.996,17.090,-14.160,-13.672,-285.645,0.000
1737551873.000,5.371,-12.207,-18.066,-520.020,0.000
1737551873.004,0.000,-14.160,-20.996,-469.238,0.000
1737551873.008,9.277,-20.020,-19.043,-117.188,0.000
1737551873.012,-10.742,-19.531,-17.578,-175.781,0.000
1737551873.016,-24.902,-16.602,-19.043,-349.121,0.000
1737551873.020,-23.926,-27.832,-23.438,-607.422,0.000
1737551873.024,-25.879,-37.109,-32.227,-615.723,0.000
1737551873.028,-17.090,-20.508,-28.320,-221.680,0.000
1737551873.032,-19.043,-14.160,-10.254,-185.059,0.000
1737551873.035,-23.438,-20.996,-5.859,-286.133,0.000
1737551873.039,-37.598,-20.508,-11.230,-502.441,0.000
1737551873.043,-23.438,-22.949,-16.602,-601.562,0.000
1737551873.047,-18.066,-20.508,-20.996,-212.891,0.000
1737551873.051,-26.367,-11.230,-28.809,-93.262,0.000
1737551873.055,-32.715,-15.137,-22.949,-230.469,0.000
1737551873.059,-56.641,-22.949,-8.301,-443.848,0.000
1737551873.063,-51.270,-22.949,-12.695,-566.406,0.000
1737551873.067,-50.293,-15.137,-18.066,-160.156,0.000
1737551873.071,-50.781,-14.160,-28.320,-81.055,0.000
1737551873.075,-46.387,-28.809,-28.809,-267.090,0.000
1737551873.078,-45.410,-29.785,-20.996,-369.141,0.000
1737551873.082,-28.320,-20.996,-23.438,-492.188,0.000
1737551873.086,2.930,-20.508,-25.391,-252.930,0.000
1737551873.090,14.160,-17.090,-27.832,-80.566,0.000
1737551873.094,-20.020,-23.926,-26.855,-140.625,0.000
1737551873.098,-37.109,-29.785,-25.391,-286.133,0.000
1737551873.102,-26.855,-16.113,-17.578,-502.441,0.000
1737551873.106,-20.996,-6.348,-12.695,-266.602,0.000
1737551873.110,-32.227,-17.578,-14.160,-9.277,0.000
1737551873.114,-21.484,-23.926,-15.137,-38.574,0.000
1737551873.118,-16.602,-20.508,-24.902,-162.109,0.000
1737551873.121,-35.645,-19.043,-29.785,-440.430,0.000
1737551873.125,-46.387,-23.438,-21.484,-293.457,0.000
1737551873.129,-11.719,-28.809,-7.812,39.551,0.000
1737551873.133,-3.418,-25.391,-6.836,0.000,0.000
1737551873.137,-33.203,-23.926,-17.578,-162.598,0.000
1737551873.141,-21.973,-30.762,-20.508,-426.270,0.000
1737551873.145,-25.391,-28.320,-14.648,-268.066,0.000
1737551873.149,-35.645,-23.438,-10.742,110.352,0.000
1737551873.153,-22.949,-27.832,-16.113,54.688,0.000
1737551873.157,1.465,-19.531,-24.414,-61.523,0.000
1737551873.160,2.930,-13.672,-20.996,-252.441,0.000
1737551873.164,12.207,-20.508,-20.508,-224.609,0.000
1737551873.168,-26.855,-24.902,-20.508,141.602,0.000
1737551873.172,-48.828,-33.691,-10.742,200.195,0.000
1737551873.176,-2.441,-32.715,-11.719,66.406,0.000
1737551873.180,-37.598,-36.621,-18.066,-247.559,0.000
1737551873.184,-77.637,-34.180,-19.043,-243.652,0.000
1737551873.188,-79.590,-19.531,-22.949,204.102,0.000
1737551873.192,-47.852,-18.066,-21.973,205.566,0.000
1737551873.196,-16.602,-18.066,-16.113,83.008,0.000
1737551873.200,0.000,-17.090,-17.090,-69.336,0.000
1737551873.203,-13.672,-18.555,-16.113,-139.648,0.000
1737551873.207,-27.832,-15.625,-11.230,249.512,0.000
1737551873.211,-16.113,-20.020,-13.672,312.500,0.000
1737551873.215,-11.230,-22.949,-16.602,132.812,0.000
1737551873.219,-9.766,-18.066,-8.789,-59.082,0.000
1737551873.223,-14.648,-18.555,-9.766,-184.570,0.000
1737551873.227,3.906,-20.020,-19.043,158.691,0.000
1737551873.231,28.320,-8.789,-11.719,312.500,0.000
1737551873.235,20.508,-2.930,-2.441,156.250,0.000
1737551873.239,5.371,-18.066,-8.301,-89.844,0.000
1737551873.242,-1.465,-23.438,-19.043,-256.348,0.000
1737551873.246,-18.066,-13.184,-20.020,113.770,0.000
1737551873.250,-9.277,-11.230,-10.742,311.523,0.000
1737551873.254,-3.906,-15.137,-17.578,176.270,0.000
1737551873.258,-9.277,-17.090,-17.090,-39.062,0.000
1737551873.262,-22.461,-20.508,-8.301,-300.293,0.000
1737551873.266,-23.438,-20.508,-12.207,-28.809,0.000
1737551873.270,7.324,-10.254,-16.602,237.793,0.000
