timestamps,TP9,AF7,AF8,TP10,Right AUX
1737562796.991,-1000.000,-19.043,-24.902,-1000.000,0.000
1737562796.995,-1000.000,-20.020,-24.414,-1000.000,0.000
1737562796.999,-1000.000,-28.809,-20.508,-1000.000,0.000
1737562797.003,-1000.000,-26.855,-25.391,-1000.000,0.000
1737562797.007,-1000.000,-10.254,-45.898,-1000.000,0.000
1737562797.010,-1000.000,-9.277,-44.922,-1000.000,0.000
1737562797.014,-1000.000,-21.484,-20.508,-1000.000,0.000
1737562797.018,-1000.000,-26.367,-23.926,-1000.000,0.000
1737562797.022,-1000.000,-25.879,-27.832,-1000.000,0.000
1737562797.026,-1000.000,-10.254,-28.320,-1000.000,0.000
1737562797.030,-1000.000,-6.348,-36.621,-1000.000,0.000
1737562797.034,-1000.000,-18.066,-28.809,-1000.000,0.000
1737562797.038,-1000.000,-16.113,-11.230,-1000.000,0.000
1737562797.042,-1000.000,-20.996,-8.301,-1000.000,0.000
1737562797.046,-1000.000,-18.555,-8.301,-1000.000,0.000
1737562797.050,-1000.000,-17.578,-13.672,-1000.000,0.000
1737562797.053,-1000.000,-17.090,-26.855,-1000.000,0.000
1737562797.057,-1000.000,-15.625,-29.297,-1000.000,0.000
1737562797.061,-1000.000,-16.602,-27.344,-1000.000,0.000
1737562797.065,-1000.000,-18.066,-26.855,-1000.000,0.000
1737562797.069,-1000.000,-24.414,-27.832,-1000.000,0.000
1737562797.073,-1000.000,-26.367,-26.367,-1000.000,0.000
1737562797.077,-987.305,-19.043,-18.066,-1000.000,0.000
1737562797.081,-1000.000,-21.973,-23.438,-1000.000,0.000
1737562797.085,-841.309,-20.020,-40.527,-1000.000,0.000
1737562797.089,-492.188,-16.602,-40.527,-1000.000,0.000
1737562797.093,-395.996,-22.461,-31.250,-1000.000,0.000
1737562797.096,-163.086,-15.625,-28.809,-1000.000,0.000
1737562797.100,47.363,-13.184,-32.227,-1000.000,0.000
1737562797.104,102.051,-16.113,-34.180,-1000.000,0.000
1737562797.108,223.633,-18.066,-29.297,-1000.000,0.000
1737562797.112,144.531,-15.625,-25.391,-1000.000,0.000
1737562797.116,-23.926,-23.438,-31.738,-1000.000,0.000
1737562797.120,-156.250,-26.367,-31.250,-1000.000,0.000
1737562797.124,-250.000,-19.531,-31.250,-1000.000,0.000
1737562797.128,-331.543,-25.879,-35.645,-1000.000,0.000
1737562797.132,-520.020,-26.855,-39.062,-1000.000,0.000
1737562797.136,-684.082,-24.414,-31.250,-1000.000,0.000
1737562797.139,-780.273,-28.809,-31.250,-1000.000,0.000
1737562797.143,-842.773,-21.484,-44.434,-1000.000,0.000
1737562797.147,-889.648,-13.184,-48.340,-1000.000,0.000
1737562797.151,-969.727,-7.324,-40.039,-1000.000,0.000
1737562797.155,-1000.000,-6.836,-31.738,-1000.000,0.000
1737562797.159,-997.070,-11.719,-31.250,-1000.000,0.000
1737562797.163,-1000.000,-12.695,-31.738,-1000.000,0.000
1737562797.167,-1000.000,-11.719,-44.922,-1000.000,0.000
1737562797.171,-1000.000,-12.695,-41.992,-1000.000,0.000
1737562797.174,-992.676,-17.578,-30.762,-1000.000,0.000
1737562797.179,-1000.000,-13.672,-34.180,-1000.000,0.000
1737562797.182,-898.438,-6.836,-24.902,-1000.000,0.000
1737562797.186,-693.848,-7.812,-20.508,-1000.000,0.000
1737562797.190,-793.457,-15.625,-21.973,-1000.000,0.000
1737562797.194,-835.449,-19.531,-22.461,-1000.000,0.000
1737562797.198,-793.457,-18.555,-28.320,-1000.000,0.000
1737562797.202,-895.020,-18.066,-32.227,-1000.000,0.000
1737562797.206,-941.895,-15.625,-31.738,-1000.000,0.000
1737562797.210,-984.375,-22.949,-29.297,-1000.000,0.000
1737562797.214,-1000.000,-21.484,-29.785,-1000.000,0.000
1737562797.217,-999.023,-18.066,-24.902,-1000.000,0.000
1737562797.221,-1000.000,-17.090,-25.391,-1000.000,0.000
1737562797.225,0.000,-13.672,-31.738,-1000.000,0.000
1737562797.229,0.000,-19.043,-32.715,-1000.000,0.000
1737562797.233,0.000,-26.855,-29.785,-1000.000,0.000
1737562797.237,0.000,-23.438,-29.785,-1000.000,0.000
1737562797.241,0.000,-16.113,-34.180,-1000.000,0.000
1737562797.245,0.000,-15.137,-31.738,-1000.000,0.000
1737562797.249,0.000,-21.973,-33.203,-1000.000,0.000
1737562797.253,0.000,-27.344,-30.273,-1000.000,0.000
1737562797.257,0.000,-20.996,-29.785,-1000.000,0.000
1737562797.260,0.000,-19.043,-31.250,-1000.000,0.000
1737562797.264,0.000,-26.855,-25.391,-1000.000,0.000
1737562797.268,0.000,-19.043,-28.809,-1000.000,0.000
1737562797.272,-1000.000,-15.625,-30.273,-1000.000,0.000
1737562797.276,-1000.000,-16.602,-31.738,-1000.000,0.000
1737562797.280,-1000.000,-14.160,-28.809,-1000.000,0.000
1737562797.284,-1000.000,-16.602,-25.879,-1000.000,0.000
1737562797.288,-1000.000,-15.625,-24.902,-1000.000,0.000
1737562797.292,-1000.000,-15.137,-27.344,-1000.000,0.000
1737562797.296,-1000.000,-11.230,-28.320,-1000.000,0.000
1737562797.300,-1000.000,-12.695,-23.438,-1000.000,0.000
1737562797.303,-1000.000,-16.113,-30.762,-1000.000,0.000
1737562797.307,-1000.000,-18.066,-36.621,-1000.000,0.000
1737562797.311,-1000.000,-17.578,-32.227,-1000.000,0.000
1737562797.315,-1000.000,-21.973,-33.203,-1000.000,0.000
1737562797.319,-1000.000,-22.461,-31.250,-1000.000,0.000
1737562797.323,-1000.000,-19.531,-32.227,-1000.000,0.000
1737562797.327,-1000.000,-24.414,-31.250,-1000.000,0.000
1737562797.331,-1000.000,-23.438,-31.250,-1000.000,0.000
1737562797.335,-1000.000,-20.508,-39.551,-1000.000,0.000
1737562797.339,-1000.000,-32.715,-41.504,-1000.000,0.000
1737562797.343,-1000.000,-31.738,-41.016,-1000.000,0.000
1737562797.346,-1000.000,-15.137,-38.574,-1000.000,0.000
1737562797.350,-1000.000,-12.695,-39.551,-1000.000,0.000
1737562797.354,-1000.000,-20.508,-39.062,-1000.000,0.000
1737562797.358,-1000.000,-22.949,-36.621,-1000.000,0.000
1737562797.362,-1000.000,-23.926,-38.574,-1000.000,0.000
1737562797.366,-1000.000,-27.832,-38.086,-1000.000,0.000
1737562797.370,-1000.000,-27.832,-37.109,-1000.000,0.000
1737562797.374,-1000.000,-26.367,-37.109,-1000.000,0.000
1737562797.378,-1000.000,-28.809,-40.039,-1000.000,0.000
1737562797.382,-1000.000,-32.715,-41.016,-1000.000,0.000
1737562797.386,-1000.000,-28.809,-34.180,-1000.000,0.000
1737562797.389,-1000.000,-28.809,-30.273,-1000.000,0.000
1737562797.393,-1000.000,-27.832,-28.320,-1000.000,0.000
1737562797.397,-1000.000,-22.461,-30.762,-1000.000,0.000
1737562797.401,-1000.000,-20.020,-33.203,-1000.000,0.000
1737562797.405,-1000.000,-19.531,-31.738,-1000.000,0.000
1737562797.409,-1000.000,-13.184,-31.738,-1000.000,0.000
1737562797.413,-1000.000,-13.672,-30.762,-1000.000,0.000
1737562797.417,-1000.000,-18.555,-31.250,-1000.000,0.000
1737562797.421,-1000.000,-12.695,-30.762,-1000.000,0.000
1737562797.425,-1000.000,-13.184,-23.438,-1000.000,0.000
1737562797.429,-1000.000,-17.578,-16.602,-1000.000,0.000
1737562797.432,-1000.000,-19.043,-16.113,-1000.000,0.000
1737562797.436,-1000.000,-18.555,-21.973,-1000.000,0.000
1737562797.440,-1000.000,-27.344,-27.344,-1000.000,0.000
1737562797.444,-1000.000,-30.762,-33.203,-1000.000,0.000
1737562797.448,-1000.000,-17.090,-36.133,-1000.000,0.000
1737562797.452,-1000.000,-13.672,-37.109,-1000.000,0.000
1737562797.456,-1000.000,-23.926,-37.598,-1000.000,0.000
1737562797.460,-1000.000,-26.855,0.000,-1000.000,0.000
1737562797.464,-1000.000,-16.113,0.000,-1000.000,0.000
1737562797.468,-1000.000,-5.371,0.000,-1000.000,0.000
1737562797.472,-1000.000,-9.277,0.000,-1000.000,0.000
1737562797.475,-1000.000,-18.066,0.000,-1000.000,0.000
1737562797.479,-1000.000,-7.324,0.000,-1000.000,0.000
1737562797.483,-1000.000,-12.207,0.000,-1000.000,0.000
1737562797.487,-1000.000,-20.996,0.000,-1000.000,0.000
1737562797.491,-1000.000,-16.113,0.000,-1000.000,0.000
1737562797.495,-1000.000,-22.461,0.000,-1000.000,0.000
1737562797.499,-1000.000,-20.508,0.000,-1000.000,0.000
1737562797.503,-1000.000,-15.137,0.000,-993.164,0.000
1737562797.507,-1000.000,-21.973,-26.855,-1000.000,0.000
1737562797.511,-1000.000,-23.926,-23.926,-915.039,0.000
1737562797.515,-1000.000,-17.090,-21.484,-598.145,0.000
1737562797.518,-1000.000,-14.648,-20.508,-308.594,0.000
1737562797.522,-1000.000,-16.602,-29.785,-197.754,0.000
1737562797.526,-1000.000,-21.973,-30.273,-44.434,0.000
1737562797.530,-1000.000,-24.902,-32.715,123.535,0.000
1737562797.534,-1000.000,-25.879,-29.297,222.656,0.000
1737562797.538,-1000.000,-20.996,-30.273,373.047,0.000
1737562797.542,-1000.000,-20.996,-37.109,504.395,0.000
1737562797.546,-1000.000,-26.855,-29.785,600.098,0.000
1737562797.550,-1000.000,-35.156,-29.785,656.738,0.000
1737562797.554,0.000,-20.508,-31.738,697.754,0.000
1737562797.557,0.000,-7.324,-29.297,823.242,0.000
1737562797.561,0.000,-18.066,-31.250,917.969,0.000
1737562797.565,0.000,-16.602,-35.645,900.879,0.000
1737562797.569,0.000,-16.602,-30.273,792.480,0.000
1737562797.573,0.000,-19.531,-25.391,775.391,0.000
1737562797.577,0.000,-15.625,-30.273,833.008,0.000
1737562797.581,0.000,-20.996,-25.879,844.727,0.000
1737562797.585,0.000,-22.461,-26.367,848.633,0.000
1737562797.589,0.000,-22.461,-30.273,865.234,0.000
1737562797.592,0.000,-25.879,-35.156,825.684,0.000
1737562797.596,0.000,-25.391,-40.527,831.543,0.000
1737562797.600,-1000.000,-18.555,-30.273,912.109,0.000
1737562797.604,-1000.000,-20.508,-24.902,815.430,0.000
1737562797.608,-1000.000,-28.320,-30.762,639.648,0.000
1737562797.612,-1000.000,-21.973,-31.738,613.281,0.000
1737562797.616,-1000.000,-12.695,-29.297,675.781,0.000
1737562797.620,-1000.000,-12.207,-30.273,655.273,0.000
1737562797.624,-1000.000,-17.090,-32.227,490.234,0.000
1737562797.628,-1000.000,-20.508,-24.902,378.418,0.000
1737562797.632,-1000.000,-19.043,-24.414,276.855,0.000
1737562797.635,-1000.000,-18.555,-28.320,195.312,0.000
1737562797.639,-1000.000,-20.020,-24.414,203.613,0.000
1737562797.643,-1000.000,-18.066,-19.043,137.207,0.000
1737562797.647,-1000.000,-26.367,-25.391,-65.430,0.000
1737562797.651,-1000.000,-30.762,-26.367,-153.320,0.000
1737562797.655,-1000.000,-27.344,-19.043,-51.758,0.000
1737562797.659,-1000.000,-27.832,-19.531,-37.598,0.000
1737562797.663,-1000.000,-26.367,-22.461,-177.246,0.000
1737562797.667,-1000.000,-23.926,-30.273,-327.148,0.000
1737562797.671,-1000.000,-20.508,-23.926,-396.484,0.000
1737562797.675,-1000.000,-21.484,-17.578,-393.555,0.000
1737562797.678,-1000.000,-19.531,-23.438,-367.676,0.000
1737562797.682,-1000.000,-22.461,-28.809,-428.711,0.000
1737562797.686,-1000.000,-26.855,-27.832,-540.039,0.000
1737562797.690,-1000.000,-23.926,-30.762,-639.648,0.000
1737562797.694,-1000.000,-22.461,-37.598,-620.605,0.000
1737562797.698,-1000.000,-24.414,-36.133,-434.082,0.000
1737562797.702,-1000.000,-19.043,-39.062,-300.781,0.000
1737562797.706,-1000.000,-18.555,-40.527,-318.359,0.000
1737562797.710,-1000.000,-21.484,-29.297,-308.594,0.000
1737562797.714,-1000.000,-14.160,-23.438,-159.180,0.000
1737562797.718,-1000.000,-11.230,-33.203,-159.180,0.000
1737562797.721,-1000.000,-14.648,-37.598,-311.035,0.000
1737562797.725,-1000.000,-19.531,-43.457,-445.801,0.000
1737562797.729,-1000.000,-23.438,-47.363,-576.172,0.000
1737562797.733,-1000.000,-26.855,-43.945,-599.609,0.000
1737562797.737,-1000.000,-26.855,-44.434,-486.816,0.000
1737562797.741,-1000.000,-19.531,-33.203,-313.477,0.000
1737562797.745,-1000.000,-23.926,-30.762,-202.637,0.000
1737562797.749,-1000.000,-29.785,-35.156,-163.574,0.000
1737562797.753,-1000.000,-25.879,-33.203,-142.578,0.000
1737562797.757,-1000.000,-15.137,-22.461,34.180,0.000
1737562797.761,-1000.000,-5.371,-11.719,189.453,0.000
1737562797.764,-1000.000,-5.859,-3.906,143.066,0.000
1737562797.768,-1000.000,-17.578,-5.859,39.551,0.000
1737562797.772,-1000.000,-24.902,-13.184,4.883,0.000
1737562797.776,-1000.000,-26.855,-16.602,106.934,0.000
1737562797.780,-991.699,-23.926,-16.602,182.129,0.000
1737562797.784,-983.887,-27.344,-14.160,152.832,0.000
1737562797.788,-856.445,-27.344,-14.648,124.512,0.000
1737562797.792,-640.137,-21.973,-20.508,165.039,0.000
1737562797.796,-340.332,-20.508,-20.020,220.703,0.000
1737562797.800,-308.105,-23.438,-29.785,161.621,0.000
1737562797.804,-547.852,-27.344,-54.199,70.312,0.000
1737562797.808,-554.688,-27.344,-38.574,27.832,0.000
1737562797.811,-391.602,-22.461,-5.859,20.020,0.000
1737562797.815,-236.328,-20.508,-7.324,24.902,0.000
1737562797.819,-175.781,-21.484,-14.648,30.762,0.000
1737562797.823,-147.461,-20.996,-10.254,-10.254,0.000
1737562797.827,-92.285,-21.484,-23.438,-40.527,0.000
1737562797.831,-127.930,-15.625,-19.043,-73.242,0.000
1737562797.835,-216.309,-16.602,-10.254,-219.238,0.000
1737562797.839,-14.160,-17.090,-13.184,-190.918,0.000
1737562797.843,71.289,-20.020,-13.184,-165.527,0.000
1737562797.847,-105.957,-32.715,-15.137,-276.855,0.000
1737562797.850,-319.824,-31.738,-12.207,-424.316,0.000
1737562797.854,-345.215,-24.902,-9.277,-511.719,0.000
1737562797.858,-82.520,-18.555,-9.277,-520.996,0.000
1737562797.862,-107.910,-23.926,-21.484,-646.973,0.000
1737562797.866,-549.316,-36.621,-30.762,-901.855,0.000
1737562797.870,-725.586,-30.273,-21.973,-1000.000,0.000
1737562797.874,-665.039,-19.043,-22.949,-994.141,0.000
1737562797.878,-489.746,-20.508,-24.414,-999.512,0.000
1737562797.882,0.000,-20.996,-21.484,-1000.000,0.000
1737562797.886,0.000,-19.043,-20.508,-1000.000,0.000
1737562797.890,0.000,-14.648,-20.508,-1000.000,0.000
1737562797.893,0.000,-11.719,-20.508,-1000.000,0.000
1737562797.897,0.000,-19.043,-25.391,-1000.000,0.000
1737562797.901,0.000,-20.996,-18.555,-1000.000,0.000
1737562797.905,0.000,-17.090,-2.441,-1000.000,0.000
1737562797.909,0.000,-13.672,-2.930,-1000.000,0.000
1737562797.913,0.000,-13.672,-8.789,-1000.000,0.000
1737562797.917,0.000,-10.742,-12.207,-1000.000,0.000
1737562797.921,0.000,-13.184,-19.531,-1000.000,0.000
1737562797.925,0.000,-15.137,-24.414,-1000.000,0.000
1737562797.929,-50.781,-12.695,-18.066,-1000.000,0.000
1737562797.933,29.297,-25.391,-12.207,-1000.000,0.000
1737562797.936,236.328,-31.250,-10.742,-1000.000,0.000
1737562797.940,484.863,-22.461,-12.207,-1000.000,0.000
1737562797.944,510.254,-11.719,-7.324,-1000.000,0.000
1737562797.948,465.820,-9.766,-6.348,-1000.000,0.000
1737562797.952,432.129,-2.441,-17.090,-1000.000,0.000
1737562797.956,474.121,0.488,-15.137,-1000.000,0.000
1737562797.960,626.953,-9.766,-5.859,-1000.000,0.000
1737562797.964,762.207,-12.207,-5.371,-1000.000,0.000
1737562797.968,847.656,-15.137,-0.488,-1000.000,0.000
1737562797.971,849.609,-12.207,-0.488,-1000.000,0.000
1737562797.976,892.090,-9.766,-9.766,-1000.000,0.000
1737562797.979,980.957,-20.020,-10.254,-1000.000,0.000
1737562797.983,967.285,-24.414,-3.418,-1000.000,0.000
1737562797.987,969.727,-13.672,-3.906,-1000.000,0.000
1737562797.991,970.215,-8.301,-3.906,-1000.000,0.000
1737562797.995,970.703,-17.578,-4.395,-1000.000,0.000
1737562797.999,970.215,-18.066,-19.531,-1000.000,0.000
1737562798.003,970.215,-17.578,-21.484,-1000.000,0.000
1737562798.007,970.215,-25.391,-14.160,-1000.000,0.000
1737562798.011,970.215,-19.531,-11.230,-1000.000,0.000
1737562798.014,970.215,-11.230,-18.555,-1000.000,0.000
1737562798.018,970.215,-8.301,-26.855,-1000.000,0.000
1737562798.022,970.215,-12.207,-30.273,-1000.000,0.000
1737562798.026,970.215,-14.160,-33.203,-1000.000,0.000
1737562798.030,970.215,-13.672,-29.297,-1000.000,0.000
1737562798.034,968.750,-13.184,-33.691,-1000.000,0.000
1737562798.038,969.238,-13.184,-31.738,-1000.000,0.000
1737562798.042,969.238,-19.531,-26.367,-1000.000,0.000
1737562798.046,917.480,-19.531,-30.762,-1000.000,0.000
1737562798.050,814.453,-17.578,-39.062,-1000.000,0.000
1737562798.054,807.129,-21.484,-38.574,-1000.000,0.000
1737562798.057,865.234,-24.902,-31.738,-1000.000,0.000
1737562798.061,930.664,-17.090,-30.762,-1000.000,0.000
1737562798.065,958.008,-15.625,-31.738,-1000.000,0.000
1737562798.069,909.668,-22.461,-29.785,-1000.000,0.000
1737562798.073,922.363,-20.996,-20.020,-1000.000,0.000
1737562798.077,963.867,-18.555,-20.996,-1000.000,0.000
1737562798.081,934.082,-20.020,-25.879,-1000.000,0.000
1737562798.085,936.035,-22.461,-21.973,-1000.000,0.000
1737562798.089,970.703,-20.508,-20.020,-1000.000,0.000
1737562798.093,971.191,-17.090,-20.020,-1000.000,0.000
1737562798.097,968.750,-15.625,-24.414,-1000.000,0.000
1737562798.100,969.727,-19.531,-24.414,-1000.000,0.000
1737562798.104,968.750,-19.531,-16.602,-1000.000,0.000
1737562798.108,977.051,-15.625,-11.230,-1000.000,0.000
1737562798.112,926.270,-14.648,-20.996,-1000.000,0.000
1737562798.116,922.363,-12.207,-28.320,-1000.000,0.000
1737562798.120,982.422,-14.648,-16.602,-1000.000,0.000
1737562798.124,935.059,-18.066,-7.812,-1000.000,0.000
1737562798.128,944.336,-17.578,-8.789,-1000.000,0.000
1737562798.132,865.234,-16.602,-19.043,-1000.000,0.000
1737562798.136,769.531,-14.648,-23.438,-1000.000,0.000
1737562798.140,911.621,-18.066,-23.438,-1000.000,0.000
1737562798.143,946.289,-23.438,-30.273,-1000.000,0.000
1737562798.147,873.047,-20.996,-30.762,-1000.000,0.000
1737562798.151,838.379,-15.625,-26.855,-1000.000,0.000
1737562798.155,827.148,-17.090,-23.926,-1000.000,0.000
1737562798.159,828.613,-19.531,-22.949,-1000.000,0.000
1737562798.163,773.926,-18.555,-27.344,-1000.000,0.000
1737562798.167,861.328,-12.207,-22.461,-1000.000,0.000
1737562798.171,960.449,-10.742,-21.973,-1000.000,0.000
1737562798.175,951.660,-10.742,-28.809,-1000.000,0.000
1737562798.179,970.703,-10.742,-26.367,-1000.000,0.000
1737562798.183,968.750,-13.184,-23.438,-1000.000,0.000
1737562798.186,970.215,-17.090,-21.973,-999.512,0.000
1737562798.190,975.586,-22.949,-28.809,-993.652,0.000
1737562798.194,904.297,-24.414,-31.738,-1000.000,0.000
1737562798.198,916.992,-15.625,-24.414,-882.812,0.000
1737562798.202,979.980,-12.695,-17.578,-723.633,0.000
1737562798.206,967.285,-13.672,-10.254,-684.570,0.000
1737562798.210,970.215,-8.789,-10.254,-573.242,0.000
1737562798.214,969.238,-8.789,-10.742,-476.562,0.000
1737562798.218,961.426,-11.230,-2.930,-336.426,0.000
1737562798.222,985.352,-11.719,-0.977,-293.457,0.000
1737562798.226,847.656,-11.719,-6.836,-396.973,0.000
1737562798.229,541.504,-14.160,-11.230,-468.750,0.000
1737562798.233,696.289,-12.207,-16.113,-304.199,0.000
1737562798.237,987.305,-16.602,-20.508,-151.855,0.000
1737562798.241,733.398,-29.297,-33.203,-279.297,0.000
1737562798.245,488.770,-32.227,-38.574,-328.125,0.000
1737562798.249,587.402,-31.738,-34.668,-251.953,0.000
1737562798.253,598.633,-24.902,-33.203,-204.590,0.000
1737562798.257,633.789,-19.043,-32.227,-100.098,0.000
1737562798.261,856.934,-20.996,-30.273,55.176,0.000
1737562798.265,768.555,-22.461,-25.879,48.828,0.000
1737562798.269,639.648,-24.902,-23.926,63.965,0.000
1737562798.272,804.199,-22.461,-18.555,218.262,0.000
1737562798.276,926.758,-19.043,-17.578,311.035,0.000
1737562798.280,999.512,-21.484,-22.949,354.004,0.000
1737562798.284,811.035,-23.438,-25.391,348.145,0.000
1737562798.288,642.090,-17.090,-22.949,374.023,0.000
1737562798.292,561.035,-15.137,-29.297,385.254,0.000
1737562798.296,531.250,-14.160,-30.762,486.816,0.000
1737562798.300,733.887,-14.648,-21.973,587.891,0.000
1737562798.304,511.719,-16.113,-17.090,493.652,0.000
1737562798.308,315.918,-18.066,-15.625,477.051,0.000
1737562798.311,330.078,-19.531,-12.695,502.930,0.000
1737562798.315,548.828,-14.648,-7.812,625.488,0.000
1737562798.319,719.727,-16.113,-18.066,711.426,0.000
1737562798.323,281.250,-18.555,-25.879,561.523,0.000
1737562798.327,89.355,-21.484,-22.949,411.621,0.000
1737562798.331,-147.949,-24.902,-24.414,235.840,0.000
1737562798.335,-55.664,-14.160,-27.344,352.539,0.000
1737562798.339,584.473,-8.789,-21.484,624.512,0.000
1737562798.343,458.496,-18.066,-15.625,493.164,0.000
1737562798.346,-105.957,-20.508,-19.531,279.785,0.000
1737562798.351,-155.273,-17.578,-15.625,325.684,0.000
1737562798.354,135.742,-18.555,-11.719,420.410,0.000
1737562798.358,217.285,-16.113,-14.160,433.594,0.000
1737562798.362,42.969,-10.742,-16.113,354.004,0.000
1737562798.366,-103.516,-8.301,-19.531,272.461,0.000
1737562798.370,-292.480,-16.113,-22.949,191.895,0.000
1737562798.374,-320.312,-19.043,-31.250,197.754,0.000
1737562798.378,58.594,-11.719,-35.156,326.660,0.000
1737562798.382,125.488,-15.137,-25.391,351.074,0.000
1737562798.386,-137.695,-19.043,-16.602,277.832,0.000
1737562798.389,-159.180,-24.414,-18.066,262.695,0.000
1737562798.393,58.594,-24.902,-17.090,342.773,0.000
1737562798.397,0.000,-18.555,-19.531,358.887,0.000
1737562798.401,0.000,-26.855,-18.555,246.094,0.000
1737562798.405,0.000,-28.320,-15.137,107.910,0.000
1737562798.409,0.000,-20.020,-18.066,43.945,0.000
1737562798.413,0.000,-21.484,-23.438,29.297,0.000
1737562798.417,0.000,-21.973,-24.902,195.801,0.000
1737562798.421,0.000,-19.043,-25.391,244.629,0.000
1737562798.425,0.000,-15.625,-25.391,8.789,0.000
1737562798.429,0.000,-16.602,-26.855,-106.934,0.000
1737562798.432,0.000,-21.484,-29.297,-98.633,0.000
1737562798.436,0.000,-18.066,-21.484,120.117,0.000
1737562798.440,0.000,-14.160,-17.578,194.336,0.000
1737562798.444,-114.746,-13.184,-21.973,-59.082,0.000
1737562798.448,-340.820,-6.836,-20.020,-124.023,0.000
1737562798.452,-66.406,-2.441,-14.160,-21.973,0.000
1737562798.456,37.109,-8.301,-20.996,27.832,0.000
1737562798.460,-22.461,-9.766,-18.066,17.578,0.000
1737562798.464,-102.539,-10.254,-21.484,-22.949,0.000
1737562798.468,-67.871,-10.742,-35.645,-55.176,0.000
1737562798.472,-165.527,-11.719,-28.320,-162.109,0.000
1737562798.475,-207.520,-17.578,-26.367,-130.371,0.000
1737562798.479,68.359,-20.508,-31.738,37.598,0.000
1737562798.483,123.047,-20.508,-23.926,34.668,0.000
1737562798.487,-178.711,-14.160,-12.207,-151.855,0.000
1737562798.491,-549.805,-11.719,-8.789,-284.180,0.000
1737562798.495,-310.059,-17.578,-12.695,-144.531,0.000
1737562798.499,175.293,-13.672,-17.578,-6.836,0.000
1737562798.503,4.883,-11.719,-19.043,-44.922,0.000
1737562798.507,-310.059,-15.137,-22.949,-195.801,0.000
1737562798.511,-571.289,-15.625,-23.438,-345.215,0.000
1737562798.515,-458.496,-21.484,-15.625,-244.141,0.000
1737562798.518,8.301,-24.902,-17.578,-93.262,0.000
1737562798.522,-21.484,-18.555,-29.297,-136.719,0.000
1737562798.526,-304.688,-16.113,-28.320,-203.125,0.000
1737562798.530,-375.977,-19.043,-24.414,-216.309,0.000
1737562798.534,-130.859,-20.020,-25.391,-144.531,0.000
1737562798.538,199.219,-12.695,-20.508,-65.918,0.000
1737562798.542,118.652,-7.812,-20.020,-94.238,0.000
1737562798.546,-103.027,-12.207,-20.508,-78.125,0.000
1737562798.550,-176.270,-15.625,-25.391,-121.582,0.000
1737562798.554,-157.715,-9.766,-29.785,-119.629,0.000
1737562798.558,114.258,-5.371,-23.926,14.160,0.000
1737562798.561,83.008,-13.184,-17.090,-3.906,0.000
1737562798.565,-207.031,-19.531,-14.160,-122.559,0.000
1737562798.569,-305.664,-23.438,-19.531,-200.195,0.000
1737562798.573,-145.508,-24.414,-27.832,-170.898,0.000
1737562798.577,99.121,-18.555,-39.062,-120.605,0.000
1737562798.581,129.395,-16.113,-40.527,-97.168,0.000
1737562798.585,-1.953,-20.996,-37.109,-89.844,0.000
1737562798.589,14.648,-21.973,-38.086,-52.734,0.000
1737562798.593,-120.117,-31.250,-42.969,-56.641,0.000
1737562798.597,-209.473,-38.574,-42.969,-90.332,0.000
1737562798.601,187.988,-31.250,-35.156,21.973,0.000
1737562798.604,359.375,-28.320,-31.250,98.145,0.000
1737562798.608,89.844,-30.762,-31.738,31.738,0.000
1737562798.612,-146.973,-27.344,-34.180,-23.438,0.000
1737562798.616,0.977,-23.438,-34.668,62.012,0.000
1737562798.620,277.344,-24.414,-33.691,136.719,0.000
1737562798.624,146.484,-23.438,-38.086,103.516,0.000
1737562798.628,193.848,-22.461,-34.668,156.250,0.000
1737562798.632,319.336,-17.090,-30.273,186.035,0.000
1737562798.636,208.984,-20.508,-26.367,197.266,0.000
1737562798.640,302.734,-20.020,-26.367,259.277,0.000
1737562798.644,218.262,-17.090,-40.039,206.543,0.000
1737562798.647,163.086,-17.578,-42.480,134.277,0.000
1737562798.651,77.148,-16.113,-44.922,67.871,0.000
1737562798.655,50.293,-26.367,-42.480,158.691,0.000
1737562798.659,517.578,-27.832,-22.949,361.328,0.000
1737562798.663,364.258,-19.531,-16.602,260.254,0.000
1737562798.667,-174.316,-22.949,-19.043,122.070,0.000
1737562798.671,-109.375,-24.414,-16.602,177.246,0.000
1737562798.675,259.766,-22.461,-20.020,293.945,0.000
1737562798.679,481.934,-30.762,-24.902,388.184,0.000
1737562798.683,258.789,-34.668,-20.508,310.547,0.000
1737562798.687,-36.133,-21.973,-28.809,210.449,0.000
1737562798.690,-76.172,-19.531,-37.598,227.051,0.000
1737562798.694,72.266,-21.484,-29.297,265.625,0.000
1737562798.698,161.133,-17.578,-20.508,271.484,0.000
1737562798.702,101.074,-22.461,-19.531,210.938,0.000
1737562798.706,61.035,-22.949,-20.508,199.219,0.000
1737562798.710,-73.242,-17.578,-20.996,184.082,0.000
1737562798.714,-68.359,-16.602,-23.926,169.922,0.000
1737562798.718,344.727,-10.254,-19.043,312.012,0.000
1737562798.722,377.441,-9.766,-21.973,296.875,0.000
1737562798.726,-66.406,-15.625,-33.691,100.586,0.000
1737562798.730,-276.367,-20.508,-28.320,10.254,0.000
1737562798.733,-107.422,-21.973,-29.297,74.219,0.000
1737562798.737,263.184,-18.555,-34.668,208.496,0.000
1737562798.741,428.223,-17.090,-31.738,258.301,0.000
1737562798.745,245.605,-17.578,-28.809,187.012,0.000
1737562798.749,-93.262,-15.625,-20.996,69.824,0.000
1737562798.753,43.945,-17.578,-16.602,151.367,0.000
1737562798.757,453.125,-16.602,-8.301,303.711,0.000
1737562798.761,426.758,-10.742,-5.371,317.871,0.000
1737562798.765,109.863,-18.066,-19.531,195.312,0.000
1737562798.768,-134.277,-25.391,-27.344,33.691,0.000
1737562798.773,-9.277,-22.949,-21.484,81.055,0.000
1737562798.776,296.387,-15.137,-20.996,235.840,0.000
1737562798.780,390.137,-11.230,-27.832,205.566,0.000
1737562798.784,-10.742,-12.207,-26.855,40.039,0.000
1737562798.788,-169.434,-16.602,-23.438,8.301,0.000
1737562798.792,-53.223,-18.555,-21.973,26.367,0.000
1737562798.796,76.172,-14.160,-24.414,69.336,0.000
1737562798.800,405.762,-12.695,-23.926,189.941,0.000
1737562798.804,379.395,-14.160,-24.414,143.066,0.000
1737562798.808,273.926,-22.461,-11.719,106.445,0.000
1737562798.811,187.500,-22.949,-5.859,136.230,0.000
1737562798.815,270.508,-11.719,-12.695,159.668,0.000
1737562798.819,459.961,-11.230,-6.836,218.262,0.000
1737562798.823,230.957,-10.742,-3.906,148.926,0.000
1737562798.827,101.074,-14.160,-13.672,76.172,0.000
1737562798.831,194.824,-13.184,-10.254,72.754,0.000
1737562798.835,325.195,-10.254,-7.324,163.086,0.000
1737562798.839,441.895,-11.230,-21.973,291.992,0.000
1737562798.843,261.719,-12.207,-21.973,197.754,0.000
1737562798.847,-43.945,-18.066,-13.184,67.871,0.000
1737562798.851,-117.188,-19.531,-15.625,62.988,0.000
1737562798.854,177.246,-16.113,-20.508,143.066,0.000
1737562798.858,458.496,-14.648,-20.508,219.238,0.000
1737562798.862,231.934,-16.113,-24.902,127.441,0.000
1737562798.866,-17.578,-23.438,-27.344,26.855,0.000
1737562798.870,103.027,-22.949,-22.949,34.668,0.000
1737562798.874,408.203,-16.602,-14.648,135.254,0.000
1737562798.878,684.570,-13.184,-14.648,251.953,0.000
1737562798.882,578.125,-12.207,-22.949,200.195,0.000
1737562798.886,65.918,-12.207,-21.973,-30.273,0.000
1737562798.890,-171.387,-14.648,-16.113,-136.230,0.000
1737562798.894,243.652,-13.672,-10.254,-21.484,0.000
1737562798.897,635.254,-17.578,-12.207,97.168,0.000
1737562798.901,494.629,-16.602,-11.719,80.566,0.000
1737562798.905,264.160,-16.113,-13.672,-1.953,0.000
1737562798.909,124.023,-22.949,-18.555,-67.383,0.000
1737562798.913,145.996,-14.648,0.000,-35.645,0.000
1737562798.917,340.820,-15.137,0.000,44.922,0.000
1737562798.921,349.609,-22.461,0.000,4.395,0.000
1737562798.925,288.086,-19.531,0.000,-39.551,0.000
1737562798.929,300.293,-16.602,0.000,-31.738,0.000
1737562798.933,361.816,-9.766,0.000,-2.930,0.000
1737562798.937,582.031,-5.371,0.000,120.117,0.000
1737562798.940,680.176,-14.160,0.000,204.590,0.000
1737562798.944,395.508,-21.484,0.000,106.934,0.000
1737562798.948,97.168,-17.578,0.000,-29.785,0.000
1737562798.952,21.973,-14.648,0.000,-96.680,0.000
1737562798.956,323.242,-19.043,0.000,24.414,0.000
1737562798.960,677.246,-14.648,-22.461,157.227,0.000
1737562798.964,539.551,-12.695,-18.066,106.934,0.000
1737562798.968,238.281,-14.648,-19.531,28.809,0.000
1737562798.972,80.566,-14.160,-19.043,-20.020,0.000
1737562798.976,68.848,-14.160,-20.996,-44.434,0.000
1737562798.980,100.586,-16.602,-29.297,-57.617,0.000
1737562798.983,49.316,-16.602,-28.320,-109.863,0.000
1737562798.987,52.246,-15.625,-29.297,-144.531,0.000
1737562798.991,75.195,-15.137,-40.039,-113.770,0.000
1737562798.995,306.641,-14.648,-38.086,12.695,0.000
1737562798.999,444.824,-14.648,-25.879,100.586,0.000
1737562799.003,127.930,-20.996,-18.066,6.836,0.000
1737562799.007,25.879,-20.996,-19.531,0.000,0.000
1737562799.011,142.578,-15.625,-17.578,0.000,0.000
1737562799.015,120.117,-16.602,-17.090,0.000,0.000
1737562799.019,181.152,-18.555,-28.320,0.000,0.000
1737562799.023,216.309,-15.625,-28.809,0.000,0.000
1737562799.026,213.379,-5.371,-16.113,0.000,0.000
1737562799.030,88.379,-7.324,-24.414,0.000,0.000
1737562799.034,-15.137,-16.602,-24.414,0.000,0.000
1737562799.038,321.777,-16.113,-20.996,0.000,0.000
1737562799.042,414.551,-12.695,-21.484,0.000,0.000
1737562799.046,157.715,-10.742,-25.391,0.000,0.000
1737562799.050,-13.184,-18.066,-26.367,0.000,0.000
1737562799.054,0.000,-20.508,0.000,-21.973,0.000
1737562799.058,0.000,-20.020,0.000,141.113,0.000
1737562799.062,0.000,-22.461,0.000,169.434,0.000
1737562799.066,0.000,-17.090,0.000,47.363,0.000
1737562799.069,0.000,-16.602,0.000,-71.777,0.000
1737562799.073,0.000,-21.484,0.000,-35.156,0.000
1737562799.077,0.000,-22.461,0.000,43.457,0.000
1737562799.081,0.000,-20.020,0.000,5.859,0.000
1737562799.085,0.000,-13.672,0.000,-41.504,0.000
1737562799.089,0.000,-14.648,0.000,-45.410,0.000
1737562799.093,0.000,-15.137,0.000,22.461,0.000
1737562799.097,0.000,-12.695,0.000,16.602,0.000
1737562799.101,109.375,-16.602,-20.508,-42.480,0.000
1737562799.105,28.320,-16.602,-27.344,-90.820,0.000
1737562799.108,82.520,-14.160,-33.691,-97.656,0.000
1737562799.112,186.035,-16.113,-33.691,-40.039,0.000
1737562799.116,264.160,-20.996,-30.273,22.949,0.000
1737562799.120,392.578,-18.066,-23.926,81.543,0.000
1737562799.124,173.340,-21.484,-19.043,8.789,0.000
1737562799.128,-226.562,-31.250,-15.625,-78.125,0.000
1737562799.132,-212.891,-32.715,-17.090,-41.016,0.000
1737562799.136,119.629,-29.785,-19.531,70.801,0.000
1737562799.140,376.465,-26.367,-21.484,172.852,0.000
1737562799.143,87.402,-23.926,-18.066,56.152,0.000
1737562799.148,-225.586,-19.043,-4.883,-80.566,0.000
1737562799.151,-151.855,-11.719,-3.418,-92.773,0.000
1737562799.155,90.820,-10.254,-2.441,1.953,0.000
1737562799.159,298.340,-15.137,-4.395,108.887,0.000
1737562799.163,180.664,-15.137,-6.836,51.758,0.000
1737562799.167,122.070,-12.695,-6.348,31.738,0.000
1737562799.171,45.410,-13.184,-8.301,14.648,0.000
1737562799.175,75.195,-22.949,-18.555,13.184,0.000
1737562799.179,311.523,-34.180,-25.391,92.285,0.000
1737562799.183,90.820,-25.391,-28.320,-19.531,0.000
1737562799.186,-190.918,-17.578,-28.809,-177.246,0.000
1737562799.190,-117.188,-16.602,-28.320,-167.480,0.000
1737562799.194,157.715,-18.066,-29.297,-30.273,0.000
1737562799.198,356.934,-24.902,-22.949,35.156,0.000
1737562799.202,131.836,-25.391,-20.020,-57.129,0.000
1737562799.206,-43.945,-19.043,-21.973,-145.996,0.000
1737562799.210,-19.043,-20.020,-19.531,-196.777,0.000
1737562799.214,108.398,-27.832,-19.531,-157.227,0.000
1737562799.218,265.137,-23.438,-22.461,-110.840,0.000
1737562799.222,191.406,-13.184,-27.344,-125.000,0.000
1737562799.226,201.660,-5.371,-24.414,-30.273,0.000
1737562799.229,200.195,0.488,-17.578,-31.738,0.000
1737562799.233,-8.301,-10.742,-25.879,-100.586,0.000
1737562799.237,212.402,-16.113,-29.785,15.625,0.000
1737562799.241,0.000,-12.207,-19.043,20.508,0.000
1737562799.245,0.000,-20.996,-16.113,-68.848,0.000
1737562799.249,0.000,-16.602,-16.602,-146.973,0.000
1737562799.253,0.000,-17.578,-19.043,-173.340,0.000
1737562799.257,0.000,-24.902,-22.949,-81.055,0.000
1737562799.261,0.000,-15.137,-22.461,-49.316,0.000
1737562799.265,0.000,-15.137,-24.414,-155.762,0.000
1737562799.269,0.000,-18.555,-17.578,-217.285,0.000
1737562799.272,0.000,-12.207,-12.207,-124.023,0.000
1737562799.276,0.000,-7.812,-15.137,70.312,0.000
1737562799.280,0.000,-13.184,-19.043,29.785,0.000
1737562799.284,0.000,-19.531,-28.320,-134.277,0.000
1737562799.288,-48.828,-18.066,-34.668,-183.105,0.000
1737562799.292,-4.395,-12.207,-28.809,-149.902,0.000
1737562799.296,238.281,-11.230,-20.996,-59.570,0.000
1737562799.300,538.574,-13.672,-14.160,44.434,0.000
1737562799.304,343.262,-13.672,-13.672,-7.812,0.000
1737562799.308,-47.363,-14.648,-20.020,-149.414,0.000
1737562799.312,-66.406,-20.996,-21.484,-164.062,0.000
1737562799.315,-12.695,-25.879,-22.461,-147.461,0.000
1737562799.319,185.547,-15.137,-20.996,-68.848,0.000
1737562799.323,97.656,-8.789,-18.555,-101.562,0.000
1737562799.327,-34.668,-17.578,-26.367,-162.109,0.000
1737562799.331,59.082,-19.531,-30.273,-112.305,0.000
1737562799.335,0.000,-14.648,-12.695,-51.270,0.000
1737562799.339,0.000,-9.766,-1.465,-21.973,0.000
1737562799.343,0.000,-22.461,-11.230,-42.969,0.000
1737562799.347,0.000,-26.367,-19.043,-107.422,0.000
1737562799.351,0.000,-16.602,-23.438,-170.410,0.000
1737562799.355,0.000,-16.113,-19.043,-81.543,0.000
1737562799.358,0.000,-18.066,-21.484,-14.648,0.000
1737562799.362,0.000,-26.855,-24.414,-97.168,0.000
1737562799.366,0.000,-25.879,-21.973,-112.305,0.000
1737562799.370,0.000,-23.438,-20.508,-118.164,0.000
1737562799.374,0.000,-20.020,-22.949,-115.234,0.000
1737562799.378,0.000,-14.648,-29.297,26.367,0.000
1737562799.382,258.789,-12.207,-26.367,12.207,0.000
1737562799.386,-104.980,-7.812,-20.508,-102.539,0.000
1737562799.390,-139.160,-16.113,-22.949,-93.262,0.000
1737562799.394,2.930,-23.438,-23.926,-53.711,0.000
1737562799.397,215.332,-6.348,-18.066,22.461,0.000
1737562799.401,344.238,-2.441,-13.184,78.613,0.000
1737562799.405,104.492,-17.090,-23.926,-30.762,0.000
1737562799.409,-292.969,-20.996,-33.691,-196.777,0.000
1737562799.413,3.418,-13.672,-21.484,-59.082,0.000
1737562799.417,506.836,-10.254,-16.113,80.078,0.000
1737562799.421,319.824,-16.602,-23.438,-20.996,0.000
1737562799.425,115.234,-15.137,-24.902,-34.180,0.000
1737562799.429,77.148,-16.113,-16.113,-41.504,0.000
1737562799.433,32.715,-15.625,-10.254,-62.012,0.000
1737562799.437,277.344,-4.395,-10.254,61.523,0.000
1737562799.440,372.070,-5.859,-12.207,70.801,0.000
1737562799.444,-125.488,-16.602,-16.602,-140.625,0.000
1737562799.448,-149.902,-21.484,-17.578,-154.297,0.000
1737562799.452,157.715,-24.414,-13.184,-58.594,0.000
1737562799.456,120.605,-23.438,-18.555,-41.016,0.000
1737562799.460,56.152,-28.809,-24.902,-27.832,0.000
1737562799.464,-20.508,-27.344,-18.555,-62.500,0.000
1737562799.468,55.664,-20.508,-19.043,-49.805,0.000
1737562799.472,-68.848,-20.508,-29.785,-89.355,0.000
1737562799.476,-89.355,-22.461,0.000,-89.844,0.000
1737562799.480,235.840,-19.043,0.000,10.742,0.000
1737562799.483,-2.441,-19.531,0.000,-119.141,0.000
1737562799.487,-208.008,-18.066,0.000,-223.633,0.000
1737562799.491,-37.598,-11.230,0.000,-197.266,0.000
1737562799.495,184.082,-14.648,0.000,-112.305,0.000
1737562799.499,271.973,-17.090,0.000,-66.895,0.000
1737562799.503,-172.852,-19.531,0.000,-241.699,0.000
1737562799.507,-284.180,-21.484,0.000,-274.902,0.000
1737562799.511,-27.344,-17.090,0.000,-162.109,0.000
1737562799.515,196.777,-15.625,0.000,-50.293,0.000
1737562799.518,299.805,-22.461,0.000,37.109,0.000
1737562799.523,-11.719,-26.367,-28.809,-12.695,0.000
1737562799.526,-213.867,-26.855,-21.484,-130.371,0.000
1737562799.530,-254.883,-18.555,-18.555,-220.703,0.000
1737562799.534,93.750,-4.883,-21.973,-75.684,0.000
1737562799.538,422.363,-6.348,-21.484,37.598,0.000
1737562799.542,-5.859,-12.695,-20.020,-112.793,0.000
1737562799.546,-273.926,-13.672,-23.926,-183.105,0.000
1737562799.550,-247.070,-16.113,-20.996,-203.125,0.000
1737562799.554,-3.418,-13.672,-15.625,-148.926,0.000
1737562799.558,340.332,-7.812,-20.020,8.301,0.000
1737562799.561,168.457,-13.184,-20.996,-3.906,0.000
1737562799.565,-91.797,-20.508,-25.879,-85.449,0.000
1737562799.569,-87.402,-23.926,-32.227,-115.723,0.000
1737562799.573,106.934,-17.578,-29.785,-40.527,0.000
1737562799.577,432.617,-1.465,-26.855,108.887,0.000
1737562799.581,231.445,0.977,-20.020,43.945,0.000
1737562799.585,-368.652,-17.578,-20.020,-137.695,0.000
1737562799.589,-274.414,-18.555,-25.391,-113.281,0.000
1737562799.593,174.805,-11.719,-26.367,9.277,0.000
1737562799.597,229.004,-18.066,-23.438,56.641,0.000
1737562799.601,309.082,-24.902,-17.578,105.957,0.000
1737562799.604,112.305,-31.738,-19.531,14.160,0.000
1737562799.608,-168.457,-24.414,-17.578,-58.105,0.000
1737562799.612,-102.539,-16.602,-15.137,1.465,0.000
1737562799.616,187.988,-20.996,0.000,135.254,0.000
1737562799.620,352.539,-24.902,0.000,195.801,0.000
1737562799.624,52.246,-22.949,0.000,37.598,0.000
1737562799.628,62.988,-19.043,0.000,23.438,0.000
1737562799.632,-15.625,-16.602,0.000,-2.930,0.000
1737562799.636,-35.156,-15.137,0.000,-2.441,0.000
1737562799.640,371.582,-16.113,0.000,147.461,0.000
1737562799.644,215.820,-27.832,0.000,130.371,0.000
1737562799.647,-170.898,-31.250,0.000,39.551,0.000
1737562799.651,-219.238,-22.461,0.000,34.180,0.000
1737562799.655,40.527,-15.137,0.000,92.285,0.000
1737562799.659,338.379,-8.789,0.000,192.871,0.000
1737562799.663,133.301,-8.789,-18.555,129.883,0.000
1737562799.667,-256.836,-13.184,-25.879,-43.945,0.000
1737562799.671,-369.629,-14.160,-32.715,-97.656,0.000
1737562799.675,-250.000,-15.625,-31.250,-107.422,0.000
1737562799.679,20.996,-14.160,-20.020,10.742,0.000
1737562799.683,304.199,-8.789,-11.719,146.484,0.000
1737562799.687,142.578,-11.719,-7.324,31.738,0.000
1737562799.690,-264.648,-18.555,-7.324,-81.055,0.000
1737562799.694,-225.098,-19.043,-16.602,2.930,0.000
1737562799.698,8.301,-16.602,-18.555,68.359,0.000
1737562799.702,7.324,-21.973,-13.184,59.570,0.000
1737562799.706,26.367,-22.949,-16.113,42.969,0.000
1737562799.710,-6.348,-19.043,-18.066,-35.645,0.000
1737562799.714,-128.906,-18.066,-15.625,-59.082,0.000
1737562799.718,228.516,-20.508,-13.672,142.578,0.000
1737562799.722,422.852,-18.555,-19.043,166.504,0.000
1737562799.726,-68.359,-22.949,-26.855,-62.012,0.000
1737562799.730,-115.723,-23.438,-28.320,-72.266,0.000
1737562799.733,145.508,-14.648,-24.902,57.617,0.000
1737562799.737,137.207,-13.184,-17.090,120.117,0.000
1737562799.741,93.750,-9.277,-7.324,79.590,0.000
1737562799.745,53.223,-18.555,-11.230,39.551,0.000
1737562799.749,-192.383,-31.738,-22.949,-61.523,0.000
1737562799.753,-265.625,-33.691,-30.762,-36.621,0.000
1737562799.757,150.391,-25.391,-28.809,146.484,0.000
1737562799.761,379.395,-13.672,-23.438,165.039,0.000
1737562799.765,16.113,-20.020,-18.066,34.668,0.000
1737562799.769,-137.207,-18.555,-12.207,-37.109,0.000
1737562799.773,215.820,-15.137,-13.184,64.453,0.000
1737562799.776,387.695,-14.160,-22.949,171.387,0.000
1737562799.780,86.426,-7.324,-27.832,103.027,0.000
1737562799.784,-267.090,-12.207,-24.902,0.488,0.000
1737562799.788,-183.105,-12.695,-24.414,-26.367,0.000
1737562799.792,-62.500,-12.207,-24.414,-1.465,0.000
1737562799.796,136.719,-11.230,-18.555,133.789,0.000
1737562799.800,240.234,-10.742,-18.555,172.363,0.000
1737562799.804,-173.828,-24.414,-17.090,-9.766,0.000
1737562799.808,-290.527,-29.297,-15.625,-53.711,0.000
1737562799.812,-66.895,-21.484,-20.508,-6.348,0.000
1737562799.816,-62.500,-19.043,-22.949,-41.992,0.000
1737562799.819,80.566,-14.648,-22.461,32.227,0.000
1737562799.823,269.531,-6.348,-21.484,122.070,0.000
1737562799.827,238.770,-2.441,-16.113,103.516,0.000
1737562799.831,-108.398,-11.719,-12.695,-2.930,0.000
1737562799.835,-233.887,-21.484,-14.648,-2.930,0.000
1737562799.839,88.867,-15.625,-8.789,104.980,0.000
1737562799.843,150.879,-13.184,-1.953,128.418,0.000
1737562799.847,-6.836,-14.648,-12.695,71.777,0.000
1737562799.851,0.000,-11.719,-18.555,44.434,0.000
1737562799.855,0.000,-6.348,-13.672,75.195,0.000
1737562799.859,0.000,-10.742,-17.090,160.645,0.000
1737562799.862,0.000,-20.508,-16.602,22.461,0.000
1737562799.866,0.000,-16.113,-8.789,-176.758,0.000
1737562799.870,0.000,-9.277,1.953,-13.672,0.000
1737562799.874,0.000,-8.789,4.883,210.449,0.000
1737562799.878,0.000,-10.254,2.441,168.945,0.000
1737562799.882,0.000,-22.461,-3.906,70.312,0.000
1737562799.886,0.000,-22.461,-11.230,39.551,0.000
1737562799.890,0.000,-16.602,-9.766,43.945,0.000
1737562799.894,0.000,-19.531,-12.695,45.410,0.000
1737562799.898,16.113,-20.508,-17.578,71.289,0.000
1737562799.902,95.215,-20.020,-16.113,100.586,0.000
1737562799.905,168.945,-23.438,-13.672,83.496,0.000
1737562799.909,-110.352,-23.438,-12.207,-24.902,0.000
1737562799.913,-186.035,-15.625,-13.184,-18.066,0.000
1737562799.917,283.203,-11.719,-18.555,161.621,0.000
1737562799.921,347.656,-11.719,-19.043,176.270,0.000
1737562799.925,-47.363,-14.648,-17.578,50.293,0.000
1737562799.929,-312.988,-19.531,-23.438,-67.871,0.000
1737562799.933,-505.371,-22.949,-32.227,-193.359,0.000
1737562799.937,-286.133,-15.625,-26.855,-116.699,0.000
1737562799.940,434.082,-9.766,-20.508,136.719,0.000
1737562799.945,0.000,-11.719,-18.066,171.875,0.000
1737562799.948,0.000,-19.043,-19.043,-4.883,0.000
1737562799.952,0.000,-18.066,-20.020,-86.914,0.000
1737562799.956,0.000,-9.766,-14.160,-20.508,0.000
1737562799.960,0.000,-9.277,-12.207,-50.293,0.000
1737562799.964,0.000,-7.812,-15.625,-63.477,0.000
1737562799.968,0.000,-20.020,-16.602,-74.219,0.000
1737562799.972,0.000,-22.949,-14.160,-88.867,0.000
1737562799.976,0.000,-10.254,-22.949,73.730,0.000
1737562799.980,0.000,-15.137,-29.785,95.215,0.000
1737562799.983,0.000,-18.066,-28.320,-17.578,0.000
1737562799.987,0.000,-12.695,-17.578,97.656,0.000
1737562799.991,11.230,-16.113,-17.090,81.055,0.000
1737562799.995,-301.270,-24.414,-20.996,-97.168,0.000
1737562799.999,-95.215,-24.414,-19.043,-5.859,0.000
1737562800.003,70.312,-20.020,-24.414,64.941,0.000
1737562800.007,-128.906,-21.973,-22.949,-15.137,0.000
1737562800.011,-291.992,-21.973,-19.043,-97.168,0.000
1737562800.015,-39.551,-19.531,-22.949,-10.742,0.000
1737562800.019,162.598,-19.043,-26.855,99.609,0.000
1737562800.023,-199.219,-24.414,-23.438,-41.992,0.000
1737562800.026,-280.762,-28.809,-30.762,-78.613,0.000
1737562800.030,-76.660,-20.020,-41.016,-27.832,0.000
1737562800.034,-121.582,-20.508,-33.691,-53.711,0.000
1737562800.038,-33.691,-24.414,-23.438,-20.020,0.000
1737562800.042,19.531,-22.461,-30.762,-34.668,0.000
1737562800.046,225.098,-19.043,-30.762,17.578,0.000
1737562800.050,350.586,-13.672,-27.344,69.824,0.000
1737562800.054,250.488,-8.301,-23.926,96.680,0.000
1737562800.058,544.434,-0.977,-26.855,233.398,0.000
1737562800.062,506.836,-4.883,-31.250,210.449,0.000
1737562800.066,-66.406,-17.090,-29.297,-19.531,0.000
1737562800.069,-351.562,-19.531,-31.250,-131.836,0.000
1737562800.073,-30.273,-15.137,-28.809,-18.555,0.000
1737562800.077,382.324,-12.695,-32.715,134.277,0.000
1737562800.081,361.816,-15.137,-44.922,150.391,0.000
1737562800.085,212.891,-16.113,-39.551,104.492,0.000
1737562800.089,69.824,-14.160,-17.578,61.035,0.000
1737562800.093,32.227,-18.555,-4.395,100.586,0.000
1737562800.097,156.250,-24.902,-5.371,148.926,0.000
1737562800.101,60.547,-21.484,-3.418,135.254,0.000
1737562800.105,72.266,-13.184,-6.836,99.121,0.000
1737562800.109,80.566,-8.789,-15.625,17.578,0.000
1737562800.112,38.574,-5.859,-13.184,60.059,0.000
1737562800.116,214.355,-8.789,-17.578,144.531,0.000
1737562800.120,199.707,-11.230,-23.438,98.633,0.000
1737562800.124,98.633,-10.254,-16.602,71.289,0.000
1737562800.128,44.922,-14.160,-23.438,40.527,0.000
1737562800.132,0.000,-19.531,-28.320,-4.395,0.000
1737562800.136,0.000,-17.090,-20.996,60.059,0.000
1737562800.140,0.000,-11.230,-26.855,160.645,0.000
1737562800.144,0.000,-11.719,-34.668,134.766,0.000
1737562800.148,0.000,-17.578,-27.344,16.113,0.000
1737562800.152,0.000,-12.207,-21.973,53.711,0.000
1737562800.155,0.000,-13.184,-20.996,61.035,0.000
1737562800.159,0.000,-25.879,-21.484,-78.125,0.000
1737562800.163,0.000,-25.879,-25.879,-65.430,0.000
1737562800.167,0.000,-23.926,-24.414,33.691,0.000
1737562800.171,0.000,-22.461,-15.625,-47.363,0.000
1737562800.175,0.000,-18.066,-12.695,-99.121,0.000
1737562800.179,153.809,-18.066,-23.438,73.730,0.000
1737562800.183,208.984,-17.578,-25.879,109.375,0.000
1737562800.187,3.906,-17.578,-22.949,26.855,0.000
1737562800.191,-155.273,-24.414,-20.996,-47.363,0.000
1737562800.194,-40.527,-27.344,-19.043,-8.789,0.000
1737562800.198,331.543,-24.902,-20.020,141.113,0.000
1737562800.202,466.309,-17.578,-17.578,148.438,0.000
1737562800.206,187.012,-14.160,-22.461,14.160,0.000
1737562800.210,-155.273,-20.020,-30.762,-70.801,0.000
1737562800.214,-89.355,-22.461,-17.090,-29.785,0.000
1737562800.218,110.352,-16.602,0.977,33.691,0.000
1737562800.222,218.262,-13.184,7.812,108.398,0.000
1737562800.226,39.062,-22.949,10.254,53.223,0.000
1737562800.230,-224.609,-27.344,11.719,-37.109,0.000
1737562800.234,-14.648,-28.320,18.066,33.691,0.000
1737562800.237,269.043,-36.133,23.926,136.719,0.000
1737562800.241,171.387,-40.527,27.344,122.070,0.000
1737562800.245,224.121,-40.527,32.715,124.512,0.000
1737562800.249,158.203,-40.527,31.250,80.566,0.000
1737562800.253,-149.902,-39.062,21.973,32.227,0.000
1737562800.257,233.887,-33.203,19.043,184.082,0.000
1737562800.261,124.512,-41.016,13.672,105.957,0.000
1737562800.265,-234.375,-42.480,8.301,-26.367,0.000
1737562800.269,-166.504,-39.062,3.906,-64.941,0.000
1737562800.273,-410.645,-41.016,8.789,-165.527,0.000
1737562800.277,-125.488,-37.598,18.066,-23.926,0.000
1737562800.280,178.711,-34.668,17.090,71.289,0.000
1737562800.284,-53.223,-31.738,12.207,12.207,0.000
1737562800.288,-141.602,-29.297,1.953,-42.969,0.000
1737562800.292,-83.984,-32.715,-0.977,-44.922,0.000
1737562800.296,-59.082,-36.621,1.465,6.348,0.000
1737562800.300,-17.090,-30.762,5.859,24.902,0.000
1737562800.304,-145.996,-28.809,6.836,-56.152,0.000
1737562800.308,-206.055,-30.762,-0.977,-81.055,0.000
1737562800.312,-120.117,-27.832,-2.441,-36.621,0.000
1737562800.315,148.926,-24.414,-2.441,81.543,0.000
1737562800.320,445.801,-20.508,0.000,167.480,0.000
1737562800.323,100.098,-22.949,0.000,26.855,0.000
1737562800.327,-148.926,-21.973,0.000,-62.988,0.000
1737562800.331,-253.418,-26.855,0.000,-99.609,0.000
1737562800.335,-145.996,-31.738,0.000,-64.941,0.000
1737562800.339,268.555,-26.855,0.000,74.219,0.000
1737562800.343,146.973,-22.949,0.000,44.434,0.000
1737562800.347,-316.406,-28.809,0.000,-106.445,0.000
1737562800.351,-334.473,-26.855,0.000,-115.234,0.000
1737562800.355,68.359,-20.996,0.000,33.691,0.000
1737562800.358,297.852,-19.043,0.000,115.723,0.000
1737562800.362,71.289,-16.602,0.000,13.184,0.000
1737562800.366,-70.801,-15.625,-8.789,-45.898,0.000
1737562800.370,-46.387,-13.184,-24.414,-48.340,0.000
1737562800.374,50.781,-17.090,-20.996,-5.371,0.000
1737562800.378,281.250,-16.602,-5.371,106.934,0.000
1737562800.382,270.020,-15.137,-2.930,130.371,0.000
1737562800.386,168.945,-13.672,-7.812,85.449,0.000
1737562800.390,25.879,-14.648,-14.160,36.621,0.000
1737562800.394,-162.598,-26.855,-19.531,-1.465,0.000
1737562800.398,-63.477,-20.996,-7.812,6.836,0.000
1737562800.401,52.734,-14.160,-1.465,30.273,0.000
1737562800.405,-129.883,-16.602,-7.812,-16.113,0.000
1737562800.409,-225.098,-16.113,-14.160,-83.008,0.000
1737562800.413,0.000,-11.719,-19.043,-97.168,0.000
1737562800.417,0.000,-7.812,-19.043,-31.250,0.000
1737562800.421,0.000,-3.418,-13.184,63.477,0.000
1737562800.425,0.000,-5.371,-13.672,-30.762,0.000
1737562800.429,0.000,-13.184,-20.508,-111.816,0.000
1737562800.433,0.000,-10.742,-31.250,16.602,0.000
1737562800.437,0.000,-7.324,-34.180,42.480,0.000
1737562800.441,0.000,-16.602,-31.738,-52.734,0.000
1737562800.444,0.000,-22.461,-28.320,-88.379,0.000
1737562800.448,0.000,-22.461,-24.414,-75.684,0.000
1737562800.452,0.000,-16.113,-23.926,-29.785,0.000
1737562800.456,0.000,-12.695,-26.367,-3.906,0.000
1737562800.460,15.625,-17.090,-24.902,-1.465,0.000
1737562800.464,8.789,-19.531,-18.066,11.230,0.000
1737562800.468,53.223,-17.578,-9.766,8.301,0.000
1737562800.472,-17.090,-20.996,-10.254,-46.875,0.000
1737562800.476,-34.668,-26.367,-8.789,-0.977,0.000
1737562800.480,276.855,-16.113,-12.695,132.324,0.000
1737562800.484,188.477,-12.207,-24.902,38.086,0.000
1737562800.487,-72.266,-22.461,-24.902,-57.617,0.000
1737562800.491,-143.555,-21.484,-23.438,-123.047,0.000
1737562800.495,-6.836,-15.137,-21.484,-79.102,0.000
1737562800.499,464.844,-19.043,-22.949,149.902,0.000
1737562800.503,289.062,-23.438,-25.879,87.891,0.000
1737562800.507,0.000,-31.250,-24.902,-80.078,0.000
1737562800.511,0.000,-38.086,-29.297,-123.535,0.000
1737562800.515,0.000,-34.180,-28.809,-49.805,0.000
1737562800.519,0.000,-26.855,-27.344,62.500,0.000
1737562800.523,0.000,-28.809,-30.273,14.160,0.000
1737562800.527,0.000,-28.320,-26.367,14.648,0.000
1737562800.530,0.000,-31.738,-26.367,10.254,0.000
1737562800.534,0.000,-31.250,-26.855,32.715,0.000
1737562800.538,0.000,-20.996,-20.508,187.012,0.000
1737562800.542,0.000,-19.043,-29.785,59.570,0.000
1737562800.546,0.000,-20.020,-33.203,-53.223,0.000
1737562800.550,0.000,-20.508,-25.879,-8.301,0.000
1737562800.554,11.230,-15.625,-23.438,31.250,0.000
1737562800.558,152.344,-16.113,-22.949,85.938,0.000
1737562800.562,109.863,-18.066,-23.926,47.852,0.000
1737562800.566,-28.809,-23.926,-30.762,-20.508,0.000
1737562800.570,-261.230,-27.344,-39.551,-102.539,0.000
1737562800.573,-31.250,-15.625,-38.086,11.719,0.000
1737562800.577,381.836,-11.719,-27.832,141.602,0.000
1737562800.581,83.496,-16.602,-20.508,46.875,0.000
1737562800.585,-8.301,-14.648,-23.438,21.484,0.000
1737562800.589,86.914,-17.090,-25.391,-41.504,0.000
1737562800.593,24.902,-22.461,-19.531,-39.062,0.000
1737562800.597,225.098,-17.090,-11.230,113.770,0.000
1737562800.601,457.520,-14.648,-12.695,208.984,0.000
1737562800.605,122.070,-20.020,-21.484,97.168,0.000
1737562800.609,-308.594,-14.160,-17.090,-74.707,0.000
1737562800.613,-176.758,-14.160,-12.695,-62.012,0.000
1737562800.616,101.562,-18.555,-17.090,30.762,0.000
1737562800.620,404.297,-9.766,-19.043,122.070,0.000
1737562800.624,110.840,-9.277,-20.020,-17.090,0.000
1737562800.628,-294.922,-14.648,-15.625,-146.484,0.000
1737562800.632,103.516,-9.277,-10.742,29.297,0.000
1737562800.636,394.043,0.000,-12.695,153.320,0.000
1737562800.640,175.781,0.000,-19.531,53.711,0.000
1737562800.644,-179.199,-7.812,-31.250,-94.727,0.000
1737562800.648,-131.836,-2.441,-37.109,-135.254,0.000
1737562800.652,-61.523,3.906,-47.363,-141.113,0.000
1737562800.656,-242.676,-1.953,-48.340,-134.766,0.000
1737562800.659,37.109,4.395,-43.457,3.418,0.000
1737562800.663,171.387,3.418,-50.781,46.875,0.000
1737562800.667,55.176,0.488,-54.199,-6.836,0.000
1737562800.671,-107.910,-3.906,-53.711,-45.898,0.000
1737562800.675,24.414,-5.859,-54.688,37.598,0.000
1737562800.679,399.902,-0.977,-54.199,152.344,0.000
1737562800.683,205.566,-1.953,-51.270,83.008,0.000
1737562800.687,5.371,-2.930,-48.828,38.574,0.000
1737562800.691,61.035,2.930,-48.828,43.457,0.000
1737562800.695,98.145,-3.906,-55.176,33.203,0.000
1737562800.699,245.605,-7.324,-56.641,107.910,0.000
1737562800.702,316.895,-7.812,-50.293,145.996,0.000
1737562800.706,227.051,-8.789,-43.457,119.629,0.000
1737562800.710,19.043,-3.906,-43.945,80.566,0.000
1737562800.714,122.559,-5.371,-42.480,175.293,0.000
1737562800.718,448.242,-0.488,-35.156,330.078,0.000
1737562800.722,210.449,0.977,-32.715,273.926,0.000
1737562800.726,-75.195,-11.719,-37.109,163.574,0.000
1737562800.730,-199.707,-24.414,-33.203,72.266,0.000
1737562800.734,-149.902,-16.113,-22.949,86.426,0.000
1737562800.737,52.246,-12.207,-25.391,126.953,0.000
1737562800.742,0.000,-21.484,-30.762,83.984,0.000
1737562800.745,0.000,-19.531,-36.133,51.270,0.000
1737562800.749,0.000,-16.602,-38.086,0.977,0.000
1737562800.753,0.000,-16.602,-35.645,51.270,0.000
1737562800.757,0.000,-10.742,-33.203,66.895,0.000
1737562800.761,0.000,-9.277,-27.832,-52.246,0.000
1737562800.765,0.000,-11.719,-29.297,-85.938,0.000
1737562800.769,0.000,-13.184,-40.527,-131.836,0.000
1737562800.773,0.000,-11.719,-43.457,-117.188,0.000
1737562800.777,0.000,-7.812,-34.668,-42.969,0.000
1737562800.780,0.000,-15.137,-34.668,-38.574,0.000
1737562800.784,0.000,-24.414,-41.504,-94.238,0.000
1737562800.788,-43.945,-24.414,-32.227,-174.805,0.000
1737562800.792,-187.988,-18.555,-24.902,-305.176,0.000
1737562800.796,-145.996,-8.301,-22.949,-208.984,0.000
1737562800.800,239.746,-6.348,-31.738,-9.766,0.000
1737562800.804,-57.617,-14.160,-38.086,-131.348,0.000
1737562800.808,-221.191,-12.695,-33.691,-133.301,0.000
1737562800.812,9.277,-11.230,-39.551,-55.176,0.000
1737562800.816,-62.500,-20.020,-41.992,-61.523,0.000
1737562800.820,-175.781,-23.926,-31.738,-73.730,0.000
1737562800.823,-141.113,-16.113,-25.879,-90.820,0.000
1737562800.827,36.133,-9.766,-26.855,-86.914,0.000
1737562800.831,-168.457,-9.766,-27.832,-212.891,0.000
1737562800.835,-404.297,-12.207,-32.227,-247.070,0.000
1737562800.839,-24.902,-14.160,-37.598,-63.965,0.000
1737562800.843,49.805,-12.695,-34.180,-22.949,0.000
1737562800.847,-48.340,-13.184,-24.414,-40.527,0.000
1737562800.851,-229.980,-15.137,-23.926,-123.535,0.000
1737562800.855,-130.371,-8.301,-27.344,-94.727,0.000
1737562800.859,353.027,-6.348,-27.344,91.309,0.000
1737562800.863,135.254,-11.230,-25.879,7.812,0.000
1737562800.866,-75.684,-5.371,-29.297,-75.684,0.000
1737562800.870,-96.191,-9.277,-27.832,-69.336,0.000
1737562800.874,-141.113,-14.648,-27.344,-60.059,0.000
1737562800.878,128.418,-8.301,-26.855,57.129,0.000
1737562800.882,108.398,-9.277,-14.648,52.734,0.000
1737562800.886,2.441,-12.695,-5.859,20.508,0.000
1737562800.890,42.969,-17.090,-4.883,14.648,0.000
1737562800.894,-58.105,-17.090,-4.395,-26.855,0.000
1737562800.898,-86.914,-12.695,-3.906,20.020,0.000
1737562800.902,-132.324,-12.207,-3.906,8.789,0.000
1737562800.906,-254.883,-15.625,-11.230,-71.777,0.000
1737562800.909,-249.512,-19.531,-22.461,-85.449,0.000
1737562800.913,-124.512,-18.555,-26.855,-66.895,0.000
1737562800.917,80.078,-14.160,-24.414,37.598,0.000
1737562800.921,128.906,-15.625,-18.555,123.535,0.000
1737562800.925,-28.809,-19.043,-18.066,61.523,0.000
1737562800.929,-183.105,-23.926,-21.973,-17.578,0.000
1737562800.933,-224.609,-31.250,-24.902,-37.109,0.000
1737562800.937,-68.359,-28.809,-22.949,-4.395,0.000
1737562800.941,31.250,-29.785,-20.996,84.473,0.000
1737562800.945,201.660,-27.344,-17.578,224.121,0.000
1737562800.948,355.469,-17.090,-13.672,236.816,0.000
1737562800.952,-4.395,-16.113,-13.672,151.855,0.000
1737562800.956,-66.406,-8.789,-17.578,194.824,0.000
1737562800.960,130.859,-6.836,-16.602,263.672,0.000
1737562800.964,23.438,-9.277,-21.484,238.770,0.000
1737562800.968,110.352,-11.230,-25.879,283.691,0.000
1737562800.972,193.359,-11.719,-18.066,315.918,0.000
1737562800.976,77.637,-10.254,-16.602,267.090,0.000
1737562800.980,158.691,-10.742,-16.113,360.352,0.000
1737562800.984,143.555,-13.672,-14.160,381.836,0.000
1737562800.988,-63.965,-19.531,-18.066,225.586,0.000
1737562800.991,-75.195,-19.043,-16.113,132.812,0.000
1737562800.995,123.047,-11.719,-15.137,198.242,0.000
1737562800.999,289.062,-10.254,-19.531,303.711,0.000
1737562801.003,104.980,-13.184,-15.137,273.438,0.000
1737562801.007,-65.918,-15.625,-21.973,169.434,0.000
1737562801.011,-228.027,-20.508,-32.227,148.438,0.000
1737562801.015,-380.371,-26.367,-31.250,120.605,0.000
1737562801.019,-327.637,-27.344,-28.320,104.004,0.000
1737562801.023,-127.441,-18.066,-22.461,144.531,0.000
1737562801.027,-3.906,-13.184,-23.926,120.605,0.000
1737562801.031,-33.691,-11.230,-23.926,144.043,0.000
1737562801.034,235.352,-6.348,-21.973,261.230,0.000
1737562801.038,349.121,-7.812,-17.090,321.777,0.000
1737562801.042,171.387,-9.766,-18.555,364.746,0.000
1737562801.046,154.297,-10.742,-21.484,410.156,0.000
1737562801.050,-102.539,-17.090,-25.879,262.695,0.000
1737562801.054,-253.906,-23.926,-27.344,245.605,0.000
1737562801.058,159.668,-13.184,-20.020,435.059,0.000
1737562801.062,259.277,-9.766,-23.926,468.262,0.000
1737562801.066,131.348,-21.973,-26.855,479.980,0.000
1737562801.070,47.363,-20.996,-19.043,457.520,0.000
1737562801.074,0.488,-7.812,-10.742,520.020,0.000
1737562801.077,289.551,-7.324,-19.531,802.246,0.000
1737562801.081,408.203,-18.066,-29.297,861.816,0.000
1737562801.085,13.184,-8.789,-27.832,735.352,0.000
1737562801.089,132.812,2.441,-23.438,896.973,0.000
1737562801.093,259.277,-7.812,-23.926,990.234,0.000
1737562801.097,68.359,-11.230,-20.508,960.938,0.000
1737562801.101,40.039,-4.883,-15.137,971.680,0.000
1737562801.105,-14.160,15.137,-16.602,970.703,0.000
1737562801.109,2.441,22.949,-22.949,970.703,0.000
1737562801.112,-19.043,12.695,-13.672,970.703,0.000
1737562801.117,58.594,-3.418,-3.418,970.703,0.000
1737562801.121,158.203,2.441,2.930,970.703,0.000
1737562801.124,70.312,10.254,-0.977,970.703,0.000
1737562801.128,-48.340,6.348,-22.949,970.703,0.000
1737562801.132,-195.801,-4.395,-17.090,970.703,0.000
1737562801.136,-278.809,15.625,2.930,970.703,0.000
1737562801.140,-460.938,31.250,-6.348,970.215,0.000
1737562801.144,-823.242,1.465,-30.762,970.703,0.000
1737562801.148,-992.188,5.859,-22.461,972.168,0.000
1737562801.152,-993.652,-7.324,-36.621,965.332,0.000
1737562801.156,-998.047,-25.391,-41.504,967.285,0.000
1737562801.159,-1000.000,-8.301,30.273,960.449,0.000
1737562801.163,-1000.000,55.176,46.387,686.523,0.000
1737562801.167,-1000.000,48.340,-26.855,286.621,0.000
1737562801.171,-1000.000,-11.719,-62.500,-162.598,0.000
1737562801.175,-1000.000,-6.348,-31.738,-558.594,0.000
1737562801.179,-1000.000,-0.488,-14.160,-819.336,0.000
1737562801.183,-1000.000,-0.488,-21.973,-1000.000,0.000
1737562801.187,-1000.000,14.648,-45.898,-994.629,0.000
1737562801.191,-1000.000,36.621,-43.945,-981.445,0.000
1737562801.195,-1000.000,45.898,-32.715,-1000.000,0.000
1737562801.198,-1000.000,9.277,-42.480,-697.266,0.000
1737562801.202,-1000.000,-20.996,-9.277,-11.230,0.000
1737562801.206,-1000.000,-6.348,41.504,621.582,0.000
1737562801.210,0.000,-4.395,36.133,964.355,0.000
1737562801.214,0.000,11.719,-3.906,965.820,0.000
1737562801.218,0.000,22.949,20.508,956.543,0.000
1737562801.222,0.000,3.418,45.410,964.844,0.000
1737562801.226,0.000,-3.418,31.250,949.219,0.000
1737562801.230,0.000,2.441,-8.789,556.152,0.000
1737562801.234,0.000,2.441,-75.195,-104.980,0.000
1737562801.238,0.000,-2.441,-66.895,-638.672,0.000
1737562801.241,0.000,-23.438,-8.789,-957.520,0.000
1737562801.245,0.000,-50.293,-10.742,-998.535,0.000
1737562801.249,0.000,-41.016,-48.828,-993.164,0.000
1737562801.253,0.000,-13.672,-64.941,-1000.000,0.000
1737562801.257,-1000.000,-11.719,-53.711,-1000.000,0.000
1737562801.261,-1000.000,-11.230,-54.199,-1000.000,0.000
1737562801.265,-1000.000,-2.930,-41.992,-1000.000,0.000
1737562801.269,-1000.000,-20.508,-32.715,-1000.000,0.000
1737562801.273,-1000.000,-17.090,-15.137,-1000.000,0.000
1737562801.277,-959.473,-13.184,-21.973,-987.793,0.000
1737562801.281,-1000.000,-35.156,-38.574,-1000.000,0.000
1737562801.284,-733.887,-19.043,-9.277,-946.289,0.000
1737562801.288,487.793,26.855,-1.953,-562.012,0.000
1737562801.292,999.512,3.418,-16.113,-389.160,0.000
1737562801.296,929.199,-52.734,1.953,-205.566,0.000
1737562801.300,969.727,-47.852,5.371,237.305,0.000
1737562801.304,971.680,-37.598,9.277,579.590,0.000
1737562801.308,970.215,-30.762,11.230,752.930,0.000
1737562801.312,970.215,-5.859,-15.137,885.742,0.000
1737562801.316,969.727,-9.277,-31.738,972.656,0.000
1737562801.320,970.215,-25.879,-33.203,968.262,0.000
1737562801.324,969.727,-15.625,-34.668,969.238,0.000
1737562801.327,970.215,-13.672,-43.945,971.191,0.000
1737562801.331,970.215,-21.973,-54.688,970.703,0.000
1737562801.335,970.215,-12.695,-48.340,970.703,0.000
1737562801.339,970.215,-34.180,-49.316,970.703,0.000
1737562801.343,969.727,-47.363,-36.133,970.703,0.000
1737562801.347,969.727,-38.086,-35.156,970.703,0.000
1737562801.351,969.727,-24.414,-39.062,970.703,0.000
1737562801.355,970.215,-18.555,-20.508,970.703,0.000
1737562801.359,970.215,-31.250,-3.418,970.703,0.000
1737562801.363,969.727,-29.297,-3.906,970.703,0.000
1737562801.367,969.727,-18.066,16.113,970.703,0.000
1737562801.370,969.727,-8.789,30.762,970.703,0.000
1737562801.374,970.215,-9.277,36.133,970.703,0.000
1737562801.378,970.215,-23.438,32.227,971.680,0.000
1737562801.382,970.215,-20.996,2.930,968.750,0.000
1737562801.386,971.680,-24.414,4.883,950.684,0.000
1737562801.390,959.473,-41.504,13.184,982.910,0.000
1737562801.394,977.051,-42.969,6.348,648.438,0.000
1737562801.398,918.457,-28.320,-10.742,-217.773,0.000
1737562801.402,520.996,-20.020,-20.508,-885.254,0.000
1737562801.406,337.402,-32.715,-21.484,-1000.000,0.000
1737562801.410,266.602,-32.715,-24.414,-983.398,0.000
1737562801.413,-561.523,-25.879,-25.879,-1000.000,0.000
1737562801.417,-1000.000,-20.996,-30.273,-1000.000,0.000
1737562801.421,-972.168,-27.344,-28.809,-1000.000,0.000
1737562801.425,-997.559,-30.762,-22.949,-1000.000,0.000
1737562801.429,-1000.000,-31.250,-4.395,-1000.000,0.000
1737562801.433,-1000.000,-35.156,4.883,-1000.000,0.000
1737562801.437,-1000.000,-19.043,0.488,-1000.000,0.000
1737562801.441,-1000.000,0.000,14.160,-1000.000,0.000
1737562801.445,-1000.000,0.977,12.695,-1000.000,0.000
1737562801.449,-1000.000,-16.113,14.160,-1000.000,0.000
1737562801.453,-1000.000,-19.043,10.254,-1000.000,0.000
1737562801.456,-1000.000,-20.020,-8.301,-1000.000,0.000
1737562801.460,-1000.000,-22.461,-17.578,-1000.000,0.000
1737562801.464,-1000.000,-14.160,-54.688,-1000.000,0.000
1737562801.468,-1000.000,-9.277,-59.570,-1000.000,0.000
1737562801.472,-1000.000,-24.414,-26.367,-1000.000,0.000
1737562801.476,-1000.000,-49.805,-23.926,-1000.000,0.000
1737562801.480,-1000.000,-38.086,-41.504,-1000.000,0.000
1737562801.484,-1000.000,-17.578,-45.410,-1000.000,0.000
1737562801.488,-1000.000,-27.832,-45.410,-1000.000,0.000
1737562801.492,0.000,-36.621,-40.527,-1000.000,0.000
1737562801.496,0.000,-22.461,-41.016,-1000.000,0.000
1737562801.499,0.000,-7.812,-32.227,-1000.000,0.000
1737562801.503,0.000,-27.832,-7.812,-1000.000,0.000
1737562801.507,0.000,-29.297,-3.906,-1000.000,0.000
1737562801.511,0.000,-15.137,-20.020,-1000.000,0.000
1737562801.515,0.000,-35.156,-54.688,-1000.000,0.000
1737562801.519,0.000,-35.156,-45.898,-1000.000,0.000
1737562801.523,0.000,-10.254,0.488,-1000.000,0.000
1737562801.527,0.000,-0.977,14.648,-1000.000,0.000
1737562801.531,0.000,-12.695,2.930,-1000.000,0.000
1737562801.534,0.000,-20.996,-8.301,-1000.000,0.000
1737562801.539,-317.871,-12.207,-16.113,-1000.000,0.000
1737562801.542,-992.676,-15.137,-9.277,-1000.000,0.000
1737562801.546,-1000.000,-27.832,-10.254,-1000.000,0.000
1737562801.550,-981.445,-25.391,-17.090,-1000.000,0.000
1737562801.554,-1000.000,-17.578,-12.695,-1000.000,0.000
1737562801.558,-1000.000,-5.859,-0.977,-1000.000,0.000
1737562801.562,-1000.000,-0.488,7.324,-1000.000,0.000
1737562801.566,-1000.000,-10.254,4.395,-1000.000,0.000
1737562801.570,-1000.000,-16.113,3.906,-1000.000,0.000
1737562801.574,-1000.000,-18.066,-3.418,-1000.000,0.000
1737562801.577,-987.793,-25.391,-3.418,-1000.000,0.000
1737562801.581,-1000.000,-25.391,14.160,-1000.000,0.000
1737562801.585,-946.289,-18.066,19.531,-1000.000,0.000
1737562801.589,-455.566,-5.859,22.461,-1000.000,0.000
1737562801.593,-204.590,-8.301,16.602,-1000.000,0.000
1737562801.597,-3.906,-24.414,-0.488,-1000.000,0.000
1737562801.601,757.812,-17.578,21.484,-1000.000,0.000
1737562801.605,999.512,-20.996,36.621,-1000.000,0.000
1737562801.609,941.406,-29.297,-5.859,-1000.000,0.000
1737562801.613,974.121,-25.391,0.488,-1000.000,0.000
1737562801.617,970.215,-37.109,17.090,-1000.000,0.000
1737562801.620,970.215,-41.504,-17.090,-1000.000,0.000
1737562801.624,970.215,-17.090,-42.480,-1000.000,0.000
1737562801.628,970.215,-20.020,-35.645,-1000.000,0.000
1737562801.632,970.215,-28.809,-32.715,-1000.000,0.000
1737562801.636,970.215,-26.367,-20.020,-1000.000,0.000
1737562801.640,970.215,-34.180,-12.207,-1000.000,0.000
1737562801.644,970.215,-30.762,-31.738,-1000.000,0.000
1737562801.648,970.215,-16.113,-58.105,-1000.000,0.000
1737562801.652,970.215,-20.508,-35.645,-1000.000,0.000
1737562801.656,970.215,-21.484,19.531,-1000.000,0.000
1737562801.660,970.215,-14.648,23.926,-1000.000,0.000
1737562801.663,970.215,-10.742,8.301,-1000.000,0.000
1737562801.667,970.215,-9.277,7.812,-1000.000,0.000
1737562801.671,970.215,-25.879,17.090,-1000.000,0.000
1737562801.675,970.215,-33.691,16.113,-1000.000,0.000
1737562801.679,970.215,-35.156,12.207,-1000.000,0.000
1737562801.683,970.215,-42.969,16.602,-1000.000,0.000
1737562801.687,970.215,-37.598,-12.695,-1000.000,0.000
1737562801.691,970.215,-31.250,-60.547,-1000.000,0.000
1737562801.695,970.215,-15.625,-86.914,-1000.000,0.000
1737562801.699,970.215,-33.203,-119.629,-1000.000,0.000
1737562801.702,970.215,-56.152,-145.508,-1000.000,0.000
1737562801.706,970.215,-49.805,-167.480,-1000.000,0.000
1737562801.710,970.215,-15.625,-291.504,-1000.000,0.000
1737562801.714,970.215,-11.230,-416.504,-1000.000,0.000
1737562801.718,970.215,-4.883,-443.848,-1000.000,0.000
1737562801.722,970.215,19.043,-451.660,-1000.000,0.000
1737562801.726,0.000,2.930,-458.008,-1000.000,0.000
1737562801.730,0.000,-8.789,-454.102,-1000.000,0.000
1737562801.734,0.000,-13.672,-461.426,-985.352,0.000
1737562801.738,0.000,-3.418,-464.844,-976.074,0.000
1737562801.742,0.000,-3.418,-443.848,-1000.000,0.000
1737562801.746,0.000,-16.602,-416.504,-41.016,0.000
1737562801.749,0.000,-4.883,-398.926,999.512,0.000
1737562801.753,0.000,-8.301,-404.785,953.125,0.000
1737562801.757,0.000,-1.465,-380.859,950.684,0.000
1737562801.761,0.000,-12.695,-340.332,976.074,0.000
1737562801.765,0.000,-34.668,-306.152,970.703,0.000
1737562801.769,0.000,-4.395,-285.645,970.703,0.000
1737562801.773,970.215,10.254,-265.625,970.703,0.000
1737562801.777,970.215,9.277,-275.391,970.703,0.000
1737562801.781,970.215,6.836,-277.344,970.703,0.000
1737562801.785,970.215,-4.883,-238.281,970.703,0.000
1737562801.789,969.727,-27.832,-214.844,970.703,0.000
1737562801.792,969.727,-15.625,-192.383,970.703,0.000
1737562801.796,969.727,6.836,-179.688,970.703,0.000
1737562801.800,970.215,-2.930,-164.062,972.656,0.000
1737562801.804,974.121,-3.418,-144.043,964.355,0.000
1737562801.808,930.664,0.977,-142.090,960.938,0.000
1737562801.812,999.512,-12.695,-104.004,971.191,0.000
1737562801.816,597.168,-34.668,-29.297,561.035,0.000
1737562801.820,290.527,-33.203,24.414,-55.664,0.000
1737562801.824,965.820,-8.789,79.102,-681.641,0.000
1737562801.828,948.730,-8.301,199.707,-1000.000,0.000
1737562801.832,999.512,-18.066,370.605,-982.422,0.000
1737562801.835,458.496,-9.277,550.293,-998.047,0.000
1737562801.839,-445.312,-10.254,734.375,-1000.000,0.000
1737562801.843,275.879,-33.203,861.328,-1000.000,0.000
1737562801.847,977.051,-38.574,889.648,-1000.000,0.000
1737562801.851,958.008,-28.809,905.762,-1000.000,0.000
1737562801.855,955.566,-43.457,959.473,-1000.000,0.000
1737562801.859,974.121,-80.566,974.121,-1000.000,0.000
1737562801.863,970.215,-75.195,965.332,-1000.000,0.000
1737562801.867,971.680,-57.617,976.074,-1000.000,0.000
1737562801.871,955.566,-68.359,935.547,-1000.000,0.000
1737562801.875,977.051,-54.199,833.984,-1000.000,0.000
1737562801.878,841.309,-69.824,784.180,-1000.000,0.000
1737562801.882,261.230,-77.637,826.660,-1000.000,0.000
1737562801.886,-537.598,-57.129,930.664,-1000.000,0.000
1737562801.890,-1000.000,-70.312,975.098,-1000.000,0.000
1737562801.894,-890.137,-86.426,967.773,-1000.000,0.000
1737562801.898,265.137,-93.262,970.703,-1000.000,0.000
1737562801.902,999.512,-98.145,971.191,-1000.000,0.000
1737562801.906,931.152,-89.844,970.703,-1000.000,0.000
1737562801.910,963.867,-80.078,970.703,-1000.000,0.000
1737562801.914,972.656,-94.238,971.191,0.000,0.000
1737562801.918,970.215,-82.520,970.703,0.000,0.000
1737562801.921,970.215,-87.891,970.703,0.000,0.000
1737562801.925,970.215,-97.168,971.191,0.000,0.000
1737562801.929,970.215,-99.609,971.191,0.000,0.000
1737562801.933,970.215,-121.094,971.191,0.000,0.000
1737562801.937,970.215,-122.559,971.191,0.000,0.000
1737562801.941,970.215,-105.469,971.191,0.000,0.000
1737562801.945,974.609,-94.727,971.191,0.000,0.000
1737562801.949,948.730,-103.516,970.703,0.000,0.000
1737562801.953,992.188,-111.816,970.703,0.000,0.000
1737562801.956,923.340,-97.168,971.191,0.000,0.000
1737562801.960,190.918,-77.637,971.191,-1000.000,0.000
1737562801.964,487.305,-73.242,970.703,-731.445,0.000
1737562801.968,207.520,-75.684,970.703,-439.453,0.000
1737562801.972,-1000.000,-86.426,970.703,-321.777,0.000
1737562801.976,-1000.000,-91.797,970.703,536.133,0.000
1737562801.980,-969.727,-103.516,970.703,996.582,0.000
1737562801.984,-1000.000,-116.699,970.703,654.785,0.000
1737562801.988,-1000.000,-98.633,970.703,237.793,0.000
1737562801.992,-1000.000,-80.566,970.703,-177.246,0.000
1737562801.996,-983.398,-80.078,970.703,-5.371,0.000
1737562801.999,-1000.000,-70.801,970.703,706.543,0.000
1737562802.003,-920.410,-55.176,970.703,994.629,0.000
1737562802.007,-302.734,-57.129,0.000,951.172,0.000
1737562802.011,-374.023,-63.965,0.000,969.238,0.000
1737562802.015,-1000.000,-79.590,0.000,974.121,0.000
1737562802.019,-1000.000,-93.262,0.000,964.355,0.000
1737562802.023,-981.934,-108.887,0.000,952.148,0.000
1737562802.027,-1000.000,-151.367,0.000,985.840,0.000
1737562802.031,-1000.000,-188.477,0.000,445.312,0.000
1737562802.035,-1000.000,-237.305,0.000,-377.441,0.000
1737562802.038,-1000.000,-293.457,0.000,-839.355,0.000
1737562802.042,-1000.000,-367.676,0.000,-1000.000,0.000
1737562802.046,-1000.000,-461.426,0.000,-987.305,0.000
1737562802.050,-1000.000,-556.152,0.000,-1000.000,0.000
1737562802.054,0.000,-706.055,971.191,-1000.000,0.000
1737562802.058,0.000,-908.691,971.191,-1000.000,0.000
1737562802.062,0.000,-1000.000,971.680,-1000.000,0.000
1737562802.066,0.000,-995.605,958.008,-1000.000,0.000
1737562802.070,0.000,-999.512,985.352,-1000.000,0.000
1737562802.074,0.000,-1000.000,824.219,-1000.000,0.000
1737562802.078,0.000,-1000.000,377.930,-1000.000,0.000
1737562802.081,0.000,-1000.000,-53.223,-1000.000,0.000
1737562802.085,0.000,-1000.000,-468.750,-1000.000,0.000
1737562802.089,0.000,-1000.000,-858.887,-1000.000,0.000
1737562802.093,0.000,-1000.000,-1000.000,-1000.000,0.000
1737562802.097,0.000,-1000.000,-991.699,-1000.000,0.000
1737562802.101,-1000.000,-1000.000,-999.512,-1000.000,0.000
1737562802.105,-1000.000,-1000.000,-1000.000,-1000.000,0.000
1737562802.109,-1000.000,-1000.000,-1000.000,-1000.000,0.000
1737562802.113,-1000.000,-1000.000,-1000.000,-1000.000,0.000
1737562802.117,-1000.000,-1000.000,-1000.000,-1000.000,0.000
1737562802.121,-1000.000,-1000.000,-1000.000,-1000.000,0.000
1737562802.124,-1000.000,-1000.000,-1000.000,-1000.000,0.000
1737562802.128,-1000.000,-1000.000,-1000.000,-1000.000,0.000
1737562802.132,-1000.000,-1000.000,-1000.000,-1000.000,0.000
1737562802.136,-1000.000,-1000.000,-1000.000,-1000.000,0.000
1737562802.140,-1000.000,-1000.000,-1000.000,-1000.000,0.000
1737562802.144,-984.863,-1000.000,-1000.000,-1000.000,0.000
1737562802.148,-992.676,-1000.000,-1000.000,-1000.000,0.000
1737562802.152,-979.004,-1000.000,-1000.000,-1000.000,0.000
1737562802.156,-255.371,-1000.000,-1000.000,-1000.000,0.000
1737562802.160,647.949,-1000.000,-1000.000,-1000.000,0.000
1737562802.164,940.918,-1000.000,-1000.000,-1000.000,0.000
1737562802.167,950.684,-1000.000,-1000.000,-1000.000,0.000
1737562802.171,985.352,-1000.000,-1000.000,-1000.000,0.000
1737562802.175,896.484,-1000.000,-1000.000,-1000.000,0.000
1737562802.179,688.965,-1000.000,-1000.000,-1000.000,0.000
1737562802.183,846.191,-1000.000,-1000.000,-1000.000,0.000
1737562802.187,992.676,-1000.000,-1000.000,-1000.000,0.000
1737562802.191,948.730,-1000.000,-1000.000,-997.070,0.000
1737562802.195,999.512,-1000.000,-1000.000,-989.746,0.000
1737562802.199,818.848,-1000.000,-1000.000,-1000.000,0.000
1737562802.203,620.117,-1000.000,-1000.000,-757.324,0.000
1737562802.207,613.770,-1000.000,-1000.000,-376.953,0.000
1737562802.210,-321.289,-1000.000,-1000.000,-512.207,0.000
1737562802.214,-1000.000,-1000.000,-1000.000,-695.801,0.000
1737562802.218,-972.168,-1000.000,-1000.000,-414.551,0.000
1737562802.222,-990.723,-1000.000,-1000.000,94.238,0.000
1737562802.226,-1000.000,-1000.000,-1000.000,275.879,0.000
1737562802.230,-1000.000,-1000.000,-1000.000,353.027,0.000
1737562802.234,-1000.000,-1000.000,-1000.000,787.109,0.000
1737562802.238,-1000.000,-1000.000,-1000.000,982.910,0.000
1737562802.242,-1000.000,-1000.000,-1000.000,960.938,0.000
1737562802.246,-1000.000,-1000.000,-1000.000,968.262,0.000
1737562802.250,-1000.000,-1000.000,-1000.000,971.680,0.000
1737562802.253,-1000.000,-1000.000,-1000.000,970.703,0.000
1737562802.257,-1000.000,-1000.000,-1000.000,970.703,0.000
1737562802.261,-1000.000,-1000.000,-1000.000,970.703,0.000
1737562802.265,-1000.000,-1000.000,-1000.000,970.703,0.000
1737562802.269,-1000.000,-999.023,-1000.000,970.703,0.000
1737562802.273,-1000.000,-994.141,-1000.000,970.703,0.000
1737562802.277,-1000.000,-1000.000,-1000.000,970.703,0.000
1737562802.281,-1000.000,-880.859,-1000.000,970.703,0.000
1737562802.285,-1000.000,-603.516,-1000.000,970.703,0.000
1737562802.289,-1000.000,-369.141,-1000.000,0.000,0.000
1737562802.293,-1000.000,-178.711,-1000.000,0.000,0.000
1737562802.296,-1000.000,-10.254,-1000.000,0.000,0.000
1737562802.300,-1000.000,209.473,-998.535,0.000,0.000
1737562802.304,-1000.000,462.891,-1000.000,0.000,0.000
1737562802.308,-1000.000,657.715,-990.723,0.000,0.000
1737562802.312,-1000.000,855.957,-914.062,0.000,0.000
1737562802.316,-1000.000,968.262,-811.523,0.000,0.000
1737562802.320,-1000.000,968.750,-728.516,0.000,0.000
1737562802.324,-1000.000,968.750,-645.996,0.000,0.000
1737562802.328,-1000.000,971.680,-580.078,0.000,0.000
1737562802.331,-959.961,971.191,-524.414,0.000,0.000
1737562802.336,-1000.000,970.703,-471.191,970.703,0.000
1737562802.339,-616.211,970.703,-423.828,970.703,0.000
1737562802.343,586.914,970.703,-387.695,970.703,0.000
1737562802.347,999.512,970.703,-363.281,970.703,0.000
1737562802.351,932.617,970.703,-342.285,970.703,0.000
1737562802.355,970.703,970.703,-308.105,970.703,0.000
1737562802.359,971.191,970.703,-270.508,970.703,0.000
1737562802.363,969.727,970.703,-239.746,970.703,0.000
1737562802.367,970.215,970.703,-197.754,970.703,0.000
1737562802.371,970.215,970.703,-166.992,970.703,0.000
1737562802.374,970.215,970.703,-154.785,970.703,0.000
1737562802.378,970.215,970.703,-115.723,970.703,0.000
1737562802.382,970.215,970.703,-59.570,970.703,0.000
1737562802.386,969.727,970.703,-41.504,970.703,0.000
1737562802.390,969.727,970.703,-49.316,970.703,0.000
1737562802.394,970.215,970.703,-27.344,970.703,0.000
1737562802.398,970.215,972.168,13.672,970.703,0.000
1737562802.402,970.215,963.867,14.160,970.703,0.000
1737562802.406,970.215,975.098,14.648,970.703,0.000
1737562802.410,970.215,945.801,35.645,970.703,0.000
1737562802.414,970.215,714.844,40.527,970.703,0.000
1737562802.417,970.215,517.090,52.246,970.703,0.000
1737562802.421,970.215,413.086,59.082,970.703,0.000
1737562802.425,970.215,308.594,48.340,970.703,0.000
1737562802.429,970.215,208.984,57.129,970.703,0.000
1737562802.433,970.215,144.531,70.801,970.703,0.000
1737562802.437,970.215,116.211,71.289,970.703,0.000
1737562802.441,970.215,73.242,76.172,971.191,0.000
1737562802.445,970.215,18.555,81.055,975.586,0.000
1737562802.449,970.215,-153.320,81.543,915.039,0.000
1737562802.453,970.215,282.715,79.102,999.512,0.000
1737562802.457,970.215,967.285,64.453,449.219,0.000
1737562802.460,970.215,973.145,51.758,-849.121,0.000
1737562802.464,970.215,952.637,48.340,-1000.000,0.000
1737562802.468,970.215,975.586,51.270,-958.008,0.000
1737562802.472,970.215,971.191,45.898,-1000.000,0.000
1737562802.476,970.215,970.703,34.668,-1000.000,0.000
1737562802.480,970.215,970.703,40.039,-1000.000,0.000
1737562802.484,970.215,971.191,51.758,-1000.000,0.000
1737562802.488,970.215,971.191,56.641,-1000.000,0.000
1737562802.492,970.215,970.703,55.176,-1000.000,0.000
1737562802.496,970.215,971.191,63.965,-1000.000,0.000
1737562802.500,970.215,971.191,76.660,-1000.000,0.000
1737562802.503,970.215,971.191,83.984,-1000.000,0.000
1737562802.507,970.215,970.703,91.309,-1000.000,0.000
1737562802.511,975.586,970.703,101.074,-1000.000,0.000
1737562802.515,941.406,971.191,114.258,-1000.000,0.000
1737562802.519,976.562,970.703,141.113,-1000.000,0.000
1737562802.523,898.438,970.703,154.297,-1000.000,0.000
1737562802.527,-266.602,970.703,154.297,-1000.000,0.000
1737562802.531,-1000.000,971.191,164.062,-1000.000,0.000
1737562802.535,-959.961,971.191,168.945,-1000.000,0.000
1737562802.539,-993.652,971.191,166.016,-1000.000,0.000
1737562802.543,-1000.000,971.191,172.363,-1000.000,0.000
1737562802.546,-1000.000,971.191,171.387,-1000.000,0.000
1737562802.550,-1000.000,970.703,170.410,-1000.000,0.000
1737562802.554,-1000.000,971.191,190.430,-1000.000,0.000
1737562802.558,-1000.000,971.191,195.312,-1000.000,0.000
1737562802.562,-1000.000,971.191,193.359,-1000.000,0.000
1737562802.566,-1000.000,971.191,190.430,-1000.000,0.000
1737562802.570,0.000,971.191,187.988,-1000.000,0.000
1737562802.574,0.000,971.191,200.684,-1000.000,0.000
1737562802.578,0.000,971.191,206.543,-1000.000,0.000
1737562802.582,0.000,971.191,215.820,-1000.000,0.000
1737562802.586,0.000,971.191,218.750,-1000.000,0.000
1737562802.589,0.000,967.773,217.773,-998.047,0.000
1737562802.593,0.000,977.539,217.285,-981.445,0.000
1737562802.597,0.000,930.664,217.285,-1000.000,0.000
1737562802.601,0.000,849.609,228.027,-645.508,0.000
1737562802.605,0.000,814.941,229.492,63.477,0.000
1737562802.609,0.000,774.902,214.844,523.438,0.000
1737562802.613,0.000,765.137,214.844,869.141,0.000
1737562802.617,-1000.000,770.020,225.098,977.051,0.000
1737562802.621,-1000.000,778.809,236.328,961.914,0.000
1737562802.625,-1000.000,802.246,245.117,971.191,0.000
1737562802.628,-1000.000,840.332,234.863,971.191,0.000
1737562802.632,-1000.000,891.602,229.004,970.703,0.000
1737562802.636,-1000.000,905.762,218.262,970.703,0.000
1737562802.640,-1000.000,923.340,195.312,971.191,0.000
1737562802.644,-1000.000,968.750,191.895,971.191,0.000
1737562802.648,-1000.000,971.680,183.594,970.703,0.000
1737562802.652,-1000.000,969.727,179.199,970.703,0.000
1737562802.656,-1000.000,971.191,180.664,970.703,0.000
1737562802.660,-1000.000,971.191,163.086,970.703,0.000
1737562802.664,-1000.000,971.191,161.621,970.703,0.000
1737562802.668,-973.633,971.191,182.129,970.703,0.000
1737562802.671,-997.559,970.703,177.734,970.703,0.000
1737562802.675,-977.051,971.191,162.598,970.703,0.000
1737562802.679,186.523,971.191,161.133,970.703,0.000
1737562802.683,999.512,970.703,179.688,970.703,0.000
1737562802.687,928.223,970.703,192.383,970.703,0.000
1737562802.691,962.891,970.703,179.199,970.703,0.000
1737562802.695,972.656,971.191,176.758,970.703,0.000
1737562802.699,970.215,970.703,158.691,970.703,0.000
1737562802.703,970.215,970.703,148.926,970.703,0.000
1737562802.707,970.215,970.703,158.203,970.703,0.000
1737562802.711,970.215,971.191,166.504,970.703,0.000
1737562802.714,970.215,970.703,177.734,970.703,0.000
1737562802.718,969.727,971.191,172.363,970.703,0.000
1737562802.722,970.215,970.703,164.551,970.703,0.000
1737562802.726,970.215,970.703,171.387,970.703,0.000
1737562802.730,970.215,970.703,160.645,970.703,0.000
1737562802.734,970.215,970.703,146.484,970.703,0.000
1737562802.738,969.727,970.215,150.391,970.703,0.000
1737562802.742,970.215,971.680,135.742,970.703,0.000
1737562802.746,970.215,966.797,149.414,970.703,0.000
1737562802.749,971.191,950.684,156.250,970.703,0.000
1737562802.753,967.285,924.316,148.926,970.703,0.000
1737562802.757,959.961,882.812,156.738,970.703,0.000
1737562802.761,939.453,840.820,136.719,970.703,0.000
1737562802.765,739.746,808.105,112.793,970.703,0.000
1737562802.769,-205.566,776.367,120.117,970.703,0.000
1737562802.773,-1000.000,742.188,124.512,970.703,0.000
1737562802.777,-987.793,727.051,124.512,970.703,0.000
1737562802.781,-982.910,710.449,113.281,970.703,0.000
1737562802.785,-1000.000,683.105,101.562,970.703,0.000
1737562802.789,-1000.000,661.621,108.887,970.703,0.000
1737562802.792,-1000.000,640.625,109.375,970.703,0.000
1737562802.796,-1000.000,617.188,84.473,970.703,0.000
1737562802.800,-962.891,601.074,89.844,970.703,0.000
1737562802.804,-1000.000,595.703,98.145,970.703,0.000
1737562802.808,-746.094,597.656,92.773,970.703,0.000
1737562802.812,450.195,601.562,97.656,970.703,0.000
1737562802.816,999.512,620.117,101.074,970.703,0.000
1737562802.820,901.367,627.441,104.492,970.703,0.000
1737562802.824,956.055,627.930,102.539,970.703,0.000
1737562802.828,977.539,621.582,92.285,970.703,0.000
1737562802.832,967.773,608.887,87.891,970.703,0.000
1737562802.835,975.098,607.422,87.891,970.703,0.000
1737562802.839,953.125,597.168,72.754,970.703,0.000
1737562802.843,944.824,599.121,96.680,970.703,0.000
1737562802.847,999.512,599.609,109.863,970.703,0.000
1737562802.851,-66.406,566.406,87.891,970.703,0.000
1737562802.855,-1000.000,542.969,85.938,970.703,0.000
1737562802.859,-966.309,546.387,93.262,970.703,0.000
1737562802.863,-986.328,541.016,89.355,970.703,0.000
1737562802.867,-1000.000,519.043,71.777,970.703,0.000
1737562802.871,-1000.000,497.559,58.594,970.703,0.000
1737562802.875,-1000.000,495.117,58.105,971.191,0.000
1737562802.878,-1000.000,493.164,60.547,970.703,0.000
1737562802.882,-1000.000,452.637,53.711,971.191,0.000
1737562802.886,-1000.000,402.832,39.062,970.703,0.000
1737562802.890,-1000.000,367.188,23.926,970.703,0.000
1737562802.894,-1000.000,335.938,33.691,970.703,0.000
1737562802.898,-1000.000,308.594,41.016,970.703,0.000
1737562802.902,-1000.000,293.945,34.180,970.703,0.000
1737562802.906,-1000.000,299.805,45.898,971.191,0.000
1737562802.910,-1000.000,300.293,54.688,970.703,0.000
1737562802.914,-1000.000,296.387,51.758,970.703,0.000
1737562802.918,-1000.000,287.598,50.293,970.703,0.000
1737562802.921,-1000.000,273.926,52.246,970.703,0.000
1737562802.925,-1000.000,257.324,47.363,970.703,0.000
1737562802.929,-1000.000,234.863,60.059,970.703,0.000
1737562802.933,-1000.000,221.680,62.988,970.703,0.000
1737562802.937,-1000.000,216.797,40.527,970.703,0.000
1737562802.941,-1000.000,222.168,37.598,971.191,0.000
1737562802.945,0.000,216.797,47.363,970.703,0.000
1737562802.949,0.000,203.613,54.688,970.703,0.000
1737562802.953,0.000,203.613,46.875,970.703,0.000
1737562802.957,0.000,209.473,34.668,970.703,0.000
1737562802.961,0.000,210.938,37.598,970.703,0.000
1737562802.964,0.000,191.895,56.152,970.703,0.000
1737562802.968,0.000,189.453,51.758,970.703,0.000
1737562802.972,0.000,202.637,30.762,970.703,0.000
1737562802.976,0.000,201.660,34.668,970.703,0.000
1737562802.980,0.000,181.641,38.086,972.168,0.000
1737562802.984,0.000,180.664,46.875,963.867,0.000
1737562802.988,0.000,171.387,57.129,975.586,0.000
1737562802.992,-1000.000,138.184,27.832,0.000,0.000
1737562802.996,-1000.000,108.398,0.488,0.000,0.000
1737562803.000,-1000.000,99.609,-23.926,0.000,0.000
1737562803.004,-1000.000,87.402,-52.246,0.000,0.000
1737562803.007,-1000.000,59.570,-58.594,0.000,0.000
1737562803.011,-1000.000,62.012,-56.641,0.000,0.000
1737562803.015,-1000.000,58.594,-43.457,0.000,0.000
1737562803.019,-1000.000,53.711,-32.227,0.000,0.000
1737562803.023,-1000.000,47.852,-15.137,0.000,0.000
1737562803.027,-1000.000,29.297,-1.465,0.000,0.000
1737562803.031,-1000.000,13.672,-20.508,0.000,0.000
1737562803.035,-1000.000,20.508,-33.691,0.000,0.000
1737562803.039,-1000.000,34.668,-31.738,-479.492,0.000
1737562803.043,-1000.000,51.270,-37.598,-495.117,0.000
1737562803.047,-1000.000,71.289,-48.828,-406.250,0.000
1737562803.050,-1000.000,84.473,-55.176,-547.852,0.000
1737562803.054,-1000.000,102.051,-54.688,-583.008,0.000
1737562803.058,-1000.000,122.070,-40.039,-453.125,0.000
1737562803.062,-1000.000,116.211,-30.273,-314.941,0.000
1737562803.066,-1000.000,109.863,-9.277,-355.469,0.000
1737562803.070,-1000.000,114.746,5.371,-503.418,0.000
1737562803.074,-1000.000,124.023,-18.066,-413.086,0.000
1737562803.078,-1000.000,142.578,-53.223,-327.637,0.000
1737562803.082,-1000.000,135.254,-43.945,-340.332,0.000
1737562803.086,-1000.000,122.070,-1.953,-150.391,0.000
1737562803.090,-1000.000,116.699,12.695,-41.016,0.000
1737562803.093,-1000.000,106.934,-11.230,-185.059,0.000
1737562803.097,-1000.000,92.285,-3.906,-123.047,0.000
1737562803.101,-1000.000,80.078,3.906,73.242,0.000
1737562803.105,-1000.000,96.191,-20.508,233.398,0.000
1737562803.109,-1000.000,112.793,-23.926,488.770,0.000
1737562803.113,-1000.000,118.164,-12.695,717.285,0.000
1737562803.117,-1000.000,107.910,-10.742,812.012,0.000
1737562803.121,-1000.000,97.656,-21.973,885.742,0.000
1737562803.125,-1000.000,103.027,-34.180,932.129,0.000
1737562803.128,-1000.000,102.051,-29.785,947.754,0.000
1737562803.132,-1000.000,98.145,-11.719,976.074,0.000
1737562803.136,-1000.000,96.191,8.789,968.262,0.000
1737562803.140,-1000.000,115.723,17.578,970.703,0.000
1737562803.144,-1000.000,144.531,24.902,970.703,0.000
1737562803.148,-1000.000,130.371,25.879,970.703,0.000
1737562803.152,-1000.000,112.305,35.645,970.703,0.000
1737562803.156,-1000.000,113.770,28.320,970.703,0.000
1737562803.160,-1000.000,84.961,0.977,970.703,0.000
1737562803.164,-1000.000,69.336,31.738,970.703,0.000
1737562803.168,-1000.000,77.637,53.223,970.703,0.000
1737562803.171,-1000.000,89.355,44.922,970.703,0.000
1737562803.175,-1000.000,117.676,43.945,970.703,0.000
1737562803.179,-1000.000,124.512,29.785,970.703,0.000
1737562803.183,-1000.000,122.070,39.551,970.703,0.000
1737562803.187,-1000.000,127.930,60.059,970.703,0.000
1737562803.191,-1000.000,109.863,70.801,970.703,0.000
1737562803.195,-1000.000,100.098,65.918,970.703,0.000
1737562803.199,-1000.000,120.117,44.922,970.703,0.000
1737562803.203,-1000.000,142.578,60.547,970.703,0.000
1737562803.207,-1000.000,113.770,73.242,970.703,0.000
1737562803.210,-1000.000,61.523,79.102,970.703,0.000
1737562803.214,-1000.000,45.898,56.152,970.703,0.000
1737562803.218,-1000.000,71.289,51.758,970.703,0.000
1737562803.222,-1000.000,72.266,82.031,970.703,0.000
1737562803.226,-1000.000,52.734,78.125,970.703,0.000
1737562803.230,-1000.000,63.477,102.539,970.703,0.000
1737562803.234,-1000.000,91.797,135.254,970.703,0.000
1737562803.238,-1000.000,89.844,142.578,970.703,0.000
1737562803.242,-1000.000,71.289,106.934,970.703,0.000
1737562803.246,-1000.000,56.152,81.543,970.703,0.000
1737562803.250,-1000.000,46.875,110.352,970.703,0.000
1737562803.253,-1000.000,55.664,125.488,970.703,0.000
1737562803.257,-1000.000,66.895,125.488,970.703,0.000
1737562803.261,-1000.000,67.871,142.578,970.703,0.000
1737562803.265,-1000.000,73.730,145.508,970.703,0.000
1737562803.269,-1000.000,58.594,138.672,970.703,0.000
1737562803.273,-1000.000,41.992,134.766,970.703,0.000
1737562803.277,-999.023,52.734,120.605,970.703,0.000
1737562803.281,-1000.000,47.852,135.254,970.703,0.000
1737562803.285,-995.117,46.875,137.695,970.703,0.000
1737562803.289,-984.863,64.453,131.836,970.703,0.000
1737562803.293,-986.328,64.453,127.930,970.703,0.000
1737562803.296,-999.512,36.133,111.328,970.703,0.000
1737562803.300,-983.887,11.230,112.793,970.703,0.000
1737562803.304,-372.070,21.973,130.371,970.703,0.000
1737562803.308,-156.738,58.105,136.230,970.703,0.000
1737562803.312,-873.047,61.523,161.621,970.703,0.000
1737562803.316,-1000.000,56.152,186.035,970.703,0.000
1737562803.320,-1000.000,57.129,208.496,970.703,0.000
1737562803.324,-842.773,35.156,246.094,970.703,0.000
1737562803.328,-532.715,31.250,284.668,970.703,0.000
1737562803.332,-883.789,42.969,330.078,970.703,0.000
1737562803.336,-996.582,54.688,360.352,970.703,0.000
1737562803.339,-1000.000,55.176,366.699,970.703,0.000
1737562803.343,-557.129,50.293,344.238,976.074,0.000
1737562803.347,652.344,54.199,330.078,939.941,0.000
1737562803.351,244.629,34.668,325.684,986.328,0.000
1737562803.355,-880.371,17.578,297.852,842.285,0.000
1737562803.359,-1000.000,39.551,224.121,-307.129,0.000
1737562803.363,-862.305,36.621,137.695,-1000.000,0.000
1737562803.367,-77.637,11.230,92.285,-965.332,0.000
1737562803.371,-297.852,14.648,43.457,-992.676,0.000
1737562803.375,-1000.000,27.832,-1.465,-1000.000,0.000
1737562803.379,-1000.000,23.438,-38.574,-1000.000,0.000
1737562803.382,-708.496,13.184,-77.637,-1000.000,0.000
1737562803.386,494.141,20.508,-99.121,-1000.000,0.000
1737562803.390,263.672,14.160,-93.750,-1000.000,0.000
1737562803.394,-916.992,0.977,-74.219,-1000.000,0.000
1737562803.398,-1000.000,9.277,-75.195,-1000.000,0.000
1737562803.402,-805.176,15.137,-63.477,-1000.000,0.000
1737562803.406,-589.844,9.766,-32.715,-1000.000,0.000
1737562803.410,-947.754,-2.930,-21.973,-1000.000,0.000
1737562803.414,-1000.000,-1.953,-23.438,-1000.000,0.000
1737562803.418,-999.512,2.930,-23.438,-1000.000,0.000
1737562803.422,-958.984,-12.207,-11.230,-1000.000,0.000
1737562803.425,-783.691,-13.672,11.719,-1000.000,0.000
1737562803.429,-929.688,-22.461,24.414,-1000.000,0.000
1737562803.433,-1000.000,-42.969,25.879,-1000.000,0.000
1737562803.437,-989.258,-29.297,7.812,-1000.000,0.000
1737562803.441,-1000.000,-30.762,23.926,-1000.000,0.000
1737562803.445,-1000.000,-43.945,45.898,-1000.000,0.000
1737562803.449,-1000.000,-44.434,41.504,-1000.000,0.000
1737562803.453,-1000.000,-42.480,41.504,-1000.000,0.000
1737562803.457,-1000.000,-23.438,30.762,-1000.000,0.000
1737562803.461,-1000.000,-13.672,25.391,-1000.000,0.000
1737562803.465,-1000.000,-23.438,35.156,-1000.000,0.000
1737562803.468,-1000.000,-37.109,43.945,-1000.000,0.000
1737562803.472,-1000.000,-29.297,37.109,-1000.000,0.000
1737562803.476,-1000.000,-20.996,43.457,-1000.000,0.000
1737562803.480,-1000.000,-30.273,49.316,-1000.000,0.000
1737562803.484,-1000.000,-44.922,40.039,-1000.000,0.000
1737562803.488,-1000.000,-49.316,46.875,-1000.000,0.000
1737562803.492,-1000.000,-41.016,58.594,-1000.000,0.000
1737562803.496,-1000.000,-29.785,75.195,-1000.000,0.000
1737562803.500,-1000.000,-27.344,57.129,-1000.000,0.000
1737562803.503,-1000.000,-40.527,46.875,-1000.000,0.000
1737562803.508,0.000,-44.922,0.000,-1000.000,0.000
1737562803.511,0.000,-52.734,0.000,-1000.000,0.000
1737562803.515,0.000,-54.688,0.000,-1000.000,0.000
1737562803.519,0.000,-55.176,0.000,-1000.000,0.000
1737562803.523,0.000,-60.547,0.000,-1000.000,0.000
1737562803.527,0.000,-55.176,0.000,-1000.000,0.000
1737562803.531,0.000,-53.223,0.000,-1000.000,0.000
1737562803.535,0.000,-53.223,0.000,-1000.000,0.000
1737562803.539,0.000,-51.270,0.000,-1000.000,0.000
1737562803.543,0.000,-54.199,0.000,-1000.000,0.000
1737562803.546,0.000,-61.523,0.000,-1000.000,0.000
1737562803.550,0.000,-62.500,0.000,-1000.000,0.000
1737562803.554,-1000.000,-57.617,83.984,-1000.000,0.000
1737562803.558,-1000.000,-56.152,75.195,-1000.000,0.000
1737562803.562,-1000.000,-51.270,57.617,-1000.000,0.000
1737562803.566,-1000.000,-34.668,71.777,-1000.000,0.000
1737562803.570,-1000.000,-39.062,78.125,-1000.000,0.000
1737562803.574,-1000.000,-58.105,79.102,-1000.000,0.000
1737562803.578,-1000.000,-60.547,78.613,-1000.000,0.000
1737562803.582,-1000.000,-56.641,64.453,-1000.000,0.000
1737562803.586,-1000.000,-57.129,70.801,-1000.000,0.000
1737562803.589,-1000.000,-71.289,71.777,-1000.000,0.000
1737562803.593,-1000.000,-67.383,63.477,-1000.000,0.000
1737562803.597,-975.586,-37.598,70.312,-1000.000,0.000
1737562803.601,-1000.000,-46.387,68.359,-1000.000,0.000
1737562803.605,-693.359,-64.453,58.594,-1000.000,0.000
1737562803.609,-450.684,-65.430,58.594,-1000.000,0.000
1737562803.613,-930.664,-66.406,59.082,-1000.000,0.000
1737562803.617,-1000.000,-53.223,65.430,-1000.000,0.000
1737562803.621,-406.738,-41.992,75.684,-1000.000,0.000
1737562803.625,663.086,-51.270,69.336,-1000.000,0.000
1737562803.629,999.512,-63.477,58.105,-1000.000,0.000
1737562803.632,462.891,-55.664,49.316,-1000.000,0.000
1737562803.636,-283.691,-48.340,51.758,-1000.000,0.000
1737562803.640,100.586,-61.523,54.688,-1000.000,0.000
1737562803.644,881.836,-71.777,41.016,-1000.000,0.000
1737562803.648,0.000,-62.988,35.156,-1000.000,0.000
1737562803.652,0.000,-71.289,38.086,-1000.000,0.000
1737562803.656,0.000,-80.078,26.367,-1000.000,0.000
1737562803.660,0.000,-72.754,27.344,-1000.000,0.000
1737562803.664,0.000,-65.430,45.410,-1000.000,0.000
1737562803.668,0.000,-65.430,47.363,-996.094,0.000
1737562803.672,0.000,-62.500,37.598,-994.629,0.000
1737562803.675,0.000,-56.641,41.016,-1000.000,0.000
1737562803.679,0.000,-60.059,49.316,-723.145,0.000
1737562803.683,0.000,-69.336,41.016,-447.754,0.000
1737562803.687,0.000,-68.359,41.504,-322.754,0.000
1737562803.691,0.000,-69.336,43.945,-79.590,0.000
1737562803.695,-240.723,-91.309,22.461,41.504,0.000
1737562803.699,-548.340,-101.074,10.254,206.055,0.000
1737562803.703,583.984,-97.168,10.254,482.910,0.000
1737562803.707,999.512,-122.070,17.578,575.195,0.000
1737562803.711,914.062,-138.672,15.625,604.492,0.000
1737562803.715,769.043,-125.000,11.230,783.203,0.000
1737562803.718,863.281,-108.887,15.137,950.195,0.000
1737562803.722,985.352,-104.492,3.418,972.656,0.000
1737562803.726,955.078,-112.793,3.906,966.309,0.000
1737562803.730,988.770,-132.324,8.301,971.680,0.000
1737562803.734,532.227,-152.344,-12.207,970.703,0.000
1737562803.738,328.613,-148.926,-31.250,970.703,0.000
1737562803.742,858.887,-123.047,-25.391,970.703,0.000
1737562803.746,999.512,-109.863,-15.625,970.703,0.000
1737562803.750,949.707,-118.164,-18.555,970.703,0.000
1737562803.754,972.656,-131.836,-13.672,970.703,0.000
1737562803.757,970.215,-145.996,-11.719,970.703,0.000
1737562803.761,971.680,-157.227,-20.508,970.703,0.000
1737562803.765,956.543,-156.738,-20.508,970.703,0.000
1737562803.769,995.117,-145.020,-15.137,970.703,0.000
1737562803.773,890.625,-141.113,-22.461,970.703,0.000
1737562803.777,643.555,-152.832,-27.832,970.703,0.000
1737562803.781,826.660,-161.621,-34.180,970.703,0.000
1737562803.785,995.117,-171.875,-35.156,970.703,0.000
1737562803.789,0.000,-193.848,-35.156,970.703,0.000
1737562803.793,0.000,-212.891,-41.504,970.703,0.000
1737562803.797,0.000,-212.891,-43.457,970.703,0.000
1737562803.800,0.000,-208.008,-46.875,970.703,0.000
1737562803.804,0.000,-215.332,-41.016,970.703,0.000
1737562803.808,0.000,-227.051,-47.363,970.703,0.000
1737562803.812,0.000,-240.234,-63.965,970.703,0.000
1737562803.816,0.000,-262.695,-69.336,970.703,0.000
1737562803.820,0.000,-285.645,-81.055,970.703,0.000
1737562803.824,0.000,-291.992,-88.379,970.703,0.000
1737562803.828,0.000,-291.504,-103.027,970.703,0.000
1737562803.832,0.000,-308.594,-122.070,970.703,0.000
1737562803.836,969.727,-323.730,-135.254,970.703,0.000
1737562803.839,468.262,-331.055,-128.906,970.703,0.000
1737562803.843,135.254,-333.984,-132.324,970.703,0.000
1737562803.847,711.914,-337.402,-138.672,970.703,0.000
1737562803.851,981.934,-343.750,-132.812,970.703,0.000
1737562803.855,988.770,-340.332,-136.719,970.703,0.000
1737562803.859,795.410,-335.938,-141.113,970.703,0.000
1737562803.863,125.977,-335.449,-144.043,970.703,0.000
1737562803.867,325.684,-335.938,-145.020,970.703,0.000
1737562803.871,919.922,-338.867,-135.254,970.703,0.000
1737562803.874,999.512,-343.262,-116.211,970.703,0.000
1737562803.878,659.668,-333.008,-120.117,970.703,0.000
1737562803.882,850.586,-309.082,-137.207,970.703,0.000
1737562803.886,995.605,-303.711,-134.766,970.703,0.000
1737562803.890,881.836,-309.570,-118.164,970.703,0.000
1737562803.894,33.691,-308.594,-109.863,970.703,0.000
1737562803.898,-734.375,-306.152,-118.652,970.703,0.000
1737562803.902,-170.898,-295.898,-114.258,970.703,0.000
1737562803.906,589.355,-280.273,-108.887,970.703,0.000
1737562803.910,344.238,-270.020,-115.234,970.703,0.000
1737562803.914,-591.797,-275.391,-106.445,970.703,0.000
1737562803.917,-631.836,-290.527,-95.703,970.703,0.000
1737562803.921,463.867,-281.250,-94.727,970.703,0.000
1737562803.925,984.375,-255.371,-98.145,970.703,0.000
1737562803.929,996.094,-241.699,-102.051,970.703,0.000
1737562803.933,748.535,-238.281,-86.914,970.703,0.000
1737562803.937,326.172,-248.047,-77.637,970.703,0.000
1737562803.941,714.355,-250.977,-93.262,970.703,0.000
1737562803.945,994.629,-248.535,-99.121,970.703,0.000
1737562803.949,975.586,-239.258,-105.469,970.703,0.000
1737562803.953,651.367,-243.164,-104.492,970.703,0.000
1737562803.957,-42.969,-256.836,-105.469,970.703,0.000
1737562803.960,25.879,-253.418,-107.422,970.703,0.000
1737562803.964,790.527,-251.465,-103.516,970.703,0.000
1737562803.968,787.109,-256.348,-100.586,970.703,0.000
1737562803.972,-297.852,-269.043,-103.516,970.703,0.000
1737562803.976,-1000.000,-266.602,-104.980,970.703,0.000
1737562803.980,-898.438,-253.906,-98.633,970.703,0.000
1737562803.984,-196.289,-262.207,-91.797,970.703,0.000
1737562803.988,278.809,-251.953,-89.844,970.703,0.000
1737562803.992,-368.164,-234.375,-89.844,970.703,0.000
1737562803.996,-978.516,-228.027,-93.750,970.703,0.000
1737562804.000,-609.863,-225.586,-94.238,970.703,0.000
1737562804.003,195.801,-230.957,-97.656,970.703,0.000
1737562804.007,581.543,-237.305,-91.309,970.703,0.000
1737562804.011,-71.289,-231.934,-80.566,970.703,0.000
1737562804.015,-739.258,-225.586,-86.426,970.703,0.000
1737562804.019,-641.602,-228.516,-93.262,970.703,0.000
1737562804.023,51.758,-228.027,-90.820,970.703,0.000
1737562804.027,557.129,-223.633,-92.773,970.703,0.000
1737562804.031,55.664,-223.145,-89.355,970.703,0.000
1737562804.035,-659.668,-225.098,-73.242,970.703,0.000
1737562804.039,-742.676,-224.609,-66.895,970.703,0.000
1737562804.043,-160.645,-231.445,-68.848,970.703,0.000
1737562804.046,645.020,-228.516,-75.684,970.703,0.000
1737562804.050,309.570,-218.262,-74.707,970.703,0.000
1737562804.054,-804.688,-224.121,-59.570,970.703,0.000
1737562804.058,-1000.000,-215.332,-50.781,970.703,0.000
1737562804.062,-439.453,-199.219,-60.059,970.703,0.000
1737562804.066,243.652,-205.078,-77.148,970.703,0.000
1737562804.070,-125.000,-203.125,-81.055,970.703,0.000
1737562804.074,-826.172,-198.730,-66.406,970.703,0.000
1737562804.078,-1000.000,-222.656,-62.012,972.168,0.000
1737562804.082,-501.953,-222.656,-64.941,962.402,0.000
1737562804.086,374.512,-203.125,-60.547,978.027,0.000
1737562804.089,125.977,-200.195,-68.848,934.082,0.000
1737562804.093,-771.973,-208.008,-71.289,680.176,0.000
1737562804.097,-1000.000,-226.074,-63.477,570.801,0.000
1737562804.101,-755.859,-230.469,-77.637,602.539,0.000
1737562804.105,-75.684,-219.238,-93.750,644.531,0.000
1737562804.109,-167.480,-209.961,-94.238,517.090,0.000
1737562804.113,-920.410,-212.891,-90.820,194.824,0.000
1737562804.117,-1000.000,-217.773,-83.008,141.113,0.000
1737562804.121,-996.094,-215.332,-74.707,164.062,0.000
1737562804.125,-454.102,-196.289,-66.895,287.598,0.000
1737562804.129,-366.211,-188.477,-67.871,296.387,0.000
1737562804.132,-998.535,-200.684,-72.266,-53.223,0.000
1737562804.136,-986.816,-189.941,-65.918,-135.742,0.000
1737562804.140,-1000.000,-178.711,-67.871,-103.027,0.000
1737562804.144,-608.887,-183.105,-65.430,-84.961,0.000
1737562804.148,-143.066,-190.918,-67.383,-168.945,0.000
1737562804.152,-681.641,-198.242,-69.824,-368.164,0.000
1737562804.156,-1000.000,-199.707,-65.918,-299.316,0.000
1737562804.160,-626.953,-187.988,-68.848,-134.277,0.000
1737562804.164,0.000,-172.852,0.000,0.000,0.000
1737562804.168,0.000,-162.109,0.000,0.000,0.000
1737562804.172,0.000,-160.156,0.000,0.000,0.000
1737562804.175,0.000,-155.762,0.000,0.000,0.000
1737562804.179,0.000,-151.367,0.000,0.000,0.000
1737562804.183,0.000,-148.438,0.000,0.000,0.000
1737562804.187,0.000,-150.391,0.000,0.000,0.000
1737562804.191,0.000,-157.227,0.000,0.000,0.000
1737562804.195,0.000,-146.484,0.000,0.000,0.000
1737562804.199,0.000,-137.695,0.000,0.000,0.000
1737562804.203,0.000,-141.113,0.000,0.000,0.000
1737562804.207,0.000,-136.230,0.000,0.000,0.000
1737562804.211,-37.598,-141.113,-43.457,196.777,0.000
1737562804.214,-847.168,-145.020,-46.875,-43.457,0.000
1737562804.218,-998.535,-132.812,-37.598,-41.016,0.000
1737562804.222,-225.098,-115.723,-33.203,185.059,0.000
1737562804.226,785.645,-104.980,-24.414,333.496,0.000
1737562804.230,490.723,-102.539,-20.020,250.977,0.000
1737562804.234,-375.000,-111.816,-28.809,-3.418,0.000
1737562804.238,107.422,-123.047,-30.762,302.246,0.000
1737562804.242,843.262,-135.742,-23.438,931.152,0.000
1737562804.246,808.594,-135.254,-19.043,858.887,0.000
1737562804.249,416.992,-131.836,-27.344,395.996,0.000
1737562804.253,-489.258,-133.789,-24.902,322.754,0.000
1737562804.257,-572.754,-121.582,-14.160,637.695,0.000
1737562804.261,27.344,-123.535,-17.578,884.766,0.000
1737562804.265,347.656,-125.000,-20.996,982.422,0.000
1737562804.269,-160.645,-106.445,-20.020,857.422,0.000
1737562804.273,-966.797,-101.074,-16.602,597.168,0.000
1737562804.277,-1000.000,-102.539,-16.113,688.965,0.000
1737562804.281,-885.254,-98.633,-15.137,932.617,0.000
1737562804.285,-415.527,-103.516,-22.949,953.125,0.000
1737562804.289,-277.832,-111.328,-20.996,983.887,0.000
1737562804.292,-766.113,-99.609,-15.625,899.902,0.000
1737562804.296,-1000.000,-87.402,-20.020,731.934,0.000
1737562804.300,-978.027,-90.332,-15.625,755.371,0.000
1737562804.304,-515.625,-87.402,-12.695,857.422,0.000
1737562804.308,-271.484,-81.055,-8.789,808.594,0.000
1737562804.312,-620.605,-77.148,-8.789,774.902,0.000
1737562804.316,-961.426,-79.102,-16.113,889.160,0.000
1737562804.320,-755.859,-78.125,-26.855,925.781,0.000
1737562804.324,182.129,-61.035,-27.832,958.496,0.000
1737562804.328,611.328,-56.152,-23.926,977.051,0.000
1737562804.332,287.598,-63.965,-21.484,962.402,0.000
1737562804.335,-398.438,-77.637,-14.648,804.688,0.000
1737562804.339,-364.258,-82.520,-14.648,828.125,0.000
1737562804.343,631.836,-77.148,-18.066,967.773,0.000
1737562804.347,903.320,-71.289,-6.836,976.562,0.000
1737562804.351,420.410,-62.988,-5.371,953.125,0.000
1737562804.355,-459.473,-64.941,-7.812,727.051,0.000
1737562804.359,-487.305,-58.594,-2.441,755.859,0.000
1737562804.363,557.129,-50.293,2.441,971.191,0.000
1737562804.367,913.574,-50.781,-4.883,943.359,0.000
1737562804.371,227.051,-59.570,-14.160,761.230,0.000
1737562804.375,-713.867,-69.824,-6.348,474.121,0.000
1737562804.378,-981.445,-69.336,-3.418,359.375,0.000
1737562804.382,-310.059,-61.523,-4.395,545.410,0.000
1737562804.386,429.199,-60.547,-15.625,728.027,0.000
1737562804.390,-38.086,-57.129,-18.066,688.477,0.000
1737562804.394,-834.961,-69.336,-9.766,549.316,0.000
1737562804.398,-1000.000,-74.707,-3.906,420.410,0.000
1737562804.402,-572.266,-68.848,-3.906,451.172,0.000
1737562804.406,-17.578,-66.406,-16.602,534.180,0.000
1737562804.410,-237.305,-55.176,-8.301,508.789,0.000
1737562804.414,-856.445,-59.570,6.836,436.035,0.000
1737562804.418,-1000.000,-60.059,2.441,393.066,0.000
1737562804.421,-750.488,-59.570,3.418,576.660,0.000
1737562804.425,-345.215,-61.035,0.000,636.719,0.000
1737562804.429,-591.797,-60.547,1.465,455.566,0.000
1737562804.433,-913.086,-59.570,12.695,410.156,0.000
1737562804.437,-1000.000,-65.430,-0.488,254.395,0.000
1737562804.441,-790.039,-69.824,-6.836,221.191,0.000
1737562804.445,308.105,-56.641,3.418,395.020,0.000
1737562804.449,499.023,-57.129,0.000,330.078,0.000
1737562804.453,-242.188,-63.477,0.488,325.195,0.000
1737562804.457,-460.938,-57.617,-4.883,277.344,0.000
1737562804.461,-217.773,-63.965,-7.812,104.492,0.000
1737562804.464,600.098,-59.082,-0.977,207.031,0.000
1737562804.468,916.016,-57.129,-2.930,234.863,0.000
1737562804.472,-71.777,-75.684,-1.953,-63.965,0.000
1737562804.476,-630.859,-81.543,7.324,-70.312,0.000
1737562804.480,-52.246,-72.754,9.766,223.145,0.000
1737562804.484,613.770,-63.477,-0.488,236.328,0.000
1737562804.488,430.664,-75.195,-0.488,92.285,0.000
1737562804.492,-472.168,-80.566,4.883,-83.984,0.000
1737562804.496,-1000.000,-64.453,4.883,-308.594,0.000
1737562804.500,-748.047,-58.594,2.441,-117.188,0.000
1737562804.504,399.414,-56.152,3.906,239.746,0.000
1737562804.507,635.742,-59.082,4.395,122.559,0.000
1737562804.511,-364.746,-69.824,6.348,-179.688,0.000
1737562804.515,-783.691,-67.383,13.672,-246.094,0.000
1737562804.519,-483.887,-55.176,11.230,-153.320,0.000
1737562804.523,225.098,-49.316,4.883,89.844,0.000
1737562804.527,691.895,-61.035,5.371,193.848,0.000
1737562804.531,-43.945,-73.242,0.000,-66.406,0.000
1737562804.535,-948.242,-71.289,12.207,-150.879,0.000
1737562804.539,-888.672,-61.523,18.555,-67.871,0.000
1737562804.543,-314.941,-54.199,-7.324,-73.242,0.000
1737562804.547,201.172,-39.551,-12.207,-0.977,0.000
1737562804.550,-143.555,-31.738,-4.883,-19.043,0.000
1737562804.554,-848.633,-40.527,-8.789,-77.637,0.000
1737562804.558,-1000.000,-42.480,-9.766,-39.551,0.000
1737562804.562,-796.875,-56.152,-6.348,92.285,0.000
1737562804.566,-300.293,-52.246,-4.395,246.582,0.000
1737562804.570,-606.934,-43.945,-4.883,178.711,0.000
1737562804.574,-1000.000,-40.527,0.977,-0.977,0.000
1737562804.578,-987.305,-48.828,-3.906,93.750,0.000
1737562804.582,-1000.000,-62.988,-10.742,246.582,0.000
1737562804.586,-875.488,-54.199,-1.465,339.355,0.000
1737562804.590,-898.926,-52.246,2.441,337.402,0.000
1737562804.593,-1000.000,-55.176,-2.930,247.070,0.000
1737562804.597,-993.652,-45.410,-7.812,289.551,0.000
1737562804.601,-1000.000,-46.387,5.371,437.500,0.000
1737562804.605,-1000.000,-52.246,9.766,506.348,0.000
1737562804.609,-1000.000,-47.852,-12.695,279.297,0.000
1737562804.613,-1000.000,-52.246,-18.555,187.500,0.000
1737562804.617,-1000.000,-52.246,-10.254,381.348,0.000
1737562804.621,-1000.000,-66.895,-14.160,409.180,0.000
1737562804.625,-1000.000,-67.383,2.930,569.824,0.000
1737562804.628,-1000.000,-49.316,16.113,657.715,0.000
1737562804.632,-1000.000,-64.453,-2.441,444.336,0.000
1737562804.636,-1000.000,-62.500,-16.113,411.621,0.000
1737562804.640,-1000.000,-50.781,-27.832,451.172,0.000
1737562804.644,-1000.000,-61.035,-41.016,429.199,0.000
1737562804.648,-1000.000,-63.477,-26.855,433.105,0.000
1737562804.652,-1000.000,-51.758,-5.859,403.809,0.000
1737562804.656,-1000.000,-48.340,0.000,461.914,0.000
1737562804.660,-1000.000,-51.758,-4.395,373.047,0.000
1737562804.664,-1000.000,-58.105,-7.324,442.383,0.000
1737562804.667,-1000.000,-61.035,1.465,501.465,0.000
1737562804.671,-1000.000,-50.293,-10.254,370.117,0.000
1737562804.675,-1000.000,-44.922,-24.902,359.863,0.000
1737562804.679,-1000.000,-53.223,-18.066,441.895,0.000
1737562804.683,-1000.000,-48.828,-4.883,402.344,0.000
1737562804.687,-1000.000,-47.363,0.488,334.473,0.000
1737562804.691,-1000.000,-39.551,5.859,303.223,0.000
1737562804.695,-1000.000,-32.227,3.418,201.172,0.000
1737562804.699,-998.047,-33.691,-5.371,297.852,0.000
1737562804.703,-1000.000,-35.156,-10.254,355.957,0.000
1737562804.707,-979.004,-43.945,-10.742,330.566,0.000
1737562804.710,-968.750,-43.945,-8.301,262.695,0.000
1737562804.714,-930.176,-35.645,-0.488,189.453,0.000
1737562804.718,-592.773,-43.945,-8.301,272.461,0.000
1737562804.722,-152.832,-44.922,-23.438,291.016,0.000
1737562804.726,278.809,-25.879,-15.137,260.742,0.000
1737562804.730,115.723,-26.855,-9.277,173.340,0.000
1737562804.734,-413.086,-29.297,-10.742,61.523,0.000
1737562804.738,-596.191,-25.391,-0.488,83.984,0.000
1737562804.742,-444.336,-37.598,-6.348,139.160,0.000
1737562804.746,-119.629,-35.645,-14.648,193.359,0.000
1737562804.750,-236.328,-24.414,-3.418,249.023,0.000
1737562804.753,-840.332,-23.926,1.953,-60.547,0.000
1737562804.757,-1000.000,-3.906,17.578,-127.441,0.000
1737562804.761,-978.516,-14.160,15.137,125.000,0.000
1737562804.765,-1000.000,-44.922,-13.672,161.133,0.000
1737562804.769,-1000.000,-34.668,-12.695,161.133,0.000
1737562804.773,-1000.000,-27.344,-14.648,-16.602,0.000
1737562804.777,-1000.000,-33.691,-19.043,-104.492,0.000
1737562804.781,-1000.000,-37.598,0.488,154.297,0.000
1737562804.785,-1000.000,-44.434,9.766,210.449,0.000
1737562804.789,-1000.000,-19.043,0.977,132.324,0.000
1737562804.793,-1000.000,-8.301,-0.977,253.906,0.000
1737562804.796,-1000.000,-22.949,0.488,289.551,0.000
1737562804.800,-1000.000,-20.508,3.418,263.672,0.000
1737562804.804,-1000.000,-18.066,2.930,307.617,0.000
1737562804.808,-1000.000,-31.250,-3.418,366.699,0.000
1737562804.812,-1000.000,-29.297,4.883,200.195,0.000
1737562804.816,-1000.000,-25.391,-4.883,-4.883,0.000
1737562804.820,-1000.000,-37.109,-13.184,161.133,0.000
1737562804.824,-1000.000,-29.297,-9.277,381.348,0.000
1737562804.828,-1000.000,-20.020,-16.602,324.219,0.000
1737562804.832,-1000.000,2.930,1.465,300.781,0.000
1737562804.836,-1000.000,16.602,-1.465,265.137,0.000
1737562804.839,-1000.000,-11.719,-6.348,268.555,0.000
1737562804.843,-1000.000,-22.949,1.465,313.965,0.000
1737562804.847,-1000.000,-24.414,-11.719,232.910,0.000
1737562804.851,-1000.000,-28.320,-17.090,187.012,0.000
1737562804.855,-1000.000,-23.438,-9.277,280.762,0.000
1737562804.859,-1000.000,-27.832,-9.766,504.883,0.000
1737562804.863,-1000.000,-39.062,-13.672,513.184,0.000
1737562804.867,-1000.000,-39.551,-7.324,406.250,0.000
1737562804.871,-1000.000,-23.926,-5.859,316.895,0.000
1737562804.875,-1000.000,-18.555,1.465,270.996,0.000
1737562804.879,-1000.000,-32.227,-7.324,276.855,0.000
1737562804.882,-1000.000,-45.898,-8.301,275.391,0.000
1737562804.886,-1000.000,-36.621,3.418,352.539,0.000
1737562804.890,-1000.000,-22.949,-17.090,249.023,0.000
1737562804.894,-1000.000,-16.602,-32.715,102.051,0.000
1737562804.898,-1000.000,-21.484,-15.137,208.496,0.000
1737562804.902,-1000.000,-17.578,-2.930,283.691,0.000
1737562804.906,-1000.000,-10.742,1.465,377.930,0.000
1737562804.910,-1000.000,-17.578,-5.371,261.719,0.000
1737562804.914,-1000.000,-16.113,-11.719,176.758,0.000
1737562804.918,-1000.000,-20.508,-10.254,309.082,0.000
1737562804.922,-1000.000,-22.461,-9.277,339.844,0.000
1737562804.925,-1000.000,-28.320,-8.789,431.152,0.000
1737562804.929,-1000.000,-23.926,-15.137,456.055,0.000
1737562804.933,-1000.000,-15.625,-24.414,430.664,0.000
1737562804.937,-1000.000,-25.391,-28.320,378.906,0.000
1737562804.941,-1000.000,-20.020,-23.926,276.855,0.000
1737562804.945,-1000.000,-21.484,-19.531,370.117,0.000
1737562804.949,-1000.000,-20.508,-21.484,355.957,0.000
1737562804.953,-1000.000,-5.859,-7.324,263.672,0.000
1737562804.957,-1000.000,-15.625,-14.648,235.352,0.000
1737562804.961,-1000.000,-26.855,-23.438,289.551,0.000
1737562804.965,-1000.000,-14.648,-13.672,323.242,0.000
1737562804.968,-1000.000,-11.719,-27.344,410.156,0.000
1737562804.972,-1000.000,-13.672,-6.348,348.145,0.000
1737562804.976,-1000.000,-13.672,5.371,232.910,0.000
1737562804.980,-1000.000,-20.996,-14.648,340.820,0.000
1737562804.984,-1000.000,-13.672,-12.695,425.781,0.000
1737562804.988,-990.723,-10.254,-20.996,325.195,0.000
1737562804.992,-991.211,-11.719,-32.715,227.051,0.000
1737562804.996,-976.562,-13.672,-22.461,336.426,0.000
1737562805.000,-468.262,-17.578,-14.648,447.266,0.000
1737562805.003,392.090,-29.785,-20.996,550.781,0.000
1737562805.008,954.102,-16.113,-24.902,708.008,0.000
1737562805.011,827.148,11.230,-30.273,699.707,0.000
1737562805.015,116.211,-0.488,-36.133,442.383,0.000
1737562805.019,65.918,-14.160,-26.855,358.887,0.000
1737562805.023,768.555,-2.930,-18.555,602.539,0.000
1737562805.027,999.512,-8.301,-20.508,738.770,0.000
1737562805.031,946.777,-20.020,-23.926,539.551,0.000
1737562805.035,970.703,-13.672,-23.926,406.250,0.000
1737562805.039,970.703,-18.066,-18.555,583.984,0.000
1737562805.043,969.727,-16.113,-21.484,600.586,0.000
1737562805.046,969.727,-1.465,-24.902,603.516,0.000
1737562805.050,969.727,-10.254,-17.578,647.461,0.000
1737562805.054,0.000,-24.414,-6.348,736.816,0.000
1737562805.058,0.000,-24.414,-3.906,720.215,0.000
1737562805.062,0.000,-20.508,-13.672,589.844,0.000
1737562805.066,0.000,-2.441,-30.762,629.883,0.000
1737562805.070,0.000,8.789,-17.090,750.488,0.000
1737562805.074,0.000,12.695,-14.648,756.836,0.000
1737562805.078,0.000,4.395,-31.250,749.023,0.000
1737562805.082,0.000,-11.230,-25.879,828.125,0.000
1737562805.086,0.000,-15.137,-27.832,952.637,0.000
1737562805.089,0.000,-19.043,-38.574,917.480,0.000
1737562805.093,0.000,-9.277,-43.457,751.953,0.000
1737562805.097,0.000,0.488,-33.691,871.582,0.000
1737562805.101,970.215,-11.719,-38.574,985.840,0.000
1737562805.105,970.215,-16.113,-50.293,964.844,0.000
1737562805.109,970.215,-8.789,-44.434,969.727,0.000
1737562805.113,970.215,-17.578,-41.504,971.191,0.000
1737562805.117,970.215,-10.742,-36.621,970.703,0.000
1737562805.121,969.727,-5.371,-30.273,970.703,0.000
1737562805.125,969.727,-8.301,-30.273,970.703,0.000
1737562805.128,970.215,2.441,-27.344,970.703,0.000
1737562805.132,970.215,2.930,-23.926,970.703,0.000
1737562805.136,969.727,-7.812,-26.367,971.191,0.000
1737562805.140,970.215,-7.812,-26.855,964.355,0.000
1737562805.144,970.215,-4.395,-17.090,977.539,0.000
1737562805.148,0.000,-9.766,3.906,938.477,0.000
1737562805.152,0.000,-10.254,-1.953,718.750,0.000
1737562805.156,0.000,-1.953,-27.344,741.699,0.000
1737562805.160,0.000,5.859,-41.016,813.965,0.000
1737562805.164,0.000,0.000,-41.992,714.355,0.000
1737562805.168,0.000,-13.184,-34.180,771.484,0.000
1737562805.171,0.000,-11.719,-21.973,695.312,0.000
1737562805.175,0.000,4.883,-19.043,497.070,0.000
1737562805.179,0.000,9.277,-25.879,432.617,0.000
1737562805.183,0.000,9.277,-36.133,538.574,0.000
1737562805.187,0.000,-14.160,-38.574,660.645,0.000
1737562805.191,0.000,-20.508,-34.180,577.148,0.000
1737562805.195,969.727,-0.488,-40.039,464.844,0.000
1737562805.199,970.215,-5.859,-33.691,568.848,0.000
1737562805.203,969.727,-1.953,-37.109,680.664,0.000
1737562805.207,969.727,3.418,-36.133,665.039,0.000
1737562805.211,970.215,5.371,-27.344,670.898,0.000
1737562805.214,969.727,-8.789,-24.902,619.629,0.000
1737562805.218,969.727,-15.625,-20.020,644.043,0.000
1737562805.222,969.727,-11.719,-20.996,670.410,0.000
1737562805.226,969.727,-0.977,-36.621,565.918,0.000
1737562805.230,970.215,5.371,-38.574,509.766,0.000
1737562805.234,970.215,0.977,-30.762,495.605,0.000
1737562805.238,970.215,-0.488,-36.621,537.598,0.000
1737562805.242,970.215,-0.488,0.000,494.141,0.000
1737562805.246,970.215,-0.977,0.000,447.266,0.000
1737562805.250,970.215,-7.324,0.000,424.805,0.000
1737562805.254,970.215,-12.695,0.000,576.172,0.000
1737562805.257,970.215,-7.812,0.000,660.645,0.000
1737562805.261,969.727,-1.465,0.000,437.012,0.000
1737562805.265,969.727,-8.301,0.000,407.227,0.000
1737562805.269,969.727,-11.719,0.000,500.977,0.000
1737562805.273,969.727,0.977,0.000,482.910,0.000
1737562805.277,969.727,0.488,0.000,405.273,0.000
1737562805.281,970.215,-14.648,0.000,509.277,0.000
1737562805.285,970.215,-10.742,0.000,631.348,0.000
1737562805.289,0.000,4.883,-8.301,630.859,0.000
1737562805.293,0.000,0.488,-3.418,530.762,0.000
1737562805.297,0.000,-0.488,-9.766,490.723,0.000
1737562805.300,0.000,-0.488,-11.230,592.773,0.000
1737562805.304,0.000,-6.836,-6.836,594.727,0.000
1737562805.308,0.000,-1.953,-5.859,504.883,0.000
1737562805.312,0.000,13.184,-3.418,307.129,0.000
1737562805.316,0.000,8.301,2.930,199.707,0.000
1737562805.320,0.000,-4.395,6.836,241.699,0.000
1737562805.324,0.000,-25.879,8.789,390.625,0.000
1737562805.328,0.000,-34.180,9.766,492.676,0.000
1737562805.332,0.000,-20.508,9.277,351.562,0.000
1737562805.336,970.215,-11.230,10.254,241.699,0.000
1737562805.339,970.215,0.488,8.301,250.488,0.000
1737562805.343,970.215,9.766,14.160,370.605,0.000
1737562805.347,974.609,-0.977,20.508,397.461,0.000
1737562805.351,913.086,-10.254,21.484,348.633,0.000
1737562805.355,999.512,-10.254,24.902,307.617,0.000
1737562805.359,443.848,-10.254,25.391,206.543,0.000
1737562805.363,-854.980,-23.438,32.715,278.809,0.000
1737562805.367,-1000.000,-30.762,34.180,432.129,0.000
1737562805.371,-958.984,-23.926,12.695,244.629,0.000
1737562805.374,-1000.000,-18.555,16.113,138.184,0.000
1737562805.378,-1000.000,-31.738,33.203,300.781,0.000
1737562805.382,-1000.000,-34.180,0.000,266.602,0.000
1737562805.386,-1000.000,-26.855,0.000,252.441,0.000
1737562805.390,-1000.000,-36.133,0.000,268.066,0.000
1737562805.394,-1000.000,-29.297,0.000,146.973,0.000
1737562805.398,-1000.000,-29.785,0.000,21.484,0.000
1737562805.402,-1000.000,-29.297,0.000,-23.438,0.000
1737562805.406,-1000.000,-16.113,0.000,98.145,0.000
1737562805.410,-1000.000,-20.020,0.000,101.562,0.000
1737562805.413,-1000.000,-27.832,0.000,35.645,0.000
1737562805.417,-1000.000,-24.902,0.000,-16.602,0.000
1737562805.421,-1000.000,-25.391,0.000,-83.008,0.000
1737562805.425,-1000.000,-30.762,0.000,-72.266,0.000
1737562805.429,-1000.000,-30.273,0.488,-137.695,0.000
1737562805.433,-1000.000,-28.809,0.488,-212.891,0.000
1737562805.437,-1000.000,-11.230,-3.906,-181.641,0.000
1737562805.441,-1000.000,-10.742,0.488,-91.797,0.000
1737562805.445,-1000.000,-23.438,-2.441,-72.266,0.000
1737562805.449,-1000.000,-25.879,3.906,-75.195,0.000
1737562805.453,-1000.000,-26.855,10.742,-159.180,0.000
1737562805.456,-1000.000,-23.926,-5.371,-272.949,0.000
1737562805.460,-1000.000,-21.973,-14.160,-262.695,0.000
1737562805.464,-1000.000,-19.531,-11.719,-321.777,0.000
1737562805.468,-1000.000,-31.738,-13.672,-495.117,0.000
1737562805.472,-1000.000,-34.668,-14.160,-432.617,0.000
1737562805.476,-1000.000,-31.738,-13.672,-394.043,0.000
1737562805.480,-1000.000,-34.668,-26.367,-342.773,0.000
1737562805.484,-1000.000,-18.066,-27.344,-309.570,0.000
1737562805.488,-1000.000,-4.883,-23.926,-389.160,0.000
1737562805.492,-1000.000,-5.859,-22.949,-441.895,0.000
1737562805.496,-1000.000,-12.207,-20.996,-526.855,0.000
1737562805.499,-1000.000,-15.137,-14.160,-379.883,0.000
1737562805.503,-1000.000,-16.602,-21.973,-253.418,0.000
1737562805.507,-1000.000,-17.578,-24.414,-405.762,0.000
1737562805.511,-1000.000,-19.531,-20.508,-515.625,0.000
1737562805.515,-1000.000,-24.414,-30.273,-454.590,0.000
1737562805.519,-1000.000,-32.227,-28.809,-379.395,0.000
1737562805.523,0.000,-30.273,-46.875,0.000,0.000
1737562805.527,0.000,-35.156,-49.805,0.000,0.000
1737562805.531,0.000,-14.160,-39.062,0.000,0.000
1737562805.535,0.000,1.465,-27.344,0.000,0.000
1737562805.539,0.000,-3.418,-17.578,0.000,0.000
1737562805.542,0.000,1.465,-25.391,0.000,0.000
1737562805.546,0.000,-7.324,-16.602,0.000,0.000
1737562805.550,0.000,-1.953,-8.789,0.000,0.000
1737562805.554,0.000,-9.277,-4.883,0.000,0.000
1737562805.558,0.000,-21.973,-6.836,0.000,0.000
1737562805.562,0.000,-8.789,-4.395,0.000,0.000
1737562805.566,0.000,-6.836,3.418,0.000,0.000
1737562805.570,494.629,-0.488,2.441,-376.465,0.000
1737562805.574,-482.910,3.418,-6.836,-359.863,0.000
1737562805.578,-755.859,-2.930,-5.859,-553.223,0.000
1737562805.581,117.188,-4.395,-0.488,-582.031,0.000
1737562805.585,869.629,0.000,-10.254,-446.289,0.000
1737562805.589,678.223,-1.953,-12.207,-585.449,0.000
1737562805.593,-217.773,-17.090,0.977,-624.512,0.000
1737562805.597,-883.789,-18.555,-0.977,-664.551,0.000
1737562805.601,-347.168,9.766,-11.719,-764.160,0.000
1737562805.605,655.762,8.301,-3.906,-815.918,0.000
1737562805.609,702.637,-8.301,-1.465,-866.699,0.000
1737562805.613,-140.625,-4.883,-6.836,-755.371,0.000
1737562805.617,-849.609,-0.977,-5.859,-1000.000,0.000
1737562805.621,-519.531,1.465,8.301,-1000.000,0.000
1737562805.624,317.383,-10.742,12.695,-1000.000,0.000
1737562805.628,331.543,-33.691,2.930,-1000.000,0.000
1737562805.632,-438.477,-20.996,3.906,-1000.000,0.000
1737562805.636,-960.938,1.953,-5.859,-998.047,0.000
1737562805.640,-984.863,10.742,-12.207,-1000.000,0.000
1737562805.644,-835.449,-7.812,-6.348,-989.746,0.000
1737562805.648,-886.719,-42.969,-7.324,-947.754,0.000
1737562805.652,-1000.000,-47.852,-19.531,-999.512,0.000
1737562805.656,-998.047,-44.922,-21.484,-940.430,0.000
1737562805.659,-998.047,-45.898,-14.648,-802.734,0.000
1737562805.664,-1000.000,-37.598,0.000,0.000,0.000
1737562805.667,-1000.000,-49.316,0.000,0.000,0.000
1737562805.671,-1000.000,-60.059,0.000,0.000,0.000
1737562805.675,-998.047,-54.199,0.000,0.000,0.000
1737562805.679,-1000.000,-69.336,0.000,0.000,0.000
1737562805.683,-993.652,-73.730,0.000,0.000,0.000
1737562805.687,-964.355,-62.988,0.000,0.000,0.000
1737562805.691,-991.211,-70.312,0.000,0.000,0.000
1737562805.695,-982.422,-73.242,0.000,0.000,0.000
1737562805.699,-1000.000,-55.176,0.000,0.000,0.000
1737562805.702,-704.102,-52.734,0.000,0.000,0.000
1737562805.706,-23.438,-55.664,0.000,0.000,0.000
1737562805.710,-339.355,-45.898,-23.438,-570.312,0.000
1737562805.714,-974.121,-44.922,-34.668,-620.605,0.000
1737562805.718,-1000.000,-55.664,-34.180,-613.770,0.000
1737562805.722,-575.684,-62.500,-35.645,-671.387,0.000
1737562805.726,346.191,-44.922,-42.480,-564.941,0.000
1737562805.730,405.273,-36.621,-41.992,-598.145,0.000
1737562805.734,-388.672,-44.434,-30.762,-570.312,0.000
1737562805.738,-614.258,-41.504,-38.574,-514.160,0.000
1737562805.742,-214.844,-54.199,-60.547,-716.797,0.000
1737562805.745,386.230,-61.035,-60.059,-731.934,0.000
1737562805.749,346.680,-48.828,-50.781,-810.547,0.000
1737562805.753,-426.270,-42.480,-55.176,-992.188,0.000
1737562805.757,-610.352,-35.645,-54.199,-1000.000,0.000
1737562805.761,-225.098,-35.156,-45.898,-966.797,0.000
1737562805.765,618.164,-43.945,-53.223,-834.961,0.000
1737562805.769,968.750,-52.734,-65.430,-836.426,0.000
1737562805.773,187.500,-39.551,-69.336,-958.496,0.000
1737562805.777,-266.602,-34.668,-68.359,-948.242,0.000
