timestamps,TP9,AF7,AF8,TP10,Right AUX
1737552806.442,95.703,-14.648,-26.855,-1000.000,0.000
1737552806.446,74.707,-36.621,-26.855,-1000.000,0.000
1737552806.450,104.492,-42.969,1.465,-1000.000,0.000
1737552806.454,122.070,-28.320,-4.883,-1000.000,0.000
1737552806.458,80.566,-30.273,-23.926,-1000.000,0.000
1737552806.461,34.668,-32.715,-60.547,-1000.000,0.000
1737552806.465,36.133,-38.574,-36.621,-1000.000,0.000
1737552806.469,54.688,-41.992,-2.930,-1000.000,0.000
1737552806.473,128.906,-2.930,-14.160,-1000.000,0.000
1737552806.477,195.801,25.879,-5.371,-1000.000,0.000
1737552806.481,150.391,3.906,-15.625,-1000.000,0.000
1737552806.485,153.320,-24.414,-39.062,-1000.000,0.000
1737552806.489,170.410,-64.453,-71.777,-1000.000,0.000
1737552806.493,201.172,-42.480,-49.805,-941.406,0.000
1737552806.497,261.719,-15.625,-10.254,-1000.000,0.000
1737552806.501,248.535,-14.160,20.020,-757.324,0.000
1737552806.504,359.863,53.711,36.621,644.531,0.000
1737552806.508,412.109,49.316,-5.371,999.512,0.000
1737552806.512,335.449,9.766,-15.137,909.180,0.000
1737552806.516,321.777,43.457,11.719,982.910,0.000
1737552806.520,296.875,44.434,12.695,970.703,0.000
1737552806.524,244.141,20.508,-16.602,970.703,0.000
1737552806.528,232.422,21.484,-7.812,970.703,0.000
1737552806.532,282.715,24.414,18.066,970.703,0.000
1737552806.536,317.383,13.672,16.602,970.703,0.000
1737552806.540,303.223,-1.465,17.090,970.703,0.000
1737552806.544,284.668,-4.395,5.371,970.703,0.000
1737552806.547,295.410,-16.602,-22.949,970.703,0.000
1737552806.551,354.980,-45.898,-69.336,970.703,0.000
1737552806.555,416.992,1.953,-24.414,970.703,0.000
1737552806.559,437.500,49.805,54.688,970.703,0.000
1737552806.563,431.152,42.969,0.488,970.703,0.000
1737552806.567,419.922,5.859,-105.957,970.703,0.000
1737552806.571,469.238,-29.297,-28.809,970.215,0.000
1737552806.575,539.062,-16.113,49.316,970.703,0.000
1737552806.579,550.293,-6.348,25.391,970.703,0.000
1737552806.583,599.609,-5.859,-4.883,970.703,0.000
1737552806.587,746.094,-35.645,-42.480,970.703,0.000
1737552806.590,895.508,-40.527,-26.367,970.703,0.000
1737552806.594,967.773,31.250,0.488,970.703,0.000
1737552806.598,968.750,43.457,-42.480,970.703,0.000
1737552806.602,968.262,24.902,-107.910,970.703,0.000
1737552806.606,970.215,-10.254,-78.613,970.703,0.000
1737552806.610,969.727,-73.730,0.488,970.703,0.000
1737552806.614,970.215,-58.105,55.176,970.703,0.000
1737552806.618,970.215,6.836,27.344,970.703,0.000
1737552806.622,970.215,19.043,14.160,970.703,0.000
1737552806.626,970.703,-11.719,0.977,970.703,0.000
1737552806.629,963.867,-22.949,-22.461,970.703,0.000
1737552806.633,978.027,-28.809,-6.836,970.703,0.000
1737552806.637,922.363,-71.777,-18.555,970.703,0.000
1737552806.641,745.605,-55.664,-8.789,970.703,0.000
1737552806.645,654.785,0.488,22.461,970.703,0.000
1737552806.649,639.648,-0.977,10.254,970.703,0.000
1737552806.653,671.387,-8.789,10.254,970.703,0.000
1737552806.657,675.781,-31.250,-18.555,970.703,0.000
1737552806.661,572.266,-62.012,-40.039,970.703,0.000
1737552806.665,524.902,-42.969,0.488,970.703,0.000
1737552806.668,541.504,-13.184,19.531,970.703,0.000
1737552806.672,561.035,-13.672,-1.465,970.703,0.000
1737552806.676,530.273,-24.414,-4.883,970.703,0.000
1737552806.680,392.578,-47.363,-2.930,970.703,0.000
1737552806.684,293.945,-49.805,0.488,970.703,0.000
1737552806.688,271.973,-41.016,-13.184,970.703,0.000
1737552806.692,272.461,-49.316,-24.902,970.703,0.000
1737552806.696,227.539,-76.172,-32.715,970.703,0.000
1737552806.700,90.820,-63.965,-9.766,970.703,0.000
1737552806.704,0.488,-30.762,15.137,970.703,0.000
1737552806.708,-15.137,-33.691,-32.227,970.703,0.000
1737552806.711,-49.805,-45.410,-49.316,970.703,0.000
1737552806.715,-76.660,-24.414,-2.441,970.703,0.000
1737552806.719,-108.887,-6.348,33.691,970.703,0.000
1737552806.723,-167.969,-16.113,-3.418,970.703,0.000
1737552806.727,-164.551,-35.645,-0.488,970.703,0.000
1737552806.731,-100.586,-25.391,26.855,970.703,0.000
1737552806.735,-59.082,-18.066,28.809,970.703,0.000
1737552806.739,-98.145,-79.590,0.977,970.703,0.000
1737552806.743,-155.273,-71.777,-58.105,970.703,0.000
1737552806.747,-139.160,11.230,-16.113,970.703,0.000
1737552806.751,-56.641,20.020,62.500,970.215,0.000
1737552806.754,-13.672,5.859,36.621,970.703,0.000
1737552806.758,-37.598,7.324,31.250,970.703,0.000
1737552806.762,-88.867,-19.043,47.363,970.703,0.000
1737552806.766,-96.680,-7.324,20.508,970.703,0.000
1737552806.770,-88.867,14.160,12.695,970.703,0.000
1737552806.774,-48.828,13.184,43.945,970.703,0.000
1737552806.778,-61.035,-1.465,47.852,970.703,0.000
1737552806.782,-136.230,-23.926,15.137,970.703,0.000
1737552806.786,-146.973,-5.371,-2.441,970.703,0.000
1737552806.790,-131.348,12.695,-15.625,970.703,0.000
1737552806.793,-130.859,3.418,16.113,970.703,0.000
1737552806.797,-169.434,-26.367,59.570,970.703,0.000
1737552806.801,-235.840,-45.898,40.527,970.703,0.000
1737552806.805,-275.879,-29.297,20.996,970.703,0.000
1737552806.809,-247.070,-53.711,-0.488,970.703,0.000
1737552806.813,-227.539,-54.688,-14.160,970.703,0.000
1737552806.817,-253.906,7.324,1.465,970.703,0.000
1737552806.821,-274.902,8.301,39.551,970.703,0.000
1737552806.825,-272.949,10.254,95.703,970.703,0.000
1737552806.829,-220.703,35.156,71.777,970.703,0.000
1737552806.833,-161.133,29.785,36.133,970.703,0.000
1737552806.836,-146.973,-0.488,69.336,970.703,0.000
1737552806.840,-223.145,-46.387,43.945,970.703,0.000
1737552806.844,-229.492,-8.789,21.484,970.703,0.000
1737552806.848,-171.875,36.621,50.781,970.703,0.000
1737552806.852,-134.277,25.879,54.688,970.703,0.000
1737552806.856,-103.027,-0.488,41.992,970.703,0.000
1737552806.860,-166.016,-22.461,38.086,970.703,0.000
1737552806.864,-225.098,-17.090,26.367,970.703,0.000
1737552806.868,-209.473,-2.930,38.574,970.703,0.000
1737552806.872,-198.242,0.488,15.137,970.703,0.000
1737552806.876,-206.543,-16.113,-6.348,970.703,0.000
1737552806.879,-249.023,-54.199,36.133,970.703,0.000
1737552806.883,-288.086,-55.664,49.316,970.703,0.000
1737552806.887,-280.273,-24.902,42.480,970.703,0.000
1737552806.891,-227.051,0.000,19.043,970.703,0.000
1737552806.895,-173.340,-6.836,-11.719,970.703,0.000
1737552806.899,-199.219,-20.508,-38.574,970.703,0.000
1737552806.903,-244.629,0.488,-80.566,970.703,0.000
1737552806.907,-236.816,1.953,-54.688,970.703,0.000
1737552806.911,-204.102,-9.277,-15.625,970.703,0.000
1737552806.915,-171.875,-50.781,-94.727,970.703,0.000
1737552806.918,-199.219,-63.965,-109.863,970.703,0.000
1737552806.922,-269.531,-59.082,-111.816,970.703,0.000
1737552806.926,-279.297,-92.773,-115.723,970.703,0.000
1737552806.930,-208.496,-40.527,-15.137,970.703,0.000
1737552806.934,-157.227,16.602,0.977,970.703,0.000
1737552806.938,-182.617,-8.301,-61.035,970.703,0.000
1737552806.942,-237.793,-27.832,-92.773,970.703,0.000
1737552806.946,-244.141,-34.668,-106.445,970.703,0.000
1737552806.950,-204.590,-33.203,-113.281,970.703,0.000
1737552806.954,-177.246,-30.762,-79.102,970.703,0.000
1737552806.958,-208.496,-23.926,-72.754,970.703,0.000
1737552806.961,-275.879,-36.133,-88.379,970.703,0.000
1737552806.965,-294.434,-46.875,-95.703,970.703,0.000
1737552806.969,-277.344,-47.363,-104.980,970.703,0.000
1737552806.973,-227.539,-38.574,-68.359,970.703,0.000
1737552806.977,-218.262,-36.621,-86.914,970.703,0.000
1737552806.981,-278.809,-87.891,-95.215,979.980,0.000
1737552806.985,-314.453,-97.168,-61.523,921.875,0.000
1737552806.989,-310.059,-42.480,-65.430,999.512,0.000
1737552806.993,-273.926,-9.277,-44.434,760.254,0.000
1737552806.997,-394.531,-42.969,-39.551,-571.289,0.000
1737552807.000,-465.820,-81.055,-66.406,-1000.000,0.000
1737552807.004,-398.438,-60.059,-75.684,-943.848,0.000
1737552807.008,-362.305,-29.297,-66.895,-1000.000,0.000
1737552807.012,-298.340,-40.527,-44.434,-1000.000,0.000
1737552807.016,-272.949,-53.223,-16.113,-1000.000,0.000
1737552807.020,-302.734,-34.668,-49.316,-1000.000,0.000
1737552807.024,-308.105,-32.227,-34.180,-1000.000,0.000
1737552807.028,-300.293,-44.922,-4.395,-1000.000,0.000
1737552807.032,-284.668,-73.730,-26.367,-1000.000,0.000
1737552807.036,-261.719,-62.988,-45.410,-1000.000,0.000
1737552807.040,-299.805,-15.625,-42.480,-1000.000,0.000
1737552807.043,-338.379,-26.855,-39.062,-1000.000,0.000
1737552807.047,-342.773,-40.039,-53.711,-1000.000,0.000
1737552807.051,-279.785,-7.812,-20.020,-1000.000,0.000
1737552807.055,-208.984,-3.906,15.625,-1000.000,0.000
1737552807.059,-267.578,-41.504,-9.766,-1000.000,0.000
1737552807.063,-307.129,-36.133,-15.137,-1000.000,0.000
1737552807.067,-284.668,-15.625,17.578,-1000.000,0.000
1737552807.071,-253.418,9.766,3.418,-1000.000,0.000
1737552807.075,-225.586,-6.348,-4.395,-1000.000,0.000
1737552807.079,-247.070,-41.016,-23.438,-1000.000,0.000
1737552807.082,-287.109,-24.902,-32.715,-1000.000,0.000
1737552807.086,-285.156,-30.762,-4.395,-1000.000,0.000
1737552807.090,-230.469,-29.297,11.719,-1000.000,0.000
1737552807.094,-171.387,-0.488,16.113,-1000.000,0.000
1737552807.098,-173.828,-12.695,-9.277,-1000.000,0.000
1737552807.102,-218.750,-36.621,-37.598,-1000.000,0.000
1737552807.106,-215.820,-18.066,-56.152,-1000.000,0.000
1737552807.110,-147.949,10.254,-5.371,-1000.000,0.000
1737552807.114,-93.750,14.160,47.363,-1000.000,0.000
1737552807.118,-103.027,13.672,12.695,-1000.000,0.000
1737552807.122,-162.598,-2.930,-6.836,-1000.000,0.000
1737552807.125,-183.105,-37.598,0.000,-1000.000,0.000
1737552807.129,-177.246,-41.504,-13.672,-1000.000,0.000
1737552807.133,-149.902,-18.555,5.371,-1000.000,0.000
1737552807.137,-121.582,4.883,27.344,-1000.000,0.000
1737552807.141,-180.176,-3.418,20.508,-1000.000,0.000
1737552807.145,-202.637,-18.555,-6.836,-1000.000,0.000
1737552807.149,-173.828,-32.715,-8.301,-1000.000,0.000
1737552807.153,-157.227,-38.086,-14.648,-1000.000,0.000
1737552807.157,-151.855,-21.484,-15.137,-1000.000,0.000
1737552807.161,-162.598,-8.789,13.672,-1000.000,0.000
1737552807.165,-160.156,3.418,9.277,-1000.000,0.000
1737552807.168,-130.371,17.090,-3.418,-1000.000,0.000
1737552807.172,-86.426,11.719,7.324,-1000.000,0.000
1737552807.176,-53.223,0.977,1.465,-1000.000,0.000
1737552807.180,-58.105,-27.832,20.508,-1000.000,0.000
1737552807.184,-47.363,-47.363,32.227,-1000.000,0.000
1737552807.188,-13.672,-28.809,-9.766,-1000.000,0.000
1737552807.192,35.645,14.160,18.066,-1000.000,0.000
1737552807.196,62.988,47.363,41.504,-1000.000,0.000
1737552807.200,36.133,32.715,16.113,-1000.000,0.000
1737552807.204,15.137,28.809,7.324,-1000.000,0.000
1737552807.207,20.996,22.949,8.789,-1000.000,0.000
1737552807.211,72.754,22.461,-7.812,-1000.000,0.000
1737552807.215,109.863,33.203,-49.316,-1000.000,0.000
1737552807.219,45.898,-5.371,-56.152,-1000.000,0.000
1737552807.223,6.836,-29.297,8.301,-1000.000,0.000
1737552807.227,20.508,-15.137,47.363,-1000.000,0.000
1737552807.231,41.504,-1.953,32.715,-1000.000,0.000
1737552807.235,68.848,13.184,36.621,-1000.000,0.000
1737552807.239,-19.531,2.930,20.508,-1000.000,0.000
1737552807.243,-133.789,-0.488,-4.395,-1000.000,0.000
1737552807.247,-129.883,19.043,-0.977,-1000.000,0.000
1737552807.250,-85.938,18.555,8.301,-1000.000,0.000
1737552807.254,-77.148,24.414,26.855,-1000.000,0.000
1737552807.258,-114.746,51.270,8.301,-1000.000,0.000
1737552807.262,-177.734,12.207,1.953,-1000.000,0.000
1737552807.266,-199.219,-20.508,3.906,-1000.000,0.000
1737552807.270,-158.691,5.371,-3.418,-1000.000,0.000
1737552807.274,-129.883,-4.395,6.836,-1000.000,0.000
1737552807.278,-153.320,-3.418,0.488,-1000.000,0.000
1737552807.282,-223.145,-33.691,-10.254,-1000.000,0.000
1737552807.286,-247.559,-47.852,-12.695,-1000.000,0.000
1737552807.290,-187.988,9.766,2.930,-1000.000,0.000
1737552807.293,-134.277,36.621,-1.465,-1000.000,0.000
1737552807.297,-128.906,13.672,-3.906,-1000.000,0.000
1737552807.301,-194.824,-23.438,2.930,-1000.000,0.000
1737552807.305,-211.426,-16.113,12.207,-1000.000,0.000
1737552807.309,-153.809,12.207,12.695,-1000.000,0.000
1737552807.313,-86.426,6.348,-0.977,-1000.000,0.000
1737552807.317,-83.008,-13.184,6.348,-1000.000,0.000
1737552807.321,-146.973,-20.020,-19.043,-1000.000,0.000
1737552807.325,-149.414,-9.766,-29.785,-932.129,0.000
1737552807.329,-135.742,-5.859,1.465,-1000.000,0.000
1737552807.332,-21.973,2.930,-2.930,-324.707,0.000
1737552807.336,105.469,0.977,15.625,999.512,0.000
1737552807.340,-14.648,-14.648,27.344,972.656,0.000
1737552807.344,-91.309,-1.953,-10.254,934.570,0.000
1737552807.348,-82.031,-0.977,-16.602,980.469,0.000
1737552807.352,-61.523,1.465,8.301,970.703,0.000
1737552807.356,-20.996,12.695,22.949,970.703,0.000
1737552807.360,-57.129,-13.672,14.648,970.703,0.000
1737552807.364,-105.469,-17.090,1.465,970.703,0.000
1737552807.368,-110.352,-43.457,4.395,970.703,0.000
1737552807.371,-99.121,-65.918,-29.297,970.703,0.000
1737552807.375,-77.637,-4.883,-23.438,970.703,0.000
1737552807.379,-120.117,-14.648,-9.766,970.703,0.000
1737552807.383,-169.922,-30.762,3.418,970.703,0.000
1737552807.387,-171.387,16.113,48.828,970.703,0.000
1737552807.391,-124.023,19.531,40.527,970.703,0.000
1737552807.395,-93.262,13.184,22.461,980.469,0.000
1737552807.399,-143.066,13.184,9.766,900.391,0.000
1737552807.403,-174.805,-9.277,6.836,999.512,0.000
1737552807.407,-230.957,-24.414,6.348,410.156,0.000
1737552807.411,-336.426,-24.902,-8.301,-965.332,0.000
1737552807.414,-260.254,-27.832,-23.438,-1000.000,0.000
1737552807.418,-229.492,-62.500,-41.504,-955.566,0.000
1737552807.422,-291.016,-35.156,-23.926,-1000.000,0.000
1737552807.426,-257.324,24.902,-3.906,-1000.000,0.000
1737552807.430,-175.781,33.691,13.184,-1000.000,0.000
1737552807.434,-94.727,22.949,30.273,-1000.000,0.000
1737552807.438,-98.145,13.184,20.996,-1000.000,0.000
1737552807.442,-140.625,5.371,8.789,-1000.000,0.000
1737552807.446,-110.352,-3.418,-14.160,-996.094,0.000
1737552807.450,-43.945,-14.160,-33.691,-945.801,0.000
1737552807.454,-18.066,-21.484,-35.156,-1000.000,0.000
1737552807.457,124.512,1.465,13.184,-143.555,0.000
1737552807.461,186.523,-12.695,22.949,999.512,0.000
1737552807.465,72.266,-47.852,-14.648,945.312,0.000
1737552807.469,87.891,1.465,1.465,948.242,0.000
1737552807.473,120.117,38.086,26.367,976.074,0.000
1737552807.477,232.422,37.598,37.598,970.703,0.000
1737552807.481,254.395,31.738,14.648,970.703,0.000
1737552807.485,133.301,15.137,-17.578,970.703,0.000
1737552807.489,77.148,-14.648,-33.203,970.703,0.000
1737552807.493,48.828,1.953,-9.277,970.703,0.000
1737552807.496,19.043,14.648,0.000,970.703,0.000
1737552807.500,-47.363,-15.137,-13.672,970.703,0.000
1737552807.504,-60.059,5.371,22.949,970.703,0.000
1737552807.508,-64.941,19.531,46.875,970.703,0.000
1737552807.512,-88.379,22.461,-2.441,970.703,0.000
1737552807.516,-72.754,5.371,-18.066,970.703,0.000
1737552807.520,-77.637,-21.484,2.441,970.703,0.000
1737552807.524,-91.309,-29.297,-4.883,970.703,0.000
1737552807.528,-77.637,-33.691,13.184,970.703,0.000
1737552807.532,-59.570,-4.883,11.719,970.703,0.000
1737552807.536,-29.297,28.809,-18.066,970.703,0.000
1737552807.539,-22.461,30.762,-10.742,970.703,0.000
1737552807.543,-36.133,20.508,8.301,970.703,0.000
1737552807.547,-39.551,12.695,-5.859,970.703,0.000
1737552807.551,-23.926,4.395,-13.184,970.703,0.000
1737552807.555,7.812,-9.766,-7.324,970.703,0.000
1737552807.559,0.000,-31.250,15.625,970.703,0.000
1737552807.563,-27.832,-19.043,-3.418,970.703,0.000
1737552807.567,-52.246,8.789,-39.062,970.703,0.000
1737552807.571,-67.383,-1.465,0.000,970.215,0.000
1737552807.575,-23.438,-11.719,19.043,981.445,0.000
1737552807.578,8.301,-28.809,-8.301,924.316,0.000
1737552807.582,-19.043,-11.230,-5.859,999.512,0.000
1737552807.586,-46.387,17.578,19.531,856.934,0.000
1737552807.590,-176.758,-10.254,5.859,-485.840,0.000
1737552807.594,-206.543,-16.113,11.719,-1000.000,0.000
1737552807.598,-127.441,-21.973,2.930,-938.965,0.000
1737552807.602,-124.512,-44.434,-30.273,-1000.000,0.000
1737552807.606,-107.910,-40.039,-32.715,-1000.000,0.000
1737552807.610,-109.375,-21.484,-17.578,-1000.000,0.000
1737552807.614,-89.844,8.789,-2.930,-1000.000,0.000
1737552807.618,-38.086,12.207,8.789,-1000.000,0.000
1737552807.621,-15.625,-5.859,4.883,-1000.000,0.000
1737552807.625,-14.648,-5.371,-15.137,-1000.000,0.000
1737552807.629,-14.160,1.465,-5.859,-1000.000,0.000
1737552807.633,28.320,25.391,2.930,-1000.000,0.000
1737552807.637,40.527,7.324,-4.395,-1000.000,0.000
1737552807.641,26.855,-17.578,1.953,-1000.000,0.000
1737552807.645,29.297,1.953,0.000,-1000.000,0.000
1737552807.649,15.625,-7.812,-3.418,-1000.000,0.000
1737552807.653,13.184,-29.785,-32.715,-1000.000,0.000
1737552807.657,2.930,-18.066,-36.621,-1000.000,0.000
1737552807.661,-26.855,-17.578,-14.160,-1000.000,0.000
1737552807.664,-47.363,-11.230,-2.441,-1000.000,0.000
1737552807.668,-46.387,4.883,9.277,-957.520,0.000
1737552807.672,-56.152,20.508,-20.508,-1000.000,0.000
1737552807.676,-61.523,25.879,1.465,-846.191,0.000
1737552807.680,48.340,11.719,-3.418,376.465,0.000
1737552807.684,94.727,-4.395,-33.691,999.512,0.000
1737552807.688,-67.383,-27.344,-3.906,208.984,0.000
1737552807.692,-200.195,-26.367,11.719,-1000.000,0.000
1737552807.696,-127.441,5.371,11.230,-996.094,0.000
1737552807.700,-81.543,-16.113,3.906,-967.285,0.000
1737552807.703,-72.266,-23.926,-24.902,-1000.000,0.000
1737552807.707,-53.223,-8.301,-26.855,-1000.000,0.000
1737552807.711,-48.340,-41.992,-23.926,-1000.000,0.000
1737552807.715,-29.785,-34.668,-19.531,-1000.000,0.000
1737552807.719,-32.227,-4.395,6.348,-1000.000,0.000
1737552807.723,-27.344,-0.488,12.207,-1000.000,0.000
1737552807.727,-42.480,-6.348,3.418,-1000.000,0.000
1737552807.731,-77.637,-10.742,-7.812,-1000.000,0.000
1737552807.735,-79.590,3.906,-14.648,-1000.000,0.000
1737552807.739,-87.402,-25.391,2.441,-1000.000,0.000
1737552807.743,-98.633,-38.086,14.648,-1000.000,0.000
1737552807.746,-104.980,-2.930,-16.602,-1000.000,0.000
1737552807.750,-120.605,5.859,-10.254,-1000.000,0.000
1737552807.754,-119.629,-3.906,1.953,-1000.000,0.000
1737552807.758,-102.539,-20.020,2.930,-1000.000,0.000
1737552807.762,-126.953,-10.254,24.902,-1000.000,0.000
1737552807.766,-147.949,4.395,12.695,-1000.000,0.000
1737552807.770,-143.555,1.465,-4.883,-1000.000,0.000
1737552807.774,-119.141,10.742,-5.859,-1000.000,0.000
1737552807.778,-107.422,15.625,-15.625,-1000.000,0.000
1737552807.782,-131.348,-12.207,-13.672,-1000.000,0.000
1737552807.785,-146.973,-39.551,-20.020,-1000.000,0.000
1737552807.789,-169.434,-7.324,-14.648,-1000.000,0.000
1737552807.793,-132.812,32.227,-2.930,-1000.000,0.000
1737552807.797,-101.074,4.395,1.953,-1000.000,0.000
1737552807.801,-111.328,-8.301,8.789,-1000.000,0.000
1737552807.805,-112.793,17.578,-8.301,-1000.000,0.000
1737552807.809,-125.977,-5.371,-12.207,-1000.000,0.000
1737552807.813,-116.211,-25.391,-10.742,-1000.000,0.000
1737552807.817,-78.125,-24.414,-23.926,-1000.000,0.000
1737552807.821,-63.477,9.277,6.836,-1000.000,0.000
1737552807.825,-58.594,28.320,21.484,-1000.000,0.000
1737552807.828,-62.012,-14.648,-3.906,-1000.000,0.000
1737552807.832,-66.406,-18.066,-0.977,-1000.000,0.000
1737552807.836,-42.969,19.043,14.160,-1000.000,0.000
1737552807.840,-36.621,18.066,-0.488,-1000.000,0.000
1737552807.844,-53.711,10.254,-4.395,-1000.000,0.000
1737552807.848,-46.875,-18.066,-15.625,-1000.000,0.000
1737552807.852,-35.645,-31.738,-24.902,-1000.000,0.000
1737552807.856,-27.344,4.395,0.488,-1000.000,0.000
1737552807.860,-40.039,19.531,7.812,-1000.000,0.000
1737552807.864,-54.688,-2.930,-1.953,-1000.000,0.000
1737552807.868,-60.547,-20.996,-9.277,-1000.000,0.000
1737552807.871,-59.570,-8.301,-3.906,-1000.000,0.000
1737552807.875,-40.527,15.137,-6.836,-1000.000,0.000
1737552807.879,-34.180,9.277,-0.977,-1000.000,0.000
1737552807.883,-42.480,-4.883,-17.090,-1000.000,0.000
1737552807.887,-47.852,-6.348,-38.086,-1000.000,0.000
1737552807.891,-50.781,-13.672,-9.277,-1000.000,0.000
1737552807.895,0.488,5.859,14.160,-1000.000,0.000
1737552807.899,20.020,5.859,15.137,-1000.000,0.000
1737552807.903,-21.973,-19.043,10.254,-1000.000,0.000
1737552807.907,-43.457,-2.441,0.488,-1000.000,0.000
1737552807.910,-44.434,14.160,-0.488,-1000.000,0.000
1737552807.914,-31.738,15.625,3.418,-1000.000,0.000
1737552807.918,-25.391,-5.859,-13.184,-1000.000,0.000
1737552807.922,-43.457,-21.973,-22.461,-1000.000,0.000
1737552807.926,-40.039,4.883,-22.461,-1000.000,0.000
1737552807.930,-45.898,4.883,-33.203,-1000.000,0.000
1737552807.934,-31.738,-3.418,-27.832,-1000.000,0.000
1737552807.938,-16.602,-17.578,-2.930,-1000.000,0.000
1737552807.942,-54.688,-1.465,21.484,-1000.000,0.000
1737552807.946,-64.453,41.016,19.043,-1000.000,0.000
1737552807.950,-49.316,21.484,19.043,-1000.000,0.000
1737552807.953,-24.902,16.602,13.672,-1000.000,0.000
1737552807.957,15.625,40.527,0.977,-1000.000,0.000
1737552807.961,28.809,31.250,-25.391,-1000.000,0.000
1737552807.965,22.949,12.695,-11.719,-1000.000,0.000
1737552807.969,8.789,17.578,16.602,-975.586,0.000
1737552807.973,15.137,15.625,8.301,-992.188,0.000
1737552807.977,28.320,7.812,9.766,-989.746,0.000
1737552807.981,110.352,18.555,6.348,91.309,0.000
1737552807.985,205.078,23.438,3.906,999.512,0.000
1737552807.989,48.340,-20.996,-26.367,209.961,0.000
1737552807.993,-99.609,-26.855,-29.785,-1000.000,0.000
1737552807.996,-36.621,14.648,2.930,-991.699,0.000
1737552808.000,-23.438,11.230,4.883,-967.773,0.000
1737552808.004,-46.387,-26.367,9.766,-1000.000,0.000
1737552808.008,-69.824,-5.859,10.742,-1000.000,0.000
1737552808.012,-74.219,20.020,0.000,-1000.000,0.000
1737552808.016,-55.176,-4.883,-14.648,-1000.000,0.000
1737552808.020,-67.383,0.488,-20.020,-1000.000,0.000
1737552808.024,-70.801,-13.672,-15.625,-1000.000,0.000
1737552808.028,-85.938,-26.367,-22.461,-1000.000,0.000
1737552808.032,-92.773,-15.137,-34.180,-1000.000,0.000
1737552808.035,-60.547,-23.926,-39.551,-1000.000,0.000
1737552808.039,-63.477,-14.160,-18.555,-1000.000,0.000
1737552808.043,-77.148,12.695,15.137,-1000.000,0.000
1737552808.047,-85.938,2.930,14.160,-1000.000,0.000
1737552808.051,-84.473,-12.207,-8.789,-1000.000,0.000
1737552808.055,-31.250,27.344,-34.668,-1000.000,0.000
1737552808.059,-24.902,31.250,-8.301,-1000.000,0.000
1737552808.063,-50.781,0.488,16.113,-1000.000,0.000
1737552808.067,-37.598,-4.395,-5.371,-1000.000,0.000
1737552808.071,-37.109,-10.742,-29.785,-1000.000,0.000
1737552808.074,-18.555,-24.902,-23.926,-1000.000,0.000
1737552808.078,-0.977,-33.691,-25.879,-1000.000,0.000
1737552808.082,-13.672,-10.254,-13.184,-1000.000,0.000
1737552808.086,-44.922,-5.859,14.160,-1000.000,0.000
1737552808.090,-65.430,-20.508,6.348,-998.047,0.000
1737552808.094,-41.992,10.254,-20.020,-1000.000,0.000
1737552808.098,-10.742,16.602,-27.832,-982.910,0.000
1737552808.102,-22.461,-6.348,-16.113,-964.844,0.000
1737552808.106,-74.219,-25.391,-22.949,-1000.000,0.000
1737552808.110,-104.492,-6.348,-21.484,-1000.000,0.000
1737552808.114,-62.012,13.184,-0.488,-999.023,0.000
1737552808.117,-18.066,2.441,-7.812,-1000.000,0.000
1737552808.121,-44.434,-3.906,0.000,-1000.000,0.000
1737552808.125,-51.270,-4.395,12.695,-1000.000,0.000
1737552808.129,-44.434,-8.301,-32.227,-1000.000,0.000
1737552808.133,-42.969,-13.184,-39.551,-1000.000,0.000
1737552808.137,-37.109,10.742,4.395,-1000.000,0.000
1737552808.141,-52.734,18.555,20.996,-1000.000,0.000
1737552808.145,-57.129,-17.090,19.043,-1000.000,0.000
1737552808.149,-64.941,-6.348,16.602,-1000.000,0.000
1737552808.153,-66.406,17.090,1.465,-1000.000,0.000
1737552808.157,-46.387,-3.418,-3.906,-1000.000,0.000
1737552808.160,-59.082,-16.113,-1.465,-1000.000,0.000
1737552808.164,-71.777,-15.625,-11.230,-1000.000,0.000
1737552808.168,-66.406,1.953,-11.719,-1000.000,0.000
1737552808.172,-69.336,-6.836,-12.207,-1000.000,0.000
1737552808.176,-43.945,-28.809,-18.555,-1000.000,0.000
1737552808.180,-52.734,-18.066,-17.578,-1000.000,0.000
1737552808.184,-80.566,5.859,-4.883,-1000.000,0.000
1737552808.188,-82.031,6.348,-10.254,-1000.000,0.000
1737552808.192,-64.941,2.441,4.883,-1000.000,0.000
1737552808.196,-23.926,14.160,18.555,-1000.000,0.000
1737552808.200,-29.297,0.977,1.953,-1000.000,0.000
1737552808.203,-56.641,-29.785,-8.301,-1000.000,0.000
1737552808.207,-75.195,-41.504,-22.461,-1000.000,0.000
1737552808.211,-88.379,-41.016,-31.738,-1000.000,0.000
1737552808.215,-71.777,-18.066,-29.297,-1000.000,0.000
1737552808.219,-71.289,-3.418,-14.160,-1000.000,0.000
1737552808.223,-83.008,-0.977,-5.859,-1000.000,0.000
1737552808.227,-75.195,3.906,-12.207,-1000.000,0.000
1737552808.231,-89.844,-13.184,1.953,-1000.000,0.000
1737552808.235,-83.984,-28.320,-4.883,-1000.000,0.000
1737552808.239,-43.457,-5.371,-23.438,-1000.000,0.000
1737552808.242,-37.109,3.906,-19.531,-1000.000,0.000
1737552808.246,-76.172,-36.133,-10.742,-1000.000,0.000
1737552808.250,-104.004,-38.574,-25.879,-1000.000,0.000
1737552808.254,-65.430,1.465,-29.785,-1000.000,0.000
1737552808.258,-27.344,2.930,-8.789,-1000.000,0.000
1737552808.262,-38.086,-15.137,-21.973,-1000.000,0.000
1737552808.266,-55.176,-10.742,-26.855,-1000.000,0.000
1737552808.270,-42.480,-0.488,6.836,-1000.000,0.000
1737552808.274,-23.926,-15.137,-2.930,-1000.000,0.000
1737552808.278,-21.484,-23.438,-20.508,-1000.000,0.000
1737552808.282,-15.625,26.367,10.254,-1000.000,0.000
1737552808.285,-31.738,19.531,17.578,-1000.000,0.000
1737552808.289,-49.805,-15.137,-7.324,-1000.000,0.000
1737552808.293,-13.184,3.418,1.465,-1000.000,0.000
1737552808.297,10.742,9.277,4.395,-1000.000,0.000
1737552808.301,-8.789,-7.324,6.348,-1000.000,0.000
1737552808.305,-51.270,-6.836,-10.742,-1000.000,0.000
1737552808.309,-63.965,-7.812,-42.969,-1000.000,0.000
1737552808.313,-44.434,-11.230,-2.930,-1000.000,0.000
1737552808.317,-36.133,8.301,49.805,-1000.000,0.000
1737552808.321,-52.734,7.324,40.039,-1000.000,0.000
1737552808.324,-66.406,-12.695,9.277,-1000.000,0.000
1737552808.328,-75.195,3.906,-8.789,-1000.000,0.000
1737552808.332,-69.336,26.855,-10.742,-1000.000,0.000
1737552808.336,-38.086,3.418,2.930,-1000.000,0.000
1737552808.340,-63.477,-2.930,-17.578,-1000.000,0.000
1737552808.344,-99.121,17.090,-10.254,-1000.000,0.000
1737552808.348,-120.117,-17.090,-9.277,-1000.000,0.000
1737552808.352,-134.766,-62.988,-38.086,-1000.000,0.000
1737552808.356,-99.121,-14.160,10.254,-1000.000,0.000
1737552808.360,-74.219,34.180,40.527,-1000.000,0.000
1737552808.364,-78.613,20.020,24.414,-1000.000,0.000
1737552808.367,-84.961,2.441,5.859,-1000.000,0.000
1737552808.371,-84.473,0.977,-9.766,-1000.000,0.000
1737552808.375,-40.527,15.625,-15.137,-1000.000,0.000
1737552808.379,-25.391,11.719,-22.461,-1000.000,0.000
1737552808.383,-29.785,11.719,-11.719,-1000.000,0.000
1737552808.387,-27.344,-0.488,-13.184,-1000.000,0.000
1737552808.391,-36.621,-29.297,-15.137,-1000.000,0.000
1737552808.395,-24.414,-20.508,1.953,-1000.000,0.000
1737552808.399,-29.297,-11.230,-16.113,-1000.000,0.000
1737552808.403,-48.828,-8.301,-16.602,-1000.000,0.000
1737552808.406,-77.637,-16.602,-7.324,-1000.000,0.000
1737552808.410,-99.609,-13.672,-20.996,-1000.000,0.000
1737552808.414,-72.754,12.207,-21.484,-1000.000,0.000
1737552808.418,-59.570,15.625,-15.625,-1000.000,0.000
1737552808.422,-64.941,4.883,-13.672,-1000.000,0.000
1737552808.426,-77.637,-12.207,-13.672,-1000.000,0.000
1737552808.430,-91.309,-13.672,-15.137,-1000.000,0.000
1737552808.434,-77.637,-1.953,-8.789,-1000.000,0.000
1737552808.438,-47.852,-4.883,2.930,-1000.000,0.000
1737552808.442,-40.527,-6.348,-3.418,-1000.000,0.000
1737552808.446,-49.805,-1.465,-6.348,-1000.000,0.000
1737552808.449,-50.293,-4.883,-4.883,-1000.000,0.000
1737552808.453,-44.922,-0.488,-36.621,-1000.000,0.000
1737552808.457,-43.945,10.742,-21.973,-1000.000,0.000
1737552808.461,-60.059,21.484,10.254,-1000.000,0.000
1737552808.465,-53.711,6.836,-7.324,-1000.000,0.000
1737552808.469,-55.176,-7.812,3.418,-1000.000,0.000
1737552808.473,-68.848,18.066,9.766,-1000.000,0.000
1737552808.477,-62.500,8.301,-19.043,-1000.000,0.000
1737552808.481,-79.590,-15.137,-18.555,-1000.000,0.000
1737552808.485,-102.539,-23.926,-16.602,-1000.000,0.000
1737552808.489,-112.305,-26.367,-9.277,-1000.000,0.000
1737552808.492,-97.168,-1.953,17.090,-1000.000,0.000
1737552808.496,-54.688,12.695,-0.977,-1000.000,0.000
1737552808.500,-67.383,8.789,-14.648,-1000.000,0.000
1737552808.504,-79.590,2.930,8.301,-1000.000,0.000
1737552808.508,-80.566,6.348,-7.812,-1000.000,0.000
1737552808.512,-75.684,1.465,-9.766,-1000.000,0.000
1737552808.516,-59.082,-34.668,-25.879,-1000.000,0.000
1737552808.520,-69.824,-34.668,-30.762,-1000.000,0.000
1737552808.524,-54.199,10.742,10.742,-1000.000,0.000
1737552808.528,-60.059,18.555,13.184,-1000.000,0.000
1737552808.531,-75.195,-4.395,-6.836,-1000.000,0.000
1737552808.535,-40.039,-11.719,-29.785,-1000.000,0.000
1737552808.539,-22.949,-17.090,-34.180,-1000.000,0.000
1737552808.543,-26.367,-36.133,-19.531,-1000.000,0.000
1737552808.547,-54.688,-8.789,-4.395,-1000.000,0.000
1737552808.551,-88.867,27.832,1.953,-1000.000,0.000
1737552808.555,-74.707,1.465,-2.930,-1000.000,0.000
1737552808.559,-83.496,-15.625,-7.812,-1000.000,0.000
1737552808.563,-109.375,0.488,-19.043,-1000.000,0.000
1737552808.567,-79.590,13.184,3.906,-1000.000,0.000
1737552808.571,-58.594,12.695,4.395,-1000.000,0.000
1737552808.574,-57.617,16.113,-6.836,-1000.000,0.000
1737552808.578,-72.754,10.254,-24.902,-1000.000,0.000
1737552808.582,-86.914,-29.785,-23.926,-1000.000,0.000
1737552808.586,-79.102,-23.926,-5.371,-1000.000,0.000
1737552808.590,-66.406,24.414,-5.859,-1000.000,0.000
1737552808.594,-25.391,16.602,0.000,-1000.000,0.000
1737552808.598,-10.742,-4.395,-4.883,-1000.000,0.000
1737552808.602,-47.363,-5.371,0.000,-1000.000,0.000
1737552808.606,-56.152,-7.812,15.625,-1000.000,0.000
1737552808.610,-31.250,-8.301,8.301,-1000.000,0.000
1737552808.614,-50.781,8.301,-4.883,-1000.000,0.000
1737552808.617,-19.043,26.855,5.859,-1000.000,0.000
1737552808.621,0.488,-3.418,-23.926,-1000.000,0.000
1737552808.625,-63.477,-11.230,-34.668,-1000.000,0.000
1737552808.629,-92.773,0.488,2.930,-1000.000,0.000
1737552808.633,-79.102,-13.672,4.395,-1000.000,0.000
1737552808.637,-61.523,0.488,2.930,-1000.000,0.000
1737552808.641,-72.754,6.836,4.395,-1000.000,0.000
1737552808.645,-75.195,1.953,-3.906,-1000.000,0.000
1737552808.649,-84.961,-2.441,-0.977,-1000.000,0.000
1737552808.653,-82.520,-20.508,-16.113,-1000.000,0.000
1737552808.656,-54.199,-25.879,-15.625,-1000.000,0.000
1737552808.660,-66.895,-1.953,-17.090,-1000.000,0.000
1737552808.664,-93.750,7.812,-41.016,-1000.000,0.000
1737552808.668,-102.051,-3.906,-20.508,-1000.000,0.000
1737552808.672,-83.496,0.000,1.465,-1000.000,0.000
1737552808.676,-47.852,-2.441,0.977,-1000.000,0.000
1737552808.680,-42.969,-10.254,2.441,-1000.000,0.000
1737552808.684,-59.082,-11.230,-10.254,-1000.000,0.000
1737552808.688,-66.406,-22.461,-7.812,-1000.000,0.000
1737552808.692,-47.852,-21.973,-39.062,-1000.000,0.000
1737552808.696,-13.184,-3.906,-66.406,-1000.000,0.000
1737552808.699,-13.184,5.371,-20.996,-1000.000,0.000
1737552808.703,-38.574,14.648,14.160,-1000.000,0.000
1737552808.707,-45.410,31.738,21.484,-1000.000,0.000
1737552808.711,-39.551,31.250,6.348,-1000.000,0.000
1737552808.715,-21.484,12.207,-8.789,-1000.000,0.000
1737552808.719,-23.926,-12.695,-14.160,-1000.000,0.000
1737552808.723,-46.387,-9.277,-6.348,-1000.000,0.000
1737552808.727,-45.410,-19.531,-6.836,-1000.000,0.000
1737552808.731,-46.387,-55.176,-26.855,-1000.000,0.000
1737552808.735,-35.645,-18.555,-27.832,-1000.000,0.000
1737552808.739,-13.184,30.273,-9.766,-1000.000,0.000
1737552808.742,-41.504,18.066,0.488,-1000.000,0.000
1737552808.746,-96.680,-11.719,-23.438,-1000.000,0.000
1737552808.750,-111.816,-11.230,-39.551,-1000.000,0.000
1737552808.754,-64.941,-6.836,7.324,-1000.000,0.000
1737552808.758,-29.785,-28.809,35.156,-1000.000,0.000
1737552808.762,-42.480,1.465,19.531,-1000.000,0.000
1737552808.766,-50.781,22.949,-18.066,-1000.000,0.000
1737552808.770,-45.410,7.812,-25.391,-1000.000,0.000
1737552808.774,-37.598,14.160,8.789,-1000.000,0.000
1737552808.778,-17.578,14.648,13.672,-1000.000,0.000
1737552808.781,-20.508,-9.277,-7.324,-1000.000,0.000
1737552808.785,-32.227,-15.625,-20.508,-1000.000,0.000
1737552808.789,-62.500,-14.648,-19.043,-1000.000,0.000
1737552808.793,-49.805,-12.695,-9.277,-1000.000,0.000
1737552808.797,-16.113,-4.883,5.371,-1000.000,0.000
1737552808.801,-49.316,-16.602,-5.371,-1000.000,0.000
1737552808.805,-57.129,-2.930,-7.812,-1000.000,0.000
1737552808.809,-71.289,-12.695,-7.812,-1000.000,0.000
1737552808.813,-69.824,-15.137,-2.441,-1000.000,0.000
1737552808.817,-26.855,4.395,11.230,-1000.000,0.000
1737552808.820,-33.691,3.418,2.441,-1000.000,0.000
1737552808.824,-34.668,-9.277,-6.836,-1000.000,0.000
1737552808.828,-55.176,-17.090,-4.395,-1000.000,0.000
1737552808.832,-87.402,-11.719,-6.348,-1000.000,0.000
1737552808.836,-50.781,-11.230,-30.273,-1000.000,0.000
1737552808.840,-52.246,-5.371,-21.484,-1000.000,0.000
1737552808.844,-77.637,-5.371,8.301,-1000.000,0.000
1737552808.848,-68.848,9.766,0.000,-1000.000,0.000
1737552808.852,-61.523,15.137,-11.719,-1000.000,0.000
1737552808.856,-57.617,12.207,-13.184,-1000.000,0.000
1737552808.860,-62.988,2.441,-28.809,-1000.000,0.000
1737552808.863,-80.566,-41.504,-32.715,-1000.000,0.000
1737552808.867,-69.336,-38.574,-1.465,-1000.000,0.000
1737552808.871,-60.547,6.348,10.742,-1000.000,0.000
1737552808.875,-51.270,36.621,-2.930,-1000.000,0.000
1737552808.879,-43.945,44.434,-7.812,-1000.000,0.000
1737552808.883,-58.594,29.297,-10.254,-1000.000,0.000
1737552808.887,-55.664,8.301,-16.113,-1000.000,0.000
1737552808.891,-54.688,-6.836,-10.254,-1000.000,0.000
1737552808.895,-31.250,-2.930,-8.301,-1000.000,0.000
1737552808.899,-2.441,-5.371,-27.344,-1000.000,0.000
1737552808.903,-20.020,-8.301,-16.602,-1000.000,0.000
1737552808.906,-50.293,-1.465,-1.953,-1000.000,0.000
1737552808.910,-56.152,0.488,-21.484,-1000.000,0.000
1737552808.914,-31.738,18.066,-27.832,-1000.000,0.000
1737552808.918,-24.902,11.230,-21.484,-1000.000,0.000
1737552808.922,-50.781,-4.395,-23.438,-1000.000,0.000
1737552808.926,-47.852,-15.625,-23.926,-1000.000,0.000
1737552808.930,-45.410,-26.855,-36.133,-1000.000,0.000
1737552808.934,-38.574,1.953,-23.926,-1000.000,0.000
1737552808.938,-20.508,2.441,-1.465,-1000.000,0.000
1737552808.942,-44.434,-13.672,-12.207,-1000.000,0.000
1737552808.946,-47.852,14.160,-9.277,-1000.000,0.000
1737552808.949,-47.363,-3.906,-9.766,-1000.000,0.000
1737552808.953,-46.387,-30.762,-28.320,-1000.000,0.000
1737552808.957,-19.531,2.930,3.906,-1000.000,0.000
1737552808.961,-37.109,7.324,-19.043,-1000.000,0.000
1737552808.965,-55.664,-3.906,-40.527,-1000.000,0.000
1737552808.969,-51.270,3.418,6.836,-1000.000,0.000
1737552808.973,-62.988,-12.695,8.789,-1000.000,0.000
1737552808.977,-44.434,4.883,-22.949,-1000.000,0.000
1737552808.981,-37.109,18.066,-15.137,-1000.000,0.000
1737552808.985,-42.480,-3.906,-9.766,-1000.000,0.000
1737552808.988,-57.617,-12.207,-21.484,-1000.000,0.000
1737552808.992,-39.062,1.953,-0.488,-1000.000,0.000
1737552808.996,-7.812,17.090,10.254,-1000.000,0.000
1737552809.000,-27.832,6.348,-17.090,-1000.000,0.000
1737552809.004,-36.133,1.953,-19.043,-1000.000,0.000
1737552809.008,-41.016,-19.043,-17.090,-1000.000,0.000
1737552809.012,-41.016,-34.668,-30.273,-1000.000,0.000
1737552809.016,-39.551,-4.395,-37.109,-1000.000,0.000
1737552809.020,-57.129,26.855,-42.969,-1000.000,0.000
1737552809.024,-56.641,35.156,-7.324,-1000.000,0.000
1737552809.028,-69.824,22.949,6.836,-1000.000,0.000
1737552809.031,-88.867,-16.602,-22.461,-1000.000,0.000
1737552809.035,-62.988,-16.113,-11.230,-1000.000,0.000
1737552809.039,-50.293,17.090,-10.254,-1000.000,0.000
1737552809.043,-63.477,0.000,-9.766,-1000.000,0.000
1737552809.047,-73.242,-43.457,-18.555,-1000.000,0.000
1737552809.051,-75.684,-8.789,-48.828,-1000.000,0.000
1737552809.055,-54.688,34.180,-20.996,-1000.000,0.000
1737552809.059,-40.039,28.809,6.836,-1000.000,0.000
1737552809.063,-53.711,29.297,-14.160,-1000.000,0.000
1737552809.067,-73.242,12.207,-28.320,-1000.000,0.000
1737552809.070,-73.242,-2.930,-19.531,-1000.000,0.000
1737552809.074,-47.363,-0.977,-8.789,-1000.000,0.000
1737552809.078,-32.227,0.488,2.930,-1000.000,0.000
1737552809.082,-34.180,2.930,1.953,-1000.000,0.000
1737552809.086,-27.832,13.672,-8.789,-1000.000,0.000
1737552809.090,-30.762,16.602,-19.043,-1000.000,0.000
1737552809.094,-34.668,1.953,-16.602,-1000.000,0.000
1737552809.098,-17.090,-9.766,-11.719,-1000.000,0.000
1737552809.102,-11.230,-8.301,-17.578,-1000.000,0.000
1737552809.106,-8.789,2.441,-31.250,-1000.000,0.000
1737552809.109,-8.301,-9.766,-34.180,-1000.000,0.000
1737552809.113,9.766,-11.719,-11.230,-1000.000,0.000
1737552809.117,6.348,2.441,8.301,-1000.000,0.000
1737552809.121,-33.691,1.953,2.930,-1000.000,0.000
1737552809.125,-49.805,-10.254,-6.836,-1000.000,0.000
1737552809.129,-56.152,-6.836,-1.465,-1000.000,0.000
1737552809.133,-32.227,28.809,1.953,-1000.000,0.000
1737552809.137,0.000,33.203,-18.066,-1000.000,0.000
1737552809.141,-24.902,4.395,-32.227,-1000.000,0.000
1737552809.145,-43.945,-13.672,-21.973,-1000.000,0.000
1737552809.149,-51.758,-20.508,-6.836,-1000.000,0.000
1737552809.152,-53.223,-12.695,1.953,-1000.000,0.000
1737552809.156,-34.668,2.441,13.184,-1000.000,0.000
1737552809.160,-57.617,-0.977,4.395,-1000.000,0.000
1737552809.164,-81.055,-20.020,-11.719,-1000.000,0.000
1737552809.168,-78.125,-8.789,-11.230,-1000.000,0.000
1737552809.172,-62.500,32.227,-20.996,-1000.000,0.000
1737552809.176,-35.156,26.855,-26.367,-1000.000,0.000
1737552809.180,-34.668,11.230,-13.672,-1000.000,0.000
1737552809.184,-45.410,18.066,-17.578,-1000.000,0.000
1737552809.188,-60.059,-8.789,-10.742,-1000.000,0.000
1737552809.192,-62.500,-15.137,1.953,-1000.000,0.000
1737552809.195,-11.230,-23.438,0.488,-1000.000,0.000
1737552809.199,-15.137,-22.949,-13.184,-1000.000,0.000
1737552809.203,-68.359,21.973,-29.785,-1000.000,0.000
1737552809.207,-50.781,18.066,-24.414,-1000.000,0.000
1737552809.211,-39.062,-6.348,-35.156,-1000.000,0.000
1737552809.215,-36.133,-3.418,-22.461,-1000.000,0.000
1737552809.219,-14.160,13.672,7.324,-1000.000,0.000
1737552809.223,-35.156,14.160,12.207,-1000.000,0.000
1737552809.227,-45.410,1.953,6.836,-1000.000,0.000
1737552809.231,-38.574,7.324,-0.977,-1000.000,0.000
1737552809.235,-37.109,-21.484,-13.184,-1000.000,0.000
1737552809.238,-31.738,-55.176,-60.059,-1000.000,0.000
1737552809.242,-41.504,-23.438,-54.199,-1000.000,0.000
1737552809.246,-42.969,17.090,0.488,-1000.000,0.000
1737552809.250,-58.594,33.691,1.953,-1000.000,0.000
1737552809.254,-46.387,30.273,-1.465,-1000.000,0.000
1737552809.258,-22.949,14.648,-18.066,-1000.000,0.000
1737552809.262,-24.902,-2.930,-37.109,-1000.000,0.000
1737552809.266,-35.645,-12.695,-28.320,-1000.000,0.000
1737552809.270,-53.223,-16.113,-17.578,-1000.000,0.000
1737552809.274,-42.969,3.418,-22.949,-1000.000,0.000
1737552809.277,-32.715,11.719,-28.320,-1000.000,0.000
1737552809.281,-45.898,-8.789,-39.062,-1000.000,0.000
1737552809.285,-38.574,-10.254,-12.207,-1000.000,0.000
1737552809.289,-40.527,-5.371,-17.578,-1000.000,0.000
1737552809.293,-68.359,-10.742,-17.578,-1000.000,0.000
1737552809.297,-54.199,19.043,0.977,-1000.000,0.000
1737552809.301,-34.668,16.113,-3.906,-1000.000,0.000
1737552809.305,-44.922,-21.973,-17.090,-1000.000,0.000
1737552809.309,-50.781,-11.230,-31.738,-1000.000,0.000
1737552809.313,-47.852,5.371,-21.973,-1000.000,0.000
1737552809.317,-40.039,-18.555,-10.742,-1000.000,0.000
1737552809.320,-20.996,-2.930,-6.836,-1000.000,0.000
1737552809.324,-13.672,19.531,-7.812,-1000.000,0.000
1737552809.328,-32.227,-6.348,-19.043,-1000.000,0.000
1737552809.332,-39.062,-21.973,-6.348,-1000.000,0.000
1737552809.336,-18.555,-3.418,2.441,-1000.000,0.000
1737552809.340,-11.230,5.371,-28.809,-1000.000,0.000
1737552809.344,-23.438,-17.578,-41.016,-1000.000,0.000
1737552809.348,-20.508,-18.066,-1.953,-1000.000,0.000
1737552809.352,16.113,9.766,18.555,-1000.000,0.000
1737552809.356,24.414,0.977,1.953,-1000.000,0.000
1737552809.360,-8.789,0.977,7.324,-1000.000,0.000
1737552809.363,-26.367,26.855,15.137,-1000.000,0.000
1737552809.367,-25.879,30.273,13.672,-1000.000,0.000
1737552809.371,-25.879,16.602,3.418,-1000.000,0.000
1737552809.375,-4.395,-1.465,-2.930,-1000.000,0.000
1737552809.379,2.930,-23.438,-26.855,-1000.000,0.000
1737552809.383,-41.992,-39.062,-37.598,-1000.000,0.000
1737552809.387,-66.895,-20.020,-0.488,-1000.000,0.000
1737552809.391,-74.707,8.789,-8.789,-1000.000,0.000
1737552809.395,-54.688,1.465,-35.645,-1000.000,0.000
1737552809.399,-43.457,-12.695,-8.789,-1000.000,0.000
1737552809.402,-82.520,-0.488,12.695,-1000.000,0.000
1737552809.406,-94.727,-2.441,5.859,-1000.000,0.000
1737552809.410,-98.145,-2.930,-30.762,-1000.000,0.000
1737552809.414,-65.918,-14.160,-27.344,-1000.000,0.000
1737552809.418,-22.461,-15.137,14.648,-1000.000,0.000
1737552809.422,-45.410,4.395,-0.488,-1000.000,0.000
1737552809.426,-42.969,20.020,-11.230,-1000.000,0.000
1737552809.430,-39.062,17.578,-8.789,-1000.000,0.000
1737552809.434,-38.086,-6.836,-10.254,-1000.000,0.000
1737552809.438,-15.625,0.488,-40.527,-1000.000,0.000
1737552809.442,-35.156,-9.766,-23.438,-1000.000,0.000
1737552809.445,-54.688,-23.438,-4.883,-1000.000,0.000
1737552809.449,-55.664,7.812,-22.949,-1000.000,0.000
1737552809.453,-40.039,19.043,-7.324,-1000.000,0.000
1737552809.457,-26.855,5.859,-6.348,-1000.000,0.000
1737552809.461,-43.945,1.953,-3.418,-1000.000,0.000
1737552809.465,-48.340,1.465,-0.977,-1000.000,0.000
1737552809.469,-50.293,4.395,4.883,-1000.000,0.000
1737552809.473,-30.273,20.508,17.578,-1000.000,0.000
1737552809.477,6.836,31.250,7.324,-1000.000,0.000
1737552809.481,-6.348,26.367,-24.414,-1000.000,0.000
1737552809.484,-28.320,11.230,-17.578,-1000.000,0.000
1737552809.488,-45.410,9.277,-13.184,-1000.000,0.000
1737552809.492,-62.012,2.930,-26.367,-1000.000,0.000
1737552809.496,-58.105,-10.742,-23.438,-1000.000,0.000
1737552809.500,-56.641,-32.715,-5.859,-1000.000,0.000
1737552809.504,-41.016,-32.715,-9.766,-1000.000,0.000
1737552809.508,-58.105,2.441,-14.648,-1000.000,0.000
1737552809.512,-71.289,10.742,-16.113,-1000.000,0.000
1737552809.516,-41.016,2.930,-0.488,-1000.000,0.000
1737552809.520,-33.203,18.555,15.137,-1000.000,0.000
1737552809.524,-65.430,20.508,0.000,-1000.000,0.000
1737552809.527,-77.637,2.930,-1.465,-1000.000,0.000
1737552809.531,-62.500,-32.715,-7.812,-1000.000,0.000
1737552809.535,-35.156,-35.645,-13.672,-1000.000,0.000
1737552809.539,-26.855,13.672,0.488,-1000.000,0.000
1737552809.543,-53.711,20.996,-17.578,-1000.000,0.000
1737552809.547,-80.078,0.000,-46.875,-1000.000,0.000
1737552809.551,-68.848,6.836,-32.227,-1000.000,0.000
1737552809.555,-44.434,11.719,-1.953,-1000.000,0.000
1737552809.559,-38.574,6.348,4.395,-1000.000,0.000
1737552809.563,-60.059,-6.836,-6.348,-1000.000,0.000
1737552809.567,-70.312,-48.340,-23.926,-1000.000,0.000
1737552809.570,-68.359,-46.875,-22.949,-1000.000,0.000
1737552809.574,-38.086,-10.254,-2.930,-1000.000,0.000
1737552809.578,-3.906,12.207,9.277,-1000.000,0.000
1737552809.582,-4.395,28.809,-13.672,-1000.000,0.000
1737552809.586,-17.578,15.625,-40.039,-1000.000,0.000
1737552809.590,-19.043,1.465,-32.227,-1000.000,0.000
1737552809.594,-10.742,-17.090,-2.930,-1000.000,0.000
1737552809.598,-17.578,-13.184,13.184,-1000.000,0.000
1737552809.602,-55.664,6.348,9.277,-1000.000,0.000
1737552809.606,-70.312,-29.297,-21.484,-1000.000,0.000
1737552809.609,-80.078,-34.668,-55.176,-1000.000,0.000
1737552809.613,-57.617,9.277,-10.742,-1000.000,0.000
1737552809.617,-17.578,23.438,6.836,-1000.000,0.000
1737552809.621,-31.738,-2.441,-3.906,-1000.000,0.000
1737552809.625,-34.668,-16.113,10.742,-1000.000,0.000
1737552809.629,-24.414,-4.883,-3.418,-1000.000,0.000
1737552809.633,-32.715,9.766,-10.254,-1000.000,0.000
1737552809.637,-14.160,7.324,-2.930,-1000.000,0.000
1737552809.641,-13.184,-30.273,-21.973,-1000.000,0.000
1737552809.645,-28.809,-20.996,-23.438,-1000.000,0.000
1737552809.649,-29.785,9.766,-11.719,-1000.000,0.000
1737552809.652,-31.738,-11.719,-17.090,-1000.000,0.000
1737552809.656,-31.250,-19.043,-5.859,-1000.000,0.000
1737552809.660,-41.992,6.348,2.930,-1000.000,0.000
1737552809.664,-45.410,-3.418,0.000,-1000.000,0.000
1737552809.668,-35.156,-20.508,-8.301,-1000.000,0.000
1737552809.672,-51.758,-17.090,-20.508,-1000.000,0.000
1737552809.676,-38.086,8.301,-20.020,-1000.000,0.000
1737552809.680,-19.043,-3.906,-3.418,-1000.000,0.000
1737552809.684,-35.645,-24.414,3.418,-1000.000,0.000
1737552809.688,-61.523,-14.160,-17.578,-1000.000,0.000
1737552809.692,-69.336,-7.812,-20.996,-1000.000,0.000
1737552809.695,-30.273,-3.418,-21.484,-1000.000,0.000
1737552809.699,-29.297,-10.742,-11.230,-1000.000,0.000
1737552809.703,-41.016,-35.156,-10.254,-1000.000,0.000
1737552809.707,-34.180,-39.062,-1.953,-1000.000,0.000
1737552809.711,-60.547,-20.508,-3.906,-1000.000,0.000
1737552809.715,-59.082,10.742,-9.277,-1000.000,0.000
1737552809.719,-55.664,2.441,-13.672,-1000.000,0.000
1737552809.723,-67.871,-11.230,-21.973,-1000.000,0.000
1737552809.727,-70.801,-1.465,-16.113,-1000.000,0.000
1737552809.731,-91.797,2.441,-17.090,-1000.000,0.000
1737552809.734,-80.078,-8.789,-11.230,-1000.000,0.000
1737552809.738,-44.434,-17.090,-10.254,-1000.000,0.000
1737552809.742,-30.762,0.000,9.277,-1000.000,0.000
1737552809.746,-44.922,6.348,-1.465,-1000.000,0.000
1737552809.750,-61.035,-11.230,-21.973,-1000.000,0.000
1737552809.754,-48.340,-16.113,-15.137,-1000.000,0.000
1737552809.758,-38.086,-22.461,4.395,-1000.000,0.000
1737552809.762,-35.156,-14.160,11.719,-1000.000,0.000
1737552809.766,-19.531,17.578,-9.277,-1000.000,0.000
1737552809.770,-16.113,21.973,13.184,-1000.000,0.000
1737552809.774,-16.602,3.418,-0.488,-1000.000,0.000
1737552809.777,-3.906,-9.766,-33.203,-1000.000,0.000
1737552809.781,-18.066,-19.043,-2.441,-1000.000,0.000
1737552809.785,-36.133,-0.977,0.977,-1000.000,0.000
1737552809.789,-43.945,13.184,-23.438,-1000.000,0.000
1737552809.793,-46.875,12.207,-11.230,-1000.000,0.000
1737552809.797,-9.766,17.090,7.812,-1000.000,0.000
1737552809.801,-21.973,10.254,-4.883,-1000.000,0.000
1737552809.805,-41.992,2.441,-3.418,-1000.000,0.000
1737552809.809,-48.828,-16.113,-7.324,-1000.000,0.000
1737552809.813,-34.668,-12.695,-9.766,-1000.000,0.000
1737552809.816,-8.789,1.465,1.465,-1000.000,0.000
1737552809.820,-33.203,4.883,-9.277,-1000.000,0.000
1737552809.824,-43.457,10.742,-9.277,-1000.000,0.000
1737552809.828,-34.668,2.930,-6.836,-1000.000,0.000
1737552809.832,-45.898,-34.668,-11.230,-1000.000,0.000
1737552809.836,-25.879,-34.180,-4.395,-1000.000,0.000
1737552809.840,-26.367,-7.812,-8.301,-1000.000,0.000
1737552809.844,-53.223,9.766,-21.973,-1000.000,0.000
1737552809.848,-48.340,16.602,-29.297,-1000.000,0.000
1737552809.852,-34.668,8.789,-12.695,-1000.000,0.000
1737552809.856,-7.812,1.465,2.441,-1000.000,0.000
1737552809.859,-15.137,-0.488,-2.441,-1000.000,0.000
1737552809.863,-29.785,-11.719,-2.441,-1000.000,0.000
1737552809.867,-20.508,-14.648,0.000,-1000.000,0.000
1737552809.871,-23.926,-13.184,-1.465,-1000.000,0.000
1737552809.875,11.230,-3.418,-23.926,-1000.000,0.000
1737552809.879,9.277,1.465,-28.320,-1000.000,0.000
1737552809.883,-41.016,3.418,-1.953,-1000.000,0.000
1737552809.887,-27.344,22.949,14.160,-1000.000,0.000
1737552809.891,-42.480,-4.395,-12.695,-1000.000,0.000
1737552809.895,-42.480,-17.090,-18.555,-1000.000,0.000
1737552809.898,-12.207,4.883,13.184,-1000.000,0.000
1737552809.902,-38.086,3.906,-4.883,-1000.000,0.000
1737552809.906,-63.477,-0.977,-33.203,-1000.000,0.000
1737552809.910,-74.219,-8.789,-17.090,-1000.000,0.000
1737552809.914,-56.641,-6.836,-13.672,-1000.000,0.000
1737552809.918,-25.879,17.090,-19.531,-1000.000,0.000
1737552809.922,-38.574,8.301,-8.789,-1000.000,0.000
1737552809.926,-45.410,-27.344,-6.348,-1000.000,0.000
1737552809.930,-28.320,-13.184,-7.812,-1000.000,0.000
1737552809.934,-28.809,11.719,-5.371,-1000.000,0.000
1737552809.938,3.906,5.859,-0.488,-1000.000,0.000
1737552809.941,25.879,6.348,11.230,-1000.000,0.000
1737552809.945,-8.301,4.883,-11.230,-1000.000,0.000
1737552809.949,-25.391,-9.277,-19.043,-1000.000,0.000
1737552809.953,-11.230,-3.418,-1.953,-1000.000,0.000
1737552809.957,12.207,15.137,0.488,-1000.000,0.000
1737552809.961,-6.836,4.395,-22.949,-1000.000,0.000
1737552809.965,-29.297,-35.156,-27.344,-1000.000,0.000
1737552809.969,-44.434,-28.320,0.977,-1000.000,0.000
1737552809.973,-43.945,4.883,-0.977,-1000.000,0.000
1737552809.977,5.371,24.414,-30.273,-1000.000,0.000
1737552809.981,-13.184,-0.977,-35.645,-1000.000,0.000
1737552809.984,-44.922,-21.973,-18.555,-1000.000,0.000
1737552809.988,-31.250,-7.812,3.906,-1000.000,0.000
1737552809.992,-21.973,5.371,26.367,-1000.000,0.000
1737552809.996,2.930,18.066,24.414,-1000.000,0.000
1737552810.000,6.348,15.625,4.883,-1000.000,0.000
1737552810.004,-14.160,1.465,-20.020,-1000.000,0.000
1737552810.008,-16.113,-6.836,-5.371,-1000.000,0.000
1737552810.012,-5.859,-13.184,3.906,-1000.000,0.000
1737552810.016,3.906,-4.883,-6.836,-1000.000,0.000
1737552810.020,7.324,-3.418,-26.855,-1000.000,0.000
1737552810.024,3.906,-1.465,-31.738,-1000.000,0.000
1737552810.027,-5.371,11.719,4.395,-1000.000,0.000
1737552810.031,-26.367,-13.184,11.719,-1000.000,0.000
1737552810.035,-17.090,-18.066,19.043,-1000.000,0.000
1737552810.039,-25.879,6.836,-19.043,-1000.000,0.000
1737552810.043,-37.109,6.348,-48.340,-1000.000,0.000
1737552810.047,-2.441,4.883,0.000,-1000.000,0.000
1737552810.051,0.488,0.000,2.441,-1000.000,0.000
1737552810.055,-0.977,-2.441,0.977,-1000.000,0.000
1737552810.059,7.812,7.812,-7.324,-1000.000,0.000
1737552810.063,1.465,7.324,-16.113,-1000.000,0.000
1737552810.066,-7.812,-6.348,6.348,-1000.000,0.000
1737552810.070,-32.227,-15.137,3.418,-1000.000,0.000
1737552810.074,-41.504,-20.508,-22.461,-1000.000,0.000
1737552810.078,-46.387,-16.602,-29.297,-1000.000,0.000
1737552810.082,-58.594,-6.836,-14.160,-1000.000,0.000
1737552810.086,-55.664,-14.648,-7.812,-1000.000,0.000
1737552810.090,-58.594,0.000,-8.789,-1000.000,0.000
1737552810.094,-46.875,27.832,-16.602,-1000.000,0.000
1737552810.098,-33.203,16.602,-20.508,-1000.000,0.000
1737552810.102,-45.410,-1.953,9.766,-1000.000,0.000
1737552810.106,-50.293,-12.695,11.719,-1000.000,0.000
1737552810.109,-65.430,-37.109,-12.695,-1000.000,0.000
1737552810.113,-58.594,-11.719,-31.738,-1000.000,0.000
1737552810.117,-32.227,29.297,-13.672,-1000.000,0.000
1737552810.121,-57.129,24.414,0.977,-1000.000,0.000
1737552810.125,-86.426,10.742,-24.414,-1000.000,0.000
1737552810.129,-87.891,-6.836,-22.949,-1000.000,0.000
1737552810.133,-58.105,0.488,11.719,-1000.000,0.000
1737552810.137,-30.273,-3.418,20.508,-1000.000,0.000
1737552810.141,-44.922,3.906,-3.418,-1000.000,0.000
1737552810.145,-64.453,0.977,-34.668,-1000.000,0.000
1737552810.148,-55.664,-26.855,-35.156,-1000.000,0.000
1737552810.152,-56.152,-2.441,-14.648,-1000.000,0.000
1737552810.156,-59.082,20.996,-21.484,-1000.000,0.000
1737552810.160,-58.594,14.648,-9.766,-1000.000,0.000
1737552810.164,-64.453,17.090,8.301,-1000.000,0.000
1737552810.168,-72.754,17.578,0.000,-1000.000,0.000
1737552810.172,-81.055,-6.348,-23.438,-1000.000,0.000
1737552810.176,-49.805,-22.949,-22.461,-1000.000,0.000
1737552810.180,-22.949,1.953,-1.465,-1000.000,0.000
1737552810.184,-43.457,4.395,3.906,-1000.000,0.000
1737552810.187,-54.688,-9.277,-5.859,-1000.000,0.000
1737552810.191,-65.430,-6.348,-11.230,-1000.000,0.000
1737552810.195,-49.805,-7.324,-24.902,-1000.000,0.000
1737552810.199,-19.043,-8.301,-17.578,-1000.000,0.000
1737552810.203,-22.461,2.441,4.395,-1000.000,0.000
1737552810.207,-36.621,11.230,3.418,-1000.000,0.000
1737552810.211,-60.547,3.906,-4.395,-1000.000,0.000
1737552810.215,-38.086,-19.531,-13.184,-1000.000,0.000
1737552810.219,-38.086,-22.461,-11.719,-1000.000,0.000
1737552810.223,-89.355,-22.949,-26.367,-1000.000,0.000
1737552810.227,-81.055,-8.789,-10.742,-1000.000,0.000
1737552810.230,-57.617,21.973,14.648,-1000.000,0.000
1737552810.234,-59.570,12.207,13.672,-1000.000,0.000
1737552810.238,-48.828,5.371,1.953,-1000.000,0.000
1737552810.242,-42.480,-11.719,-26.855,-1000.000,0.000
1737552810.246,-36.621,-17.090,-18.066,-1000.000,0.000
1737552810.250,-49.805,-3.906,5.371,-1000.000,0.000
1737552810.254,-63.965,-10.742,-4.395,-1000.000,0.000
1737552810.258,-52.246,-7.324,-39.062,-1000.000,0.000
1737552810.262,-63.477,-6.836,-33.203,-1000.000,0.000
1737552810.266,-54.688,-4.395,4.883,-1000.000,0.000
1737552810.270,-69.336,12.207,2.441,-1000.000,0.000
1737552810.273,-90.820,16.602,9.277,-1000.000,0.000
1737552810.277,-57.617,18.555,25.391,-1000.000,0.000
1737552810.281,-59.570,6.836,10.742,-1000.000,0.000
1737552810.285,-64.453,-8.789,-0.488,-1000.000,0.000
1737552810.289,-59.082,-19.531,-3.906,-1000.000,0.000
1737552810.293,-61.035,-25.879,-23.438,-1000.000,0.000
1737552810.297,-44.434,-2.441,-34.668,-1000.000,0.000
1737552810.301,-39.062,19.531,-13.672,-1000.000,0.000
1737552810.305,-56.152,0.488,-10.742,-1000.000,0.000
1737552810.309,-80.566,-7.812,-35.156,-1000.000,0.000
1737552810.313,-81.055,-3.906,-1.953,-1000.000,0.000
1737552810.316,-44.434,-13.184,22.949,-1000.000,0.000
1737552810.320,-47.852,-15.625,13.184,-1000.000,0.000
1737552810.324,-75.195,-4.883,0.977,-1000.000,0.000
1737552810.328,-94.727,7.324,-31.738,-1000.000,0.000
1737552810.332,-96.680,25.879,-11.719,-1000.000,0.000
1737552810.336,-57.617,20.508,0.977,-1000.000,0.000
1737552810.340,-66.895,1.953,-17.578,-1000.000,0.000
1737552810.344,-71.777,-19.043,-1.953,-1000.000,0.000
1737552810.348,-62.500,-21.484,10.254,-1000.000,0.000
1737552810.352,-73.242,9.277,0.488,-1000.000,0.000
1737552810.355,-65.918,18.555,-7.324,-1000.000,0.000
1737552810.359,-74.219,-2.441,-18.066,-1000.000,0.000
1737552810.363,-83.008,-17.090,-39.551,-1000.000,0.000
1737552810.367,-75.195,-12.695,-25.391,-1000.000,0.000
1737552810.371,-61.523,2.441,4.395,-1000.000,0.000
1737552810.375,-31.250,13.184,-1.465,-1000.000,0.000
1737552810.379,-23.926,-1.465,-13.184,-1000.000,0.000
1737552810.383,-28.809,-35.645,7.324,-1000.000,0.000
1737552810.387,-37.109,-38.086,9.766,-1000.000,0.000
1737552810.391,-61.035,-16.113,-14.648,-1000.000,0.000
1737552810.395,-48.340,-7.324,-14.648,-1000.000,0.000
1737552810.398,-13.184,25.879,-9.766,-1000.000,0.000
1737552810.402,-4.883,45.410,-4.883,-1000.000,0.000
1737552810.406,-30.273,29.297,-15.625,-1000.000,0.000
1737552810.410,-55.664,2.930,-0.977,-1000.000,0.000
1737552810.414,-58.594,-10.254,9.277,-1000.000,0.000
1737552810.418,-40.527,-21.484,-13.184,-1000.000,0.000
1737552810.422,-34.180,-40.039,-23.438,-1000.000,0.000
1737552810.426,-41.992,-48.340,-30.273,-1000.000,0.000
1737552810.430,-59.082,-24.902,-16.113,-1000.000,0.000
1737552810.434,-48.340,20.996,7.324,-1000.000,0.000
1737552810.438,-34.180,20.996,7.812,-1000.000,0.000
1737552810.441,-38.574,1.465,-4.883,-1000.000,0.000
1737552810.445,-23.926,-0.977,-7.812,-1000.000,0.000
1737552810.449,-11.719,-32.227,-20.996,-1000.000,0.000
1737552810.453,-33.203,-22.949,-57.617,-1000.000,0.000
1737552810.457,-36.133,24.902,-39.551,-1000.000,0.000
1737552810.461,-38.574,30.762,15.137,-1000.000,0.000
1737552810.465,-28.809,13.184,18.066,-1000.000,0.000
1737552810.469,-25.391,-3.418,13.184,-1000.000,0.000
1737552810.473,-23.438,5.859,11.719,-1000.000,0.000
1737552810.477,1.953,-17.578,-7.812,-1000.000,0.000
1737552810.480,-24.414,-36.621,-12.695,-1000.000,0.000
1737552810.484,-48.828,-4.395,-27.344,-1000.000,0.000
1737552810.488,-47.363,2.441,-41.504,-1000.000,0.000
1737552810.492,-43.945,6.348,-28.809,-1000.000,0.000
1737552810.496,-15.625,14.160,-47.852,-1000.000,0.000
1737552810.500,-36.133,1.953,-9.277,-1000.000,0.000
1737552810.504,-79.102,-3.418,30.273,-1000.000,0.000
1737552810.508,-80.078,-15.625,10.254,-1000.000,0.000
1737552810.512,-84.961,-11.230,-1.953,-1000.000,0.000
1737552810.516,-54.688,10.742,2.930,-1000.000,0.000
1737552810.520,-39.062,6.836,-31.738,-1000.000,0.000
1737552810.523,-69.336,-19.531,-52.734,-1000.000,0.000
1737552810.527,-66.406,-4.395,-32.227,-1000.000,0.000
1737552810.531,-59.082,9.766,-7.324,-1000.000,0.000
1737552810.535,-50.781,-7.812,15.137,-1000.000,0.000
1737552810.539,-44.434,8.789,3.418,-1000.000,0.000
1737552810.543,-53.223,3.906,8.789,-1000.000,0.000
1737552810.547,-57.129,-7.812,-8.301,-1000.000,0.000
1737552810.551,-56.152,-2.930,-25.879,-1000.000,0.000
1737552810.555,-33.691,-7.324,-14.160,-1000.000,0.000
1737552810.559,-11.230,-3.418,-4.883,-1000.000,0.000
1737552810.562,-24.902,2.930,-7.812,-1000.000,0.000
1737552810.566,-32.715,4.883,-10.254,-1000.000,0.000
1737552810.570,-37.109,-1.465,-9.766,-1000.000,0.000
1737552810.574,-23.438,-20.996,0.977,-1000.000,0.000
1737552810.578,-18.066,-21.973,2.441,-1000.000,0.000
1737552810.582,-47.852,2.441,-10.742,-1000.000,0.000
1737552810.586,-33.691,6.348,-3.906,-1000.000,0.000
1737552810.590,-34.180,15.625,1.953,-1000.000,0.000
1737552810.594,-37.109,16.113,-3.418,-1000.000,0.000
1737552810.598,-11.719,-10.254,-30.762,-1000.000,0.000
1737552810.602,-21.484,-27.344,-27.832,-1000.000,0.000
1737552810.605,-67.383,-4.883,-20.508,-1000.000,0.000
1737552810.609,-98.633,-20.020,-24.414,-1000.000,0.000
1737552810.613,-73.242,-29.297,0.000,-1000.000,0.000
1737552810.617,-36.621,6.348,1.953,-1000.000,0.000
1737552810.621,-40.039,4.883,-9.277,-1000.000,0.000
1737552810.625,-56.641,-2.441,-16.113,-1000.000,0.000
1737552810.629,-83.496,0.977,-0.977,-1000.000,0.000
1737552810.633,-98.145,-3.418,-6.348,-1000.000,0.000
1737552810.637,-83.496,-30.762,-7.812,-1000.000,0.000
1737552810.641,-87.891,-33.691,-14.160,-1000.000,0.000
1737552810.644,-94.238,-3.418,-22.949,-1000.000,0.000
1737552810.648,-108.398,9.766,-14.648,-1000.000,0.000
1737552810.652,-94.727,10.742,-7.812,-1000.000,0.000
1737552810.656,-80.566,4.395,5.859,-1000.000,0.000
1737552810.660,-112.793,-16.113,-1.465,-1000.000,0.000
1737552810.664,-128.418,-24.902,-23.438,-1000.000,0.000
1737552810.668,-143.066,-21.484,-28.809,-1000.000,0.000
1737552810.672,-137.695,-23.438,-27.832,-1000.000,0.000
1737552810.676,-104.980,-21.973,-0.488,-1000.000,0.000
1737552810.680,-95.703,-1.465,10.742,-1000.000,0.000
1737552810.684,-117.676,14.648,-3.418,-1000.000,0.000
1737552810.687,-141.113,15.625,-8.301,-1000.000,0.000
1737552810.691,-150.391,4.883,-14.160,-1000.000,0.000
1737552810.695,-125.977,-0.488,-8.301,-1000.000,0.000
1737552810.699,-92.773,-6.348,9.277,-1000.000,0.000
1737552810.703,-104.004,-18.555,-3.418,-1000.000,0.000
1737552810.707,-128.906,-16.113,-37.598,-1000.000,0.000
1737552810.711,-126.953,4.395,-17.578,-1000.000,0.000
1737552810.715,-104.980,3.418,4.883,-1000.000,0.000
1737552810.719,-92.285,0.488,-7.324,-1000.000,0.000
1737552810.723,-110.840,-14.648,-5.859,-1000.000,0.000
1737552810.727,-136.230,-35.156,-12.207,-1000.000,0.000
1737552810.730,-144.531,-10.742,-30.273,-1000.000,0.000
1737552810.734,-113.281,-3.418,-15.137,-1000.000,0.000
1737552810.738,-78.125,-4.883,-0.977,-1000.000,0.000
1737552810.742,-83.984,7.324,-10.254,-1000.000,0.000
1737552810.746,-94.727,2.441,-10.742,-1000.000,0.000
1737552810.750,-90.820,-11.719,-2.930,-1000.000,0.000
1737552810.754,-81.055,-4.883,-1.953,-1000.000,0.000
1737552810.758,-57.617,3.418,-19.043,-1000.000,0.000
1737552810.762,-61.523,-18.555,-38.086,-1000.000,0.000
1737552810.766,-97.656,-28.809,-29.297,-1000.000,0.000
1737552810.770,-100.586,-5.859,-13.184,-1000.000,0.000
1737552810.773,-76.172,6.348,-20.508,-1000.000,0.000
1737552810.777,-46.875,-0.977,-2.930,-1000.000,0.000
1737552810.781,-42.480,-9.766,5.859,-1000.000,0.000
1737552810.785,-80.078,-20.508,-20.996,-1000.000,0.000
1737552810.789,-69.824,-19.043,-25.879,-1000.000,0.000
1737552810.793,-70.801,0.977,-8.301,-1000.000,0.000
1737552810.797,-76.172,-4.883,-11.719,-1000.000,0.000
1737552810.801,-45.898,-14.160,-11.230,-1000.000,0.000
1737552810.805,-60.547,-18.555,-16.602,-1000.000,0.000
1737552810.809,-90.332,-27.832,-61.523,-1000.000,0.000
1737552810.812,-107.910,-6.348,-47.852,-1000.000,0.000
1737552810.816,-109.375,-2.930,0.977,-1000.000,0.000
1737552810.820,-83.008,-9.277,-6.348,-1000.000,0.000
1737552810.824,-73.730,-4.883,-15.137,-1000.000,0.000
1737552810.828,-86.426,-17.578,-5.859,-1000.000,0.000
1737552810.832,-90.332,-29.785,-10.254,-1000.000,0.000
1737552810.836,-61.035,-21.973,-30.762,-1000.000,0.000
1737552810.840,-38.574,-1.953,-9.766,-1000.000,0.000
1737552810.844,-43.945,-13.672,1.465,-1000.000,0.000
1737552810.848,-50.781,-2.441,-28.809,-1000.000,0.000
1737552810.852,-55.664,12.695,-27.344,-1000.000,0.000
1737552810.855,-47.363,11.230,-5.371,-1000.000,0.000
1737552810.859,-36.621,15.137,2.930,-1000.000,0.000
1737552810.863,-56.152,-5.859,-9.277,-1000.000,0.000
1737552810.867,-42.969,-11.230,-4.395,-1000.000,0.000
1737552810.871,-27.344,3.906,13.184,-1000.000,0.000
1737552810.875,-24.902,5.371,6.836,-1000.000,0.000
1737552810.879,-22.461,-17.090,-8.789,-1000.000,0.000
1737552810.883,-28.320,-34.668,-23.438,-1000.000,0.000
1737552810.887,-46.387,-20.996,-20.508,-1000.000,0.000
1737552810.891,-59.570,8.789,3.418,-1000.000,0.000
1737552810.894,-45.898,32.715,-6.348,-1000.000,0.000
1737552810.898,-51.270,14.160,-7.324,-1000.000,0.000
1737552810.902,-95.703,-13.184,-5.371,-1000.000,0.000
1737552810.906,-104.492,-27.832,-15.625,-1000.000,0.000
1737552810.910,-109.863,-49.316,-16.113,-1000.000,0.000
1737552810.914,-108.398,-36.621,-12.695,-1000.000,0.000
1737552810.918,-68.848,3.906,1.465,-1000.000,0.000
1737552810.922,-110.840,24.902,-21.484,-1000.000,0.000
1737552810.926,-151.855,0.977,-23.926,-1000.000,0.000
1737552810.930,-148.926,-4.883,-4.395,-1000.000,0.000
1737552810.934,-148.438,-2.930,-10.254,-1000.000,0.000
1737552810.937,-130.371,-8.301,-16.113,-1000.000,0.000
1737552810.941,-159.668,-4.395,-13.184,-1000.000,0.000
1737552810.945,-165.527,-18.066,-20.996,-1000.000,0.000
1737552810.949,-139.648,-13.184,-3.906,-1000.000,0.000
1737552810.953,-134.766,-18.555,11.230,-1000.000,0.000
1737552810.957,-117.188,-25.879,-4.395,-1000.000,0.000
1737552810.961,-113.770,-7.812,-27.832,-1000.000,0.000
1737552810.965,-119.141,3.906,-25.391,-1000.000,0.000
1737552810.969,-111.816,-15.137,-15.137,-1000.000,0.000
1737552810.973,-91.309,-3.418,-20.508,-1000.000,0.000
1737552810.976,-61.035,12.207,-31.250,-1000.000,0.000
1737552810.980,-59.570,-9.277,-21.484,-1000.000,0.000
1737552810.984,-60.547,-27.832,2.441,-1000.000,0.000
1737552810.988,-71.289,-29.785,-12.695,-1000.000,0.000
1737552810.992,-66.895,-20.020,-18.066,-1000.000,0.000
1737552810.996,-33.203,-20.020,-16.113,-1000.000,0.000
1737552811.000,-22.949,-20.508,-25.879,-1000.000,0.000
1737552811.004,-42.480,-3.906,-26.855,-1000.000,0.000
1737552811.008,-30.762,20.508,-15.137,-1000.000,0.000
1737552811.012,18.555,14.648,5.371,-1000.000,0.000
1737552811.016,47.363,0.488,0.977,-1000.000,0.000
1737552811.019,54.688,3.906,-5.859,-1000.000,0.000
1737552811.023,41.992,0.977,-7.812,-1000.000,0.000
1737552811.027,18.066,8.789,-20.020,-1000.000,0.000
1737552811.031,17.090,1.465,-13.672,-1000.000,0.000
1737552811.035,48.340,-4.883,7.812,-1000.000,0.000
1737552811.039,53.223,-3.906,-7.812,-1000.000,0.000
1737552811.043,36.133,-9.277,-29.785,-1000.000,0.000
1737552811.047,24.414,-14.160,-30.273,-1000.000,0.000
1737552811.051,12.695,-19.043,-10.254,-1000.000,0.000
1737552811.055,14.160,6.836,9.277,-1000.000,0.000
1737552811.059,35.156,21.484,12.695,-1000.000,0.000
1737552811.062,26.367,9.277,0.488,-1000.000,0.000
1737552811.066,7.812,3.906,-14.160,-1000.000,0.000
1737552811.070,-10.742,-5.371,-26.855,-1000.000,0.000
1737552811.074,6.348,-8.301,-21.973,-1000.000,0.000
1737552811.078,26.855,-2.441,-6.348,-1000.000,0.000
1737552811.082,-2.441,-27.832,-18.555,-1000.000,0.000
1737552811.086,-16.113,-27.832,-36.621,-1000.000,0.000
1737552811.090,-34.668,3.418,-17.578,-1000.000,0.000
1737552811.094,-36.621,18.066,-2.441,-1000.000,0.000
1737552811.098,-7.812,8.789,-11.230,-1000.000,0.000
1737552811.102,-10.742,9.766,-25.879,-1000.000,0.000
1737552811.105,-28.320,-4.883,-27.344,-1000.000,0.000
1737552811.109,-39.062,-24.414,-19.043,-1000.000,0.000
1737552811.113,-29.297,1.953,-6.836,-1000.000,0.000
1737552811.117,12.695,-7.812,10.254,-1000.000,0.000
1737552811.121,-4.883,-16.113,-10.742,-1000.000,0.000
1737552811.125,-66.406,4.883,-29.297,-1000.000,0.000
1737552811.129,-75.195,-8.789,-18.066,-1000.000,0.000
1737552811.133,-64.453,-25.879,-25.879,-1000.000,0.000
1737552811.137,-59.082,-22.461,-30.762,-1000.000,0.000
1737552811.141,-68.359,-16.113,-9.766,-1000.000,0.000
1737552811.145,-76.660,0.488,-8.789,-1000.000,0.000
1737552811.148,-56.641,-4.395,-12.207,-1000.000,0.000
1737552811.152,-59.082,-7.324,-12.695,-1000.000,0.000
1737552811.156,-28.809,6.836,-13.184,-1000.000,0.000
1737552811.160,-21.484,-4.883,-3.418,-1000.000,0.000
1737552811.164,-58.594,-19.043,-0.488,-1000.000,0.000
1737552811.168,-42.969,-14.160,-21.484,-1000.000,0.000
1737552811.172,-0.488,-7.812,-32.715,-1000.000,0.000
1737552811.176,25.879,-13.184,-6.836,-1000.000,0.000
1737552811.180,31.738,5.859,5.371,-1000.000,0.000
1737552811.184,26.367,7.812,13.672,-1000.000,0.000
1737552811.187,20.996,-5.371,-2.930,-1000.000,0.000
1737552811.191,6.348,-27.832,-16.113,-1000.000,0.000
1737552811.195,29.297,-25.391,0.977,-1000.000,0.000
1737552811.199,39.062,-1.465,-2.930,-1000.000,0.000
1737552811.203,-0.977,-23.926,-21.484,-1000.000,0.000
1737552811.207,-11.230,-29.785,-34.668,-1000.000,0.000
1737552811.211,-6.836,-16.113,-37.598,-1000.000,0.000
1737552811.215,34.668,-11.230,-3.906,-1000.000,0.000
1737552811.219,40.039,-9.766,4.883,-1000.000,0.000
1737552811.223,-11.230,0.977,-7.324,-1000.000,0.000
1737552811.227,6.836,1.465,-12.207,-1000.000,0.000
1737552811.230,15.137,-8.789,-27.344,-1000.000,0.000
1737552811.234,2.930,-6.348,-11.719,-1000.000,0.000
1737552811.238,1.953,-23.438,-3.418,-1000.000,0.000
1737552811.242,-12.695,-36.133,-29.785,-1000.000,0.000
1737552811.246,-29.297,-17.578,-20.508,-1000.000,0.000
1737552811.250,-34.180,-4.883,-6.348,-1000.000,0.000
1737552811.254,-28.809,-7.812,-24.414,-1000.000,0.000
1737552811.258,-8.301,4.883,-3.418,-1000.000,0.000
1737552811.262,-21.484,16.602,12.207,-1000.000,0.000
1737552811.266,-44.434,-2.441,-4.883,-1000.000,0.000
1737552811.269,-34.180,-5.371,-2.441,-1000.000,0.000
1737552811.273,-22.461,-2.441,-0.488,-1000.000,0.000
1737552811.277,0.977,-3.418,-21.484,-1000.000,0.000
1737552811.281,-2.441,-13.672,-25.879,-1000.000,0.000
1737552811.285,-11.230,-16.113,2.930,-1000.000,0.000
1737552811.289,-7.324,3.906,-12.695,-1000.000,0.000
1737552811.293,-16.602,3.906,-47.363,-1000.000,0.000
1737552811.297,-21.484,-9.277,-28.809,-1000.000,0.000
1737552811.301,-24.414,1.953,2.930,-1000.000,0.000
1737552811.305,-40.039,21.484,12.207,-1000.000,0.000
1737552811.308,-46.875,5.371,-1.953,-1000.000,0.000
1737552811.312,-62.012,-2.441,-15.137,-1000.000,0.000
1737552811.316,-49.316,-7.324,-9.766,-1000.000,0.000
1737552811.320,-27.832,-22.461,-19.531,-1000.000,0.000
1737552811.324,-61.035,-16.113,-28.809,-1000.000,0.000
1737552811.328,-77.148,-2.930,-32.715,-1000.000,0.000
1737552811.332,-58.105,-5.371,-33.203,-1000.000,0.000
1737552811.336,-25.391,-0.488,-36.133,-1000.000,0.000
1737552811.340,-38.574,-14.160,-25.391,-1000.000,0.000
1737552811.344,-73.242,-20.508,6.836,-1000.000,0.000
1737552811.348,-60.059,-11.230,0.000,-1000.000,0.000
1737552811.351,-42.969,2.441,-15.625,-1000.000,0.000
1737552811.355,-24.902,7.324,-9.277,-1000.000,0.000
1737552811.359,-2.441,-4.395,-5.371,-1000.000,0.000
1737552811.363,-23.438,-0.488,-7.812,-1000.000,0.000
1737552811.367,-30.762,-0.488,-11.719,-1000.000,0.000
1737552811.371,-9.277,-11.230,-24.902,-1000.000,0.000
1737552811.375,-28.809,-27.344,-12.695,-1000.000,0.000
1737552811.379,-54.688,-8.789,-13.184,-1000.000,0.000
1737552811.383,-56.152,33.203,-18.555,-1000.000,0.000
1737552811.387,-63.477,19.043,-15.137,-1000.000,0.000
1737552811.391,-68.848,0.488,-6.348,-1000.000,0.000
1737552811.394,-52.246,-11.719,-2.930,-1000.000,0.000
1737552811.398,-28.809,-32.227,-22.461,-1000.000,0.000
1737552811.402,-46.387,-19.531,-30.762,-1000.000,0.000
1737552811.406,-89.355,11.719,-13.672,-1000.000,0.000
1737552811.410,-96.680,-9.277,2.441,-1000.000,0.000
1737552811.414,-89.355,-20.020,-3.418,-1000.000,0.000
1737552811.418,-69.336,2.441,-10.742,-1000.000,0.000
1737552811.422,-75.195,0.977,-2.930,-1000.000,0.000
1737552811.426,-97.656,5.371,2.441,-1000.000,0.000
1737552811.430,-80.566,-4.395,-2.930,-1000.000,0.000
1737552811.434,-37.598,-11.230,-2.441,-1000.000,0.000
1737552811.437,-4.395,2.930,0.977,-1000.000,0.000
1737552811.441,-16.113,-7.324,-8.789,-1000.000,0.000
1737552811.445,-31.250,-16.602,-23.438,-1000.000,0.000
1737552811.449,-22.461,-13.184,-28.809,-1000.000,0.000
1737552811.453,4.395,-9.277,-20.996,-1000.000,0.000
1737552811.457,13.672,-8.789,-8.301,-1000.000,0.000
1737552811.461,-5.371,-10.742,10.254,-1000.000,0.000
1737552811.465,4.883,-1.465,-5.859,-1000.000,0.000
1737552811.469,21.484,-8.789,-27.344,-1000.000,0.000
1737552811.473,17.578,1.465,0.488,-1000.000,0.000
1737552811.476,41.504,26.855,-13.672,-1000.000,0.000
1737552811.480,27.344,-8.301,-29.297,-1000.000,0.000
1737552811.484,-20.508,-44.434,-28.320,-1000.000,0.000
1737552811.488,-8.301,-12.695,-25.391,-1000.000,0.000
1737552811.492,15.625,10.254,10.254,-1000.000,0.000
1737552811.496,12.207,11.719,11.230,-1000.000,0.000
1737552811.500,-5.859,20.996,-13.672,-1000.000,0.000
1737552811.504,-34.180,3.906,-11.230,-1000.000,0.000
1737552811.508,-25.391,-23.926,-15.625,-1000.000,0.000
1737552811.512,-13.672,-26.855,-34.180,-1000.000,0.000
1737552811.516,1.953,-11.719,-14.160,-1000.000,0.000
1737552811.519,4.395,5.371,-0.488,-1000.000,0.000
1737552811.523,-30.273,8.789,-9.277,-1000.000,0.000
1737552811.527,-32.715,10.742,-15.625,-1000.000,0.000
1737552811.531,-52.246,-5.371,-12.695,-1000.000,0.000
1737552811.535,-41.016,-34.180,-7.324,-1000.000,0.000
1737552811.539,-12.695,-26.367,3.418,-1000.000,0.000
1737552811.543,-48.828,-4.395,13.184,-1000.000,0.000
1737552811.547,-57.129,8.301,-8.301,-1000.000,0.000
1737552811.551,-58.594,-7.812,-12.695,-1000.000,0.000
1737552811.555,-33.691,-15.625,6.836,-1000.000,0.000
1737552811.559,-9.766,11.230,0.000,-1000.000,0.000
1737552811.562,-53.711,3.418,-13.184,-1000.000,0.000
1737552811.566,-78.125,-12.207,-10.254,-1000.000,0.000
1737552811.570,-57.129,3.906,-9.766,-1000.000,0.000
1737552811.574,-42.480,4.395,-23.438,-1000.000,0.000
1737552811.578,-36.133,-22.949,-3.418,-1000.000,0.000
1737552811.582,-58.594,-25.391,7.812,-1000.000,0.000
1737552811.586,-68.359,-25.879,1.465,-1000.000,0.000
1737552811.590,-62.500,-8.789,1.465,-1000.000,0.000
1737552811.594,-64.453,20.996,-9.277,-1000.000,0.000
1737552811.598,-39.062,15.625,-13.184,-1000.000,0.000
1737552811.601,-21.973,11.230,-7.812,-1000.000,0.000
1737552811.605,-44.434,4.883,-12.207,-1000.000,0.000
1737552811.609,-51.758,-2.930,-6.836,-1000.000,0.000
1737552811.613,-37.598,-25.391,-6.836,-1000.000,0.000
1737552811.617,-20.020,-32.227,-46.875,-1000.000,0.000
1737552811.621,-24.902,-24.902,-20.508,-1000.000,0.000
1737552811.625,-62.500,-6.836,20.020,-1000.000,0.000
1737552811.629,-81.543,15.137,-6.348,-1000.000,0.000
1737552811.633,-73.242,5.859,-10.254,-1000.000,0.000
1737552811.637,-61.523,3.906,-4.395,-1000.000,0.000
1737552811.640,-71.289,-7.324,-9.277,-1000.000,0.000
1737552811.644,-71.289,10.742,-38.574,-1000.000,0.000
1737552811.648,-73.730,10.742,-31.738,-1000.000,0.000
1737552811.652,-92.773,-17.090,10.742,-1000.000,0.000
1737552811.656,-79.102,-41.504,-10.254,-1000.000,0.000
1737552811.660,-67.871,-34.668,-12.207,-1000.000,0.000
1737552811.664,-84.473,21.973,12.695,-1000.000,0.000
1737552811.668,-88.867,17.578,-6.348,-1000.000,0.000
1737552811.672,-79.590,-8.789,-23.926,-1000.000,0.000
1737552811.676,-30.762,-5.859,-15.625,-1000.000,0.000
1737552811.680,-5.371,-2.441,-16.113,-1000.000,0.000
1737552811.683,-37.598,-2.930,-27.344,-1000.000,0.000
1737552811.687,-40.039,-11.719,-12.695,-1000.000,0.000
1737552811.691,-25.391,-28.809,-2.441,-1000.000,0.000
1737552811.695,7.324,-27.832,-1.953,-1000.000,0.000
1737552811.699,26.855,-7.324,2.930,-1000.000,0.000
1737552811.703,13.672,2.441,-16.602,-1000.000,0.000
1737552811.707,18.066,-14.648,-14.648,-1000.000,0.000
1737552811.711,23.926,-11.230,8.301,-1000.000,0.000
1737552811.715,5.859,15.625,-7.324,-1000.000,0.000
1737552811.719,-3.418,13.184,-16.113,-1000.000,0.000
1737552811.723,-23.438,-12.207,-1.465,-1000.000,0.000
1737552811.726,-56.641,-13.184,1.465,-1000.000,0.000
1737552811.730,-63.965,1.465,0.000,-1000.000,0.000
1737552811.734,-49.316,-15.137,-27.832,-1000.000,0.000
1737552811.738,-25.391,-33.203,-33.203,-1000.000,0.000
1737552811.742,-72.266,-31.250,-4.395,-1000.000,0.000
1737552811.746,-102.051,-35.156,-2.441,-1000.000,0.000
1737552811.750,-94.727,-6.836,-5.371,-1000.000,0.000
1737552811.754,-81.055,18.555,3.906,-1000.000,0.000
1737552811.758,-62.500,16.113,-0.977,-1000.000,0.000
1737552811.762,-73.242,5.859,-8.789,-1000.000,0.000
1737552811.765,-68.848,-7.812,-5.859,-1000.000,0.000
1737552811.769,-65.430,-15.625,-7.812,-1000.000,0.000
1737552811.773,-42.969,-17.578,-22.949,-1000.000,0.000
1737552811.777,-20.020,-12.695,-33.691,-1000.000,0.000
1737552811.781,-53.711,-41.504,-10.254,-1000.000,0.000
1737552811.785,-63.965,-28.809,-3.418,-1000.000,0.000
1737552811.789,-70.312,5.859,-8.301,-1000.000,0.000
1737552811.793,-82.520,-10.254,-8.301,-1000.000,0.000
1737552811.797,-34.668,0.000,-11.230,-1000.000,0.000
1737552811.801,-12.207,14.648,10.254,-1000.000,0.000
1737552811.805,-44.922,11.230,3.418,-1000.000,0.000
1737552811.808,-49.316,-10.254,-15.625,-1000.000,0.000
1737552811.812,-35.645,-22.461,-8.301,-1000.000,0.000
1737552811.816,-47.363,-8.301,1.465,-1000.000,0.000
1737552811.820,-62.988,-18.555,3.418,-1000.000,0.000
1737552811.824,-74.707,-1.465,-4.883,-1000.000,0.000
1737552811.828,-88.379,16.113,-4.395,-1000.000,0.000
1737552811.832,-83.984,18.066,-16.602,-1000.000,0.000
1737552811.836,-72.266,7.812,-19.531,-1000.000,0.000
1737552811.840,-75.684,-23.438,-14.648,-1000.000,0.000
1737552811.844,-106.934,-1.465,-30.762,-1000.000,0.000
1737552811.848,-91.797,1.465,-27.832,-1000.000,0.000
1737552811.851,-60.059,-16.602,-14.648,-1000.000,0.000
1737552811.855,-64.941,-4.883,9.277,-1000.000,0.000
1737552811.859,-71.289,8.789,22.949,-1000.000,0.000
1737552811.863,-76.660,9.277,8.789,-1000.000,0.000
1737552811.867,-72.266,-1.953,-1.465,-1000.000,0.000
1737552811.871,-55.176,-17.090,-7.324,-1000.000,0.000
1737552811.875,-10.254,-31.738,-17.090,-1000.000,0.000
1737552811.879,0.000,-16.113,-21.973,-1000.000,0.000
1737552811.883,-61.035,16.602,-18.555,-1000.000,0.000
1737552811.887,-90.332,17.090,-32.715,-1000.000,0.000
1737552811.891,-77.148,9.766,-39.551,-1000.000,0.000
1737552811.894,-67.383,-0.977,-10.742,-1000.000,0.000
1737552811.898,-45.898,3.906,18.066,-1000.000,0.000
1737552811.902,-76.660,2.930,21.973,-1000.000,0.000
1737552811.906,-104.492,-16.113,7.812,-1000.000,0.000
1737552811.910,-102.539,-16.602,-20.508,-1000.000,0.000
1737552811.914,-88.867,-9.766,-20.996,-1000.000,0.000
1737552811.918,-60.059,-9.766,1.953,-1000.000,0.000
1737552811.922,-77.148,-17.578,-11.719,-1000.000,0.000
1737552811.926,-102.539,-11.719,-19.043,-1000.000,0.000
1737552811.930,-78.613,-12.695,-23.926,-1000.000,0.000
1737552811.933,-61.523,-5.859,-16.113,-1000.000,0.000
1737552811.937,-44.922,13.672,-3.906,-1000.000,0.000
1737552811.941,-32.715,-7.324,-3.418,-1000.000,0.000
1737552811.945,-50.781,-10.742,-24.902,-1000.000,0.000
1737552811.949,-67.871,7.324,-35.156,-1000.000,0.000
1737552811.953,-96.191,-13.672,-18.066,-1000.000,0.000
1737552811.957,-83.496,-10.254,-1.953,-1000.000,0.000
1737552811.961,-91.797,13.672,-10.254,-1000.000,0.000
1737552811.965,-125.000,-10.254,-21.484,-1000.000,0.000
1737552811.969,-138.184,-19.531,-12.207,-1000.000,0.000
1737552811.973,-155.273,3.418,4.395,-1000.000,0.000
1737552811.976,-153.809,-5.859,0.977,-1000.000,0.000
1737552811.980,-145.508,-12.695,-7.324,-1000.000,0.000
1737552811.984,-166.504,-6.348,-11.230,-1000.000,0.000
1737552811.988,-178.223,9.766,-14.648,-1000.000,0.000
1737552811.992,-158.203,20.996,-14.160,-1000.000,0.000
1737552811.996,-142.090,15.137,-23.438,-1000.000,0.000
1737552812.000,-145.508,-17.578,-24.414,-1000.000,0.000
1737552812.004,-165.039,-23.438,-18.555,-1000.000,0.000
1737552812.008,-164.062,5.371,-11.719,-1000.000,0.000
1737552812.012,-161.621,-4.395,-26.367,-1000.000,0.000
1737552812.015,-165.039,-17.090,-18.555,-1000.000,0.000
1737552812.019,-145.996,0.000,4.395,-1000.000,0.000
1737552812.023,-157.715,2.930,7.324,-1000.000,0.000
1737552812.027,-173.828,-4.883,5.859,-1000.000,0.000
1737552812.031,-163.086,-10.742,-21.973,-1000.000,0.000
1737552812.035,-175.781,-5.371,-32.227,-1000.000,0.000
1737552812.039,-192.383,-5.371,-12.695,-1000.000,0.000
1737552812.043,-218.262,-34.180,-6.836,-1000.000,0.000
1737552812.047,-216.797,-28.320,-20.508,-1000.000,0.000
1737552812.051,-232.422,-9.766,-27.832,-1000.000,0.000
1737552812.055,-260.742,-1.953,-13.672,-1000.000,0.000
1737552812.058,-255.859,2.441,-3.418,-1000.000,0.000
1737552812.062,-289.062,-2.441,-4.395,-1000.000,0.000
1737552812.066,-327.148,-26.855,-22.461,-1000.000,0.000
1737552812.070,-331.055,-25.879,-34.180,-1000.000,0.000
1737552812.074,-309.082,-9.277,-20.508,-1000.000,0.000
1737552812.078,-238.770,-3.906,-3.418,-1000.000,0.000
1737552812.082,-207.031,8.301,-7.324,-1000.000,0.000
1737552812.086,-194.824,10.254,-16.602,-1000.000,0.000
1737552812.090,-200.195,-3.418,-16.602,-1000.000,0.000
1737552812.094,-179.688,-14.648,-13.672,-1000.000,0.000
1737552812.097,-120.117,-3.418,-33.203,-1000.000,0.000
1737552812.101,-114.258,-14.160,-43.457,-1000.000,0.000
1737552812.105,-120.605,-37.109,-19.531,-1000.000,0.000
1737552812.109,-88.867,-17.090,-12.207,-1000.000,0.000
1737552812.113,-62.988,7.324,-11.719,-1000.000,0.000
1737552812.117,-50.293,3.906,-3.418,-1000.000,0.000
1737552812.121,-67.383,-6.348,-29.297,-1000.000,0.000
1737552812.125,-77.637,-21.484,-41.992,-1000.000,0.000
1737552812.129,-67.871,-1.953,-10.742,-1000.000,0.000
1737552812.133,-60.059,20.020,-8.301,-1000.000,0.000
1737552812.137,-49.316,-8.301,-20.996,-1000.000,0.000
1737552812.140,-62.988,-13.672,-23.926,-1000.000,0.000
1737552812.144,-94.238,0.000,-29.297,-1000.000,0.000
1737552812.148,-94.727,0.000,-28.320,-1000.000,0.000
1737552812.152,-62.500,-22.461,-10.742,-1000.000,0.000
1737552812.156,-50.781,-29.785,-0.488,-1000.000,0.000
1737552812.160,-61.035,-4.883,-5.859,-1000.000,0.000
1737552812.164,-80.078,-7.324,0.000,-1000.000,0.000
1737552812.168,-93.750,-18.555,-1.953,-1000.000,0.000
1737552812.172,-65.430,-12.695,-25.879,-1000.000,0.000
1737552812.176,-22.461,7.812,-24.414,-1000.000,0.000
1737552812.180,0.977,1.953,2.930,-1000.000,0.000
1737552812.183,-3.418,-26.855,6.348,-1000.000,0.000
1737552812.187,0.000,-17.090,-1.953,-1000.000,0.000
1737552812.191,-9.277,8.789,-5.371,-1000.000,0.000
1737552812.195,2.930,11.230,-1.953,-1000.000,0.000
1737552812.199,19.531,-7.324,6.348,-1000.000,0.000
1737552812.203,-40.527,-18.066,-19.043,-1000.000,0.000
1737552812.207,-48.828,-25.879,-27.832,-1000.000,0.000
1737552812.211,-76.172,-25.879,-17.090,-1000.000,0.000
1737552812.215,-85.449,-22.949,-16.602,-1000.000,0.000
1737552812.219,-42.969,-27.832,3.418,-1000.000,0.000
1737552812.223,-35.156,7.324,0.488,-1000.000,0.000
1737552812.226,-41.016,13.184,-13.672,-1000.000,0.000
1737552812.230,-32.227,0.488,-19.043,-1000.000,0.000
1737552812.234,6.836,6.836,-10.742,-1000.000,0.000
1737552812.238,5.371,-4.395,8.301,-1000.000,0.000
1737552812.242,-39.551,-27.344,-2.930,-1000.000,0.000
1737552812.246,-62.012,-21.973,-20.508,-1000.000,0.000
1737552812.250,-39.062,-5.371,-11.230,-1000.000,0.000
1737552812.254,-7.324,-4.395,-10.742,-1000.000,0.000
1737552812.258,4.395,-1.953,-12.207,-1000.000,0.000
1737552812.262,-14.648,-8.301,1.953,-1000.000,0.000
1737552812.265,-13.672,-19.531,4.395,-1000.000,0.000
1737552812.269,-6.836,-20.020,-11.230,-1000.000,0.000
1737552812.273,-0.977,-32.227,-34.180,-1000.000,0.000
1737552812.277,13.184,-24.902,-9.766,-1000.000,0.000
1737552812.281,-11.719,-0.488,15.137,-1000.000,0.000
1737552812.285,-34.668,-0.488,-10.254,-1000.000,0.000
1737552812.289,-28.809,-2.930,-31.738,-1000.000,0.000
1737552812.293,-44.434,-0.977,-13.184,-1000.000,0.000
1737552812.297,-56.641,-6.836,-4.883,-1000.000,0.000
1737552812.301,-23.926,-9.277,-30.273,-1000.000,0.000
1737552812.305,9.766,-8.301,-25.879,-1000.000,0.000
1737552812.308,17.578,-16.113,-6.348,-1000.000,0.000
1737552812.312,38.574,-40.039,-41.016,-1000.000,0.000
1737552812.316,79.590,-32.227,-27.344,-1000.000,0.000
1737552812.320,87.402,5.859,8.301,-1000.000,0.000
1737552812.324,96.191,21.973,-7.324,-1000.000,0.000
1737552812.328,90.332,6.348,-25.879,-1000.000,0.000
1737552812.332,104.980,-5.859,-34.180,-1000.000,0.000
1737552812.336,164.551,2.930,-2.441,-1000.000,0.000
1737552812.340,168.457,11.719,21.973,-1000.000,0.000
1737552812.344,126.953,-2.930,-12.695,-1000.000,0.000
1737552812.348,125.977,-10.254,-10.742,-1000.000,0.000
1737552812.351,156.738,-11.230,-19.531,-1000.000,0.000
1737552812.355,145.020,-30.273,-43.945,-1000.000,0.000
1737552812.359,201.172,-27.344,0.977,-1000.000,0.000
1737552812.363,221.191,-0.488,9.766,-1000.000,0.000
1737552812.367,158.203,13.184,-11.230,-1000.000,0.000
1737552812.371,144.043,2.930,-13.672,-1000.000,0.000
1737552812.375,111.328,-16.113,-13.672,-1000.000,0.000
1737552812.379,113.281,-27.832,-27.832,-1000.000,0.000
1737552812.383,129.395,-10.254,-10.742,-1000.000,0.000
1737552812.387,108.887,-16.602,-11.230,-1000.000,0.000
1737552812.390,109.375,-22.461,-14.648,-1000.000,0.000
1737552812.394,124.023,5.371,22.461,-1000.000,0.000
1737552812.398,125.977,-0.977,4.395,-1000.000,0.000
1737552812.402,94.238,-12.695,-26.367,-1000.000,0.000
1737552812.406,65.918,5.859,-45.898,-1000.000,0.000
1737552812.410,107.910,10.742,-40.527,-1000.000,0.000
1737552812.414,166.992,16.113,-10.254,-1000.000,0.000
1737552812.418,181.152,16.113,11.719,-1000.000,0.000
1737552812.422,108.398,-11.719,0.977,-1000.000,0.000
1737552812.426,75.684,-16.113,-48.340,-1000.000,0.000
1737552812.429,95.703,-0.977,-25.391,-1000.000,0.000
1737552812.433,110.352,11.230,21.973,-1000.000,0.000
1737552812.437,108.887,0.977,13.184,-1000.000,0.000
1737552812.441,103.027,1.953,0.000,-1000.000,0.000
1737552812.445,74.707,12.207,-22.461,-1000.000,0.000
1737552812.449,56.641,19.043,-33.691,-1000.000,0.000
1737552812.453,82.031,15.137,-4.883,-1000.000,0.000
1737552812.457,88.867,1.465,10.254,-1000.000,0.000
1737552812.461,84.961,4.883,3.418,-1000.000,0.000
1737552812.465,50.781,-5.371,-11.230,-1000.000,0.000
1737552812.469,45.898,-26.855,-33.691,-1000.000,0.000
1737552812.472,102.051,-29.297,-37.109,-1000.000,0.000
1737552812.476,99.609,-7.324,-18.066,-1000.000,0.000
1737552812.480,57.617,-6.836,-23.926,-1000.000,0.000
1737552812.484,28.320,-30.273,-24.902,-1000.000,0.000
1737552812.488,14.648,1.465,1.953,-1000.000,0.000
1737552812.492,42.480,35.156,13.184,-1000.000,0.000
1737552812.496,88.379,22.949,19.043,-1000.000,0.000
1737552812.500,76.660,20.996,5.371,-1000.000,0.000
1737552812.504,44.434,8.789,-18.066,-1000.000,0.000
1737552812.508,58.594,-9.766,-13.672,-1000.000,0.000
1737552812.512,78.125,-0.488,-14.160,-1000.000,0.000
1737552812.515,63.477,-14.160,-30.273,-1000.000,0.000
1737552812.519,50.781,-25.391,-22.949,-1000.000,0.000
1737552812.523,30.762,-15.625,-11.719,-1000.000,0.000
1737552812.527,0.000,-33.691,-20.996,-1000.000,0.000
1737552812.531,-9.277,-43.457,-16.602,-1000.000,0.000
1737552812.535,-12.695,-11.719,-24.414,-1000.000,0.000
1737552812.539,-0.488,-14.160,-18.066,-1000.000,0.000
1737552812.543,-21.484,-22.949,-2.441,-1000.000,0.000
1737552812.547,-49.805,-6.348,-19.043,-1000.000,0.000
1737552812.551,-48.340,7.324,-12.207,-1000.000,0.000
1737552812.554,-51.758,20.020,20.508,-1000.000,0.000
1737552812.558,-55.664,15.137,11.719,-1000.000,0.000
1737552812.562,-55.664,2.441,-11.230,-1000.000,0.000
1737552812.566,-60.059,-18.555,-17.090,-1000.000,0.000
1737552812.570,-53.223,-39.551,-17.578,-1000.000,0.000
1737552812.574,-26.855,-27.344,-35.156,-1000.000,0.000
1737552812.578,-16.602,4.883,-33.691,-1000.000,0.000
1737552812.582,-39.062,0.000,3.418,-1000.000,0.000
1737552812.586,-79.102,-20.508,10.742,-1000.000,0.000
1737552812.590,-73.730,-6.836,0.488,-1000.000,0.000
1737552812.594,-34.668,16.113,-3.906,-1000.000,0.000
1737552812.597,-41.504,6.836,0.000,-1000.000,0.000
1737552812.601,-55.664,0.488,4.395,-1000.000,0.000
1737552812.605,-47.852,-11.719,-6.348,-1000.000,0.000
1737552812.609,-38.574,-20.508,-26.855,-1000.000,0.000
1737552812.613,-43.945,-19.043,-25.879,-1000.000,0.000
1737552812.617,-42.480,-18.555,-5.859,-1000.000,0.000
1737552812.621,-50.293,-11.230,4.395,-1000.000,0.000
1737552812.625,-80.566,-26.367,5.859,-1000.000,0.000
1737552812.629,-83.984,-17.578,0.488,-1000.000,0.000
1737552812.633,-74.219,18.066,-7.324,-1000.000,0.000
1737552812.637,-73.242,26.367,-4.395,-1000.000,0.000
1737552812.640,-67.383,23.926,3.418,-1000.000,0.000
1737552812.644,-80.078,3.418,0.000,-1000.000,0.000
1737552812.648,-123.047,-24.414,-5.371,-1000.000,0.000
1737552812.652,-121.582,-21.973,-13.184,-1000.000,0.000
1737552812.656,-98.145,-19.531,-13.184,-1000.000,0.000
1737552812.660,-97.168,-10.742,-4.883,-1000.000,0.000
1737552812.664,-114.746,-13.672,0.977,-1000.000,0.000
1737552812.668,-93.750,-20.508,-12.695,-1000.000,0.000
1737552812.672,-78.613,3.418,-21.973,-1000.000,0.000
1737552812.676,-82.031,15.137,-2.930,-1000.000,0.000
1737552812.680,-73.242,12.207,11.719,-1000.000,0.000
1737552812.683,-111.816,9.766,7.324,-1000.000,0.000
1737552812.687,-116.699,-7.812,-20.020,-1000.000,0.000
1737552812.691,-118.652,-33.691,-37.598,-1000.000,0.000
1737552812.695,-108.887,-21.484,-15.137,-1000.000,0.000
1737552812.699,-94.727,11.719,15.137,-1000.000,0.000
1737552812.703,-128.418,10.254,23.438,-1000.000,0.000
1737552812.707,-137.695,-3.418,6.836,-1000.000,0.000
1737552812.711,-120.605,-30.273,-3.906,-1000.000,0.000
1737552812.715,-101.562,-25.879,-7.812,-1000.000,0.000
1737552812.719,-79.102,2.441,-6.836,-1000.000,0.000
1737552812.722,-118.164,0.488,-17.578,-1000.000,0.000
1737552812.726,-145.508,-0.977,-19.531,-1000.000,0.000
1737552812.730,-111.816,-5.859,-17.090,-1000.000,0.000
1737552812.734,-94.238,-7.812,-20.508,-1000.000,0.000
1737552812.738,-63.965,0.977,3.906,-1000.000,0.000
1737552812.742,-62.012,19.531,1.465,-1000.000,0.000
1737552812.746,-103.516,21.484,0.488,-1000.000,0.000
1737552812.750,-104.980,-3.906,1.953,-1000.000,0.000
1737552812.754,-71.289,-19.043,-5.859,-1000.000,0.000
1737552812.758,-42.969,-20.508,-10.254,-1000.000,0.000
1737552812.761,-55.176,-13.672,-14.648,-1000.000,0.000
1737552812.765,-76.172,-5.371,-4.395,-1000.000,0.000
1737552812.769,-58.594,-21.973,-10.742,-1000.000,0.000
1737552812.773,-33.691,-21.484,-14.160,-1000.000,0.000
1737552812.777,-32.227,5.371,0.977,-1000.000,0.000
1737552812.781,-64.941,3.906,-19.043,-1000.000,0.000
1737552812.785,-67.383,-0.488,-29.297,-1000.000,0.000
1737552812.789,-73.730,12.695,-11.230,-1000.000,0.000
1737552812.793,-89.355,-0.488,-5.371,-1000.000,0.000
1737552812.797,-77.148,-15.625,-14.160,-1000.000,0.000
1737552812.801,-64.941,-7.812,-19.043,-1000.000,0.000
1737552812.804,-92.285,-11.719,-2.441,-1000.000,0.000
1737552812.808,-93.750,-8.789,4.395,-1000.000,0.000
1737552812.812,-81.055,-19.531,-13.184,-1000.000,0.000
1737552812.816,-86.914,-25.879,-10.742,-1000.000,0.000
1737552812.820,-77.148,-5.859,-11.719,-1000.000,0.000
1737552812.824,-78.125,8.301,-26.367,-1000.000,0.000
1737552812.828,-78.125,7.812,-29.297,-1000.000,0.000
1737552812.832,-67.871,-5.371,-23.438,-1000.000,0.000
1737552812.836,-53.223,-5.371,1.465,-1000.000,0.000
1737552812.840,-55.664,-12.695,-11.230,-1000.000,0.000
1737552812.843,-80.078,-25.391,-10.742,-1000.000,0.000
1737552812.847,-70.312,-1.953,2.441,-1000.000,0.000
1737552812.851,-61.523,3.906,-7.812,-1000.000,0.000
1737552812.855,-42.480,1.953,4.395,-1000.000,0.000
1737552812.859,-57.129,1.953,3.906,-1000.000,0.000
1737552812.863,-79.102,-7.812,-12.207,-1000.000,0.000
1737552812.867,-79.590,-8.789,-10.742,-1000.000,0.000
1737552812.871,-97.656,-14.648,-7.324,-1000.000,0.000
1737552812.875,-72.754,-7.324,-4.395,-1000.000,0.000
1737552812.879,-37.109,-7.812,-8.301,-1000.000,0.000
1737552812.883,-63.965,-0.977,-22.949,-1000.000,0.000
1737552812.886,-113.281,-2.441,-23.438,-1000.000,0.000
1737552812.890,-125.000,-10.742,-14.160,-1000.000,0.000
1737552812.894,-142.578,6.348,-19.531,-1000.000,0.000
1737552812.898,-191.406,8.301,-19.531,-1000.000,0.000
1737552812.902,-221.680,17.090,-6.348,-1000.000,0.000
1737552812.906,-244.141,19.043,-2.441,-1000.000,0.000
1737552812.910,-280.762,8.301,-15.137,-1000.000,0.000
1737552812.914,-331.055,13.184,-30.762,-1000.000,0.000
1737552812.918,-340.332,23.438,-21.484,-1000.000,0.000
1737552812.922,-349.609,37.109,-2.441,-1000.000,0.000
1737552812.926,-406.250,20.996,-16.113,-1000.000,0.000
1737552812.929,-409.668,-1.465,-20.508,-1000.000,0.000
1737552812.933,-395.020,14.160,-24.902,-1000.000,0.000
1737552812.937,-428.711,26.367,-15.137,-1000.000,0.000
1737552812.941,-429.688,12.207,-25.879,-1000.000,0.000
1737552812.945,-419.434,3.418,-37.598,-1000.000,0.000
1737552812.949,-433.105,34.668,5.371,-1000.000,0.000
1737552812.953,-384.277,54.199,-6.348,-1000.000,0.000
1737552812.957,-305.664,30.762,-14.648,-1000.000,0.000
1737552812.961,-282.715,40.039,15.137,-1000.000,0.000
1737552812.965,-254.883,58.105,19.043,-1000.000,0.000
1737552812.969,-213.867,31.250,8.789,-1000.000,0.000
1737552812.972,-153.809,13.672,-8.301,-1000.000,0.000
1737552812.976,-94.238,30.273,-12.207,-1000.000,0.000
1737552812.980,-57.129,35.645,-8.301,-1000.000,0.000
1737552812.984,-23.438,13.672,-18.555,-1000.000,0.000
1737552812.988,0.977,-5.859,-33.691,-1000.000,0.000
1737552812.992,16.113,-4.395,-23.926,-1000.000,0.000
1737552812.996,41.016,0.488,-20.508,-1000.000,0.000
1737552813.000,93.262,1.465,-36.133,-1000.000,0.000
1737552813.004,77.637,-2.441,-40.527,-1000.000,0.000
1737552813.008,23.926,-16.113,-16.602,-1000.000,0.000
1737552813.011,54.199,-16.602,-1.465,-1000.000,0.000
1737552813.015,94.727,-13.184,16.602,-1000.000,0.000
1737552813.019,94.727,-10.254,15.625,-1000.000,0.000
1737552813.023,92.773,-0.488,3.906,-1000.000,0.000
1737552813.027,91.309,-8.301,-15.625,-1000.000,0.000
1737552813.031,101.074,-7.324,-26.855,-1000.000,0.000
1737552813.035,104.004,-14.160,-12.695,-1000.000,0.000
1737552813.039,108.398,-28.320,-14.648,-1000.000,0.000
1737552813.043,89.355,-18.066,-19.531,-1000.000,0.000
1737552813.047,71.777,-10.742,-12.695,-1000.000,0.000
1737552813.051,89.844,-4.883,-25.879,-1000.000,0.000
1737552813.054,116.699,-4.395,-34.180,-1000.000,0.000
1737552813.058,119.629,-0.977,-8.789,-1000.000,0.000
1737552813.062,81.055,-7.324,3.418,-1000.000,0.000
1737552813.066,39.551,-27.344,-6.836,-1000.000,0.000
1737552813.070,31.738,-15.625,-4.883,-1000.000,0.000
1737552813.074,38.574,-13.672,-14.160,-1000.000,0.000
1737552813.078,47.363,-35.156,-12.695,-1000.000,0.000
1737552813.082,34.180,-39.551,3.418,-1000.000,0.000
1737552813.086,-6.348,-34.180,1.953,-1000.000,0.000
1737552813.090,10.254,-17.578,-15.625,-1000.000,0.000
1737552813.093,41.504,-18.555,-18.066,-1000.000,0.000
1737552813.097,36.133,-13.184,-15.625,-1000.000,0.000
1737552813.101,25.391,7.812,1.953,-1000.000,0.000
1737552813.105,-0.977,-2.441,3.906,-1000.000,0.000
1737552813.109,0.000,-9.277,-20.508,-1000.000,0.000
1737552813.113,-4.883,-10.254,-16.113,-1000.000,0.000
1737552813.117,1.953,-24.414,-12.695,-1000.000,0.000
1737552813.121,9.277,-20.020,-32.227,-1000.000,0.000
1737552813.125,2.930,-31.738,-32.715,-1000.000,0.000
1737552813.129,-14.160,-50.781,-12.207,-1000.000,0.000
1737552813.133,-13.672,-32.715,5.371,-1000.000,0.000
1737552813.136,8.301,-5.371,-3.906,-1000.000,0.000
1737552813.140,7.324,24.902,6.348,-1000.000,0.000
1737552813.144,-19.043,23.926,7.812,-1000.000,0.000
1737552813.148,-25.391,8.789,-6.348,-1000.000,0.000
1737552813.152,-35.156,-13.184,-31.250,-1000.000,0.000
1737552813.156,-14.648,-31.250,-31.738,-1000.000,0.000
1737552813.160,-6.348,-16.602,-13.184,-1000.000,0.000
1737552813.164,-40.039,6.836,-6.348,-1000.000,0.000
1737552813.168,-27.344,-0.977,3.418,-1000.000,0.000
1737552813.172,-24.414,-20.996,6.836,-1000.000,0.000
1737552813.176,-37.598,-10.742,13.184,-1000.000,0.000
1737552813.179,-40.039,-5.859,1.465,-1000.000,0.000
1737552813.183,-56.152,-6.836,-4.395,-1000.000,0.000
1737552813.187,-83.984,-9.277,-18.555,-1000.000,0.000
1737552813.191,-70.801,-23.438,-20.020,-1000.000,0.000
1737552813.195,-74.707,-7.812,-19.531,-1000.000,0.000
1737552813.199,-71.777,10.254,-21.484,-1000.000,0.000
1737552813.203,-93.750,2.930,-1.953,-1000.000,0.000
1737552813.207,-104.980,-2.441,-9.277,-1000.000,0.000
1737552813.211,-84.473,-24.414,-18.066,-1000.000,0.000
1737552813.215,-125.488,-29.297,-22.949,-1000.000,0.000
1737552813.219,-127.441,-18.555,-26.855,-1000.000,0.000
1737552813.222,-187.988,-10.254,-14.160,-1000.000,0.000
1737552813.226,-238.281,3.906,-1.465,-1000.000,0.000
1737552813.230,-212.891,-4.883,4.883,-1000.000,0.000
1737552813.234,-212.891,-10.742,-22.461,-1000.000,0.000
1737552813.238,-166.504,-6.348,-29.785,-1000.000,0.000
1737552813.242,-115.234,-25.879,0.977,-1000.000,0.000
1737552813.246,-115.723,-46.387,1.465,-1000.000,0.000
1737552813.250,-158.691,-20.996,0.000,-1000.000,0.000
1737552813.254,-172.852,15.137,4.883,-1000.000,0.000
1737552813.258,-180.176,16.113,-3.418,-1000.000,0.000
1737552813.261,-206.543,1.953,-14.648,-1000.000,0.000
1737552813.265,-183.594,-7.324,-16.113,-1000.000,0.000
1737552813.269,-171.875,-8.301,-13.672,-1000.000,0.000
1737552813.273,-179.688,-7.812,-13.184,-1000.000,0.000
1737552813.277,-172.852,-7.812,-11.719,-1000.000,0.000
1737552813.281,-158.691,-2.930,-0.488,-1000.000,0.000
1737552813.285,-164.551,-4.883,-23.438,-1000.000,0.000
1737552813.289,-235.352,-0.488,-55.176,-1000.000,0.000
1737552813.293,-275.391,-17.578,-28.809,-1000.000,0.000
1737552813.297,-263.672,-17.090,2.441,-1000.000,0.000
1737552813.301,-312.988,-21.973,4.395,-1000.000,0.000
1737552813.304,-198.242,-44.922,-0.977,-1000.000,0.000
1737552813.308,-166.504,-19.043,5.371,-1000.000,0.000
1737552813.312,-291.016,2.441,-24.902,-1000.000,0.000
1737552813.316,-264.160,0.000,-35.156,-1000.000,0.000
1737552813.320,-269.043,4.883,-5.859,-1000.000,0.000
1737552813.324,-354.492,-4.395,-5.371,-1000.000,0.000
1737552813.328,-304.688,-8.301,-4.883,-1000.000,0.000
1737552813.332,-219.238,-0.977,-11.719,-1000.000,0.000
1737552813.336,-231.934,-8.301,-28.320,-1000.000,0.000
1737552813.340,-252.930,-13.184,-17.578,-1000.000,0.000
1737552813.344,-260.742,-19.043,-0.488,-1000.000,0.000
1737552813.347,-189.453,-11.230,-1.953,-1000.000,0.000
1737552813.351,-129.395,-0.488,-4.395,-1000.000,0.000
1737552813.355,-172.363,-8.789,-1.953,-1000.000,0.000
1737552813.359,-172.363,-8.789,-30.762,-1000.000,0.000
1737552813.363,-229.492,1.953,-12.695,-1000.000,0.000
1737552813.367,-330.566,-14.648,13.184,-1000.000,0.000
1737552813.371,-402.344,-26.855,-28.320,-1000.000,0.000
1737552813.375,-361.816,-3.906,-18.066,-1000.000,0.000
1737552813.379,-233.887,11.719,19.531,-1000.000,0.000
1737552813.383,-230.469,12.207,10.254,-1000.000,0.000
1737552813.387,-166.016,13.672,-3.418,-1000.000,0.000
1737552813.390,-94.238,-0.488,-15.625,-1000.000,0.000
1737552813.394,-74.707,8.301,-17.578,-1000.000,0.000
1737552813.398,25.879,10.742,1.953,-1000.000,0.000
1737552813.402,76.172,-3.906,-7.812,-1000.000,0.000
1737552813.406,75.684,-3.418,-8.301,-1000.000,0.000
1737552813.410,101.562,-18.555,-1.465,-1000.000,0.000
1737552813.414,103.516,-31.738,-20.996,-1000.000,0.000
1737552813.418,97.168,-10.742,-21.973,-1000.000,0.000
1737552813.422,105.957,11.230,-9.766,-1000.000,0.000
1737552813.426,42.969,16.602,-2.441,-1000.000,0.000
1737552813.429,32.715,4.883,-0.488,-1000.000,0.000
1737552813.433,59.570,5.859,-5.371,-1000.000,0.000
1737552813.437,75.195,15.137,-10.742,-1000.000,0.000
1737552813.441,28.320,-7.812,-10.742,-1000.000,0.000
1737552813.445,-60.059,-18.555,-7.812,-1000.000,0.000
1737552813.449,-39.062,-27.344,-17.090,-1000.000,0.000
1737552813.453,-5.371,-30.273,-30.762,-1000.000,0.000
1737552813.457,-4.395,-15.625,-15.137,-1000.000,0.000
1737552813.461,-14.160,-26.367,-19.043,-1000.000,0.000
1737552813.465,-17.090,-20.020,-35.156,-1000.000,0.000
1737552813.469,-113.281,3.906,-21.484,-1000.000,0.000
1737552813.472,-185.547,0.488,-41.016,-1000.000,0.000
1737552813.476,-82.031,-5.859,-37.598,-1000.000,0.000
1737552813.480,-40.527,-17.578,-9.277,-1000.000,0.000
1737552813.484,-98.145,-18.066,-1.953,-1000.000,0.000
1737552813.488,-71.777,-7.812,9.277,-1000.000,0.000
1737552813.492,-36.133,6.348,-6.348,-1000.000,0.000
1737552813.496,0.000,-2.930,-27.344,-1000.000,0.000
1737552813.500,17.090,-22.949,-24.414,-1000.000,0.000
1737552813.504,-58.105,-7.324,-10.254,-1000.000,0.000
1737552813.508,-46.387,-2.441,-0.488,-1000.000,0.000
1737552813.511,7.812,0.000,-12.695,-1000.000,0.000
1737552813.515,21.484,13.672,-26.855,-1000.000,0.000
1737552813.519,46.387,-21.484,-25.391,-1000.000,0.000
1737552813.523,29.297,-48.828,-33.691,-1000.000,0.000
1737552813.527,4.395,-26.855,-17.578,-1000.000,0.000
1737552813.531,-8.301,-26.855,-9.766,-1000.000,0.000
1737552813.535,49.805,-16.113,-27.344,-1000.000,0.000
1737552813.539,105.957,9.277,-20.508,-1000.000,0.000
1737552813.543,72.266,11.719,-20.996,-1000.000,0.000
1737552813.547,43.945,-11.230,-11.230,-1000.000,0.000
1737552813.551,49.316,-7.812,15.137,-1000.000,0.000
1737552813.554,82.520,8.789,5.371,-1000.000,0.000
1737552813.558,104.492,0.000,-7.812,-1000.000,0.000
1737552813.562,93.262,-17.578,-7.324,-1000.000,0.000
1737552813.566,68.359,-5.859,-24.902,-1000.000,0.000
1737552813.570,6.348,-20.508,-32.227,-1000.000,0.000
1737552813.574,42.969,-38.574,-13.184,-1000.000,0.000
1737552813.578,67.383,0.488,-4.883,-1000.000,0.000
1737552813.582,19.043,24.902,-11.719,-1000.000,0.000
1737552813.586,21.484,1.953,-14.160,-1000.000,0.000
1737552813.590,-16.602,-1.953,-7.324,-1000.000,0.000
1737552813.593,-30.762,-4.395,-7.812,-1000.000,0.000
1737552813.597,34.180,-27.832,-7.324,-1000.000,0.000
1737552813.601,20.996,-17.578,-12.695,-1000.000,0.000
1737552813.605,0.488,2.441,-16.602,-1000.000,0.000
1737552813.609,-10.742,-20.508,-13.184,-1000.000,0.000
1737552813.613,-38.086,-30.762,-33.203,-1000.000,0.000
1737552813.617,-10.254,-16.113,-27.832,-1000.000,0.000
1737552813.621,5.371,-7.812,-3.418,-1000.000,0.000
1737552813.625,-12.695,-4.883,3.906,-1000.000,0.000
1737552813.629,-23.438,3.906,0.000,-1000.000,0.000
1737552813.633,8.789,-2.930,-0.488,-1000.000,0.000
1737552813.636,18.555,-24.414,0.977,-1000.000,0.000
1737552813.640,47.852,-21.973,-9.766,-1000.000,0.000
1737552813.644,45.898,-6.836,-25.879,-1000.000,0.000
1737552813.648,53.711,0.977,-29.297,-1000.000,0.000
1737552813.652,69.336,-4.883,-8.301,-1000.000,0.000
1737552813.656,62.012,-4.883,-20.996,-1000.000,0.000
1737552813.660,62.988,-16.602,-46.875,-1000.000,0.000
1737552813.664,55.664,-44.434,-25.879,-1000.000,0.000
1737552813.668,53.223,-27.832,16.113,-1000.000,0.000
1737552813.672,-33.203,-16.602,10.254,-1000.000,0.000
1737552813.676,-17.090,-5.371,-13.184,-1000.000,0.000
1737552813.679,41.504,32.227,-6.348,-1000.000,0.000
1737552813.683,33.691,17.578,-10.742,-1000.000,0.000
1737552813.687,52.246,-18.555,-24.414,-1000.000,0.000
1737552813.691,69.336,-15.625,-20.020,-1000.000,0.000
1737552813.695,70.801,-15.137,-19.531,-1000.000,0.000
1737552813.699,80.078,-26.855,-38.574,-1000.000,0.000
1737552813.703,73.242,-7.324,-34.180,-1000.000,0.000
1737552813.707,59.082,10.742,-9.766,-1000.000,0.000
1737552813.711,8.301,7.324,-2.930,-1000.000,0.000
1737552813.715,39.062,-6.348,-3.906,-1000.000,0.000
1737552813.718,94.238,-10.254,-12.695,-1000.000,0.000
1737552813.722,76.660,-30.273,-32.715,-1000.000,0.000
1737552813.726,93.262,-7.812,-28.809,-1000.000,0.000
1737552813.730,64.941,25.391,-4.883,-1000.000,0.000
1737552813.734,29.297,-3.906,0.977,-1000.000,0.000
1737552813.738,73.730,-17.090,-35.645,-1000.000,0.000
1737552813.742,41.016,-2.441,-48.340,-1000.000,0.000
1737552813.746,16.113,-7.812,-20.020,-1000.000,0.000
1737552813.750,74.219,-15.137,-0.488,-1000.000,0.000
1737552813.754,25.879,0.488,-4.883,-1000.000,0.000
1737552813.758,-32.715,-7.324,-10.742,-1000.000,0.000
1737552813.761,18.066,-42.480,-10.742,-1000.000,0.000
1737552813.765,26.367,-53.711,-15.625,-1000.000,0.000
1737552813.769,54.199,-16.113,-22.949,-1000.000,0.000
1737552813.773,71.777,16.113,-6.348,-1000.000,0.000
1737552813.777,4.395,23.926,-0.977,-1000.000,0.000
1737552813.781,-42.480,19.043,-15.137,-1000.000,0.000
1737552813.785,-14.648,-0.977,-22.461,-1000.000,0.000
1737552813.789,44.434,-16.602,-27.344,-1000.000,0.000
1737552813.793,6.348,-13.672,-9.277,-1000.000,0.000
1737552813.797,-22.949,-27.344,-4.883,-1000.000,0.000
1737552813.801,-32.227,-43.945,-4.883,-1000.000,0.000
1737552813.804,-33.691,-25.879,-4.395,-1000.000,0.000
1737552813.808,-10.742,-2.930,-23.438,-1000.000,0.000
1737552813.812,-12.695,5.859,-16.602,-1000.000,0.000
1737552813.816,-36.621,12.207,-8.301,-1000.000,0.000
1737552813.820,-33.691,20.996,-10.254,-1000.000,0.000
1737552813.824,-38.086,3.906,8.789,-1000.000,0.000
1737552813.828,-28.809,-18.555,4.883,-1000.000,0.000
1737552813.832,-9.277,-17.578,-31.738,-1000.000,0.000
1737552813.836,-55.664,-14.648,-32.227,-1000.000,0.000
1737552813.840,-78.613,-26.855,-20.508,-1000.000,0.000
1737552813.843,-41.016,-30.273,0.977,-1000.000,0.000
1737552813.847,4.395,-22.461,1.953,-1000.000,0.000
1737552813.851,6.348,-13.672,-5.859,-1000.000,0.000
1737552813.855,-4.395,-0.488,2.441,-1000.000,0.000
1737552813.859,-22.461,20.020,7.812,-1000.000,0.000
1737552813.863,-4.883,14.160,11.719,-1000.000,0.000
1737552813.867,31.738,13.184,-2.441,-1000.000,0.000
1737552813.871,52.734,14.160,-29.297,-1000.000,0.000
1737552813.875,32.227,-12.695,-28.320,-1000.000,0.000
1737552813.879,29.785,-35.645,-16.602,-1000.000,0.000
1737552813.883,71.777,-25.879,-22.461,-1000.000,0.000
1737552813.886,41.016,8.789,-6.836,-1000.000,0.000
1737552813.890,38.086,-14.160,3.906,-1000.000,0.000
1737552813.894,52.734,-37.598,5.859,-1000.000,0.000
1737552813.898,39.062,2.441,8.301,-1000.000,0.000
1737552813.902,32.227,12.695,1.465,-1000.000,0.000
1737552813.906,61.523,-0.977,0.000,-1000.000,0.000
1737552813.910,105.469,3.906,-2.930,-1000.000,0.000
1737552813.914,64.941,15.137,-23.438,-1000.000,0.000
1737552813.918,61.035,-6.836,-38.574,-1000.000,0.000
1737552813.922,27.344,-30.273,-25.879,-1000.000,0.000
1737552813.926,0.000,-16.113,7.812,-1000.000,0.000
1737552813.929,46.387,-10.742,23.926,-1000.000,0.000
1737552813.933,14.160,-15.137,21.973,-1000.000,0.000
1737552813.937,-32.227,-4.883,12.207,-1000.000,0.000
1737552813.941,-57.129,-1.953,1.953,-1000.000,0.000
1737552813.945,-81.543,-12.695,-6.348,-1000.000,0.000
1737552813.949,-52.246,-20.020,-10.742,-1000.000,0.000
1737552813.953,-36.133,-13.672,-32.227,-1000.000,0.000
1737552813.957,-38.086,-3.418,-56.152,-1000.000,0.000
1737552813.961,-11.719,-5.859,-30.762,-1000.000,0.000
1737552813.965,-14.160,-14.648,-3.906,-1000.000,0.000
1737552813.969,4.395,-11.230,2.441,-1000.000,0.000
1737552813.972,23.926,-15.625,-20.508,-1000.000,0.000
1737552813.976,-18.066,-37.598,-6.836,-1000.000,0.000
1737552813.980,-19.043,-19.531,2.441,-1000.000,0.000
1737552813.984,-1.953,4.395,-33.203,-1000.000,0.000
1737552813.988,-10.742,-6.348,-21.484,-1000.000,0.000
1737552813.992,-48.340,-11.230,-7.812,-1000.000,0.000
1737552813.996,-66.895,-3.906,-27.344,-1000.000,0.000
1737552814.000,-51.758,-20.020,-30.273,-1000.000,0.000
1737552814.004,-69.824,-44.434,-7.324,-1000.000,0.000
1737552814.008,-63.477,-8.789,-18.555,-1000.000,0.000
1737552814.012,-34.668,12.695,-22.949,-1000.000,0.000
1737552814.015,-58.105,-27.832,-5.371,-1000.000,0.000
1737552814.019,-79.590,-35.645,-31.738,-1000.000,0.000
1737552814.023,-82.520,-33.203,-37.109,-1000.000,0.000
1737552814.027,-63.965,-39.551,-17.090,-1000.000,0.000
1737552814.031,-57.129,-18.066,-6.348,-1000.000,0.000
1737552814.035,-70.801,-9.277,-1.953,-1000.000,0.000
1737552814.039,-62.988,0.000,-6.348,-1000.000,0.000
1737552814.043,-9.766,6.836,-14.160,-1000.000,0.000
1737552814.047,-17.578,5.859,-9.277,-1000.000,0.000
1737552814.051,-38.574,-4.395,-12.207,-1000.000,0.000
1737552814.055,-54.688,-10.742,-20.508,-1000.000,0.000
1737552814.058,-55.176,-9.277,-21.484,-1000.000,0.000
1737552814.062,-40.527,-20.996,-35.645,-1000.000,0.000
1737552814.066,-32.715,-29.297,-36.133,-1000.000,0.000
1737552814.070,-6.836,-7.324,-13.184,-1000.000,0.000
1737552814.074,-45.410,-3.906,-1.465,-1000.000,0.000
1737552814.078,-32.715,-27.344,-16.602,-1000.000,0.000
1737552814.082,14.648,-27.344,-25.879,-1000.000,0.000
1737552814.086,23.926,-2.441,-12.207,-1000.000,0.000
1737552814.090,75.684,-4.883,-0.977,-1000.000,0.000
1737552814.094,69.824,4.395,-3.906,-1000.000,0.000
1737552814.098,39.062,11.719,-5.371,-1000.000,0.000
1737552814.101,57.129,10.742,-20.020,-1000.000,0.000
1737552814.105,98.633,3.906,-32.227,-1000.000,0.000
1737552814.109,133.789,-12.695,-14.160,-1000.000,0.000
1737552814.113,146.484,-13.672,-6.836,-1000.000,0.000
1737552814.117,145.996,-7.324,-18.555,-1000.000,0.000
1737552814.121,124.023,-37.109,-24.414,-1000.000,0.000
1737552814.125,123.047,-38.574,-25.391,-1000.000,0.000
1737552814.129,214.844,8.301,-11.230,-1000.000,0.000
1737552814.133,254.395,12.207,-3.906,-1000.000,0.000
1737552814.137,219.238,-5.859,-11.230,-1000.000,0.000
1737552814.141,204.590,-2.930,-11.719,-1000.000,0.000
1737552814.144,255.859,1.953,-32.227,-1000.000,0.000
1737552814.148,302.246,11.230,-20.020,-1000.000,0.000
1737552814.152,304.688,4.395,-15.137,-1000.000,0.000
1737552814.156,313.965,-7.812,-33.691,-1000.000,0.000
1737552814.160,337.891,-30.762,-16.113,-1000.000,0.000
1737552814.164,340.332,-34.180,-3.418,-1000.000,0.000
1737552814.168,352.051,-17.090,-4.883,-1000.000,0.000
1737552814.172,351.562,-9.277,-16.602,-1000.000,0.000
1737552814.176,304.688,4.883,-31.250,-1000.000,0.000
1737552814.180,290.527,10.742,-27.832,-1000.000,0.000
1737552814.184,306.641,2.930,-5.859,-1000.000,0.000
1737552814.187,346.680,-20.996,-5.371,-1000.000,0.000
1737552814.191,375.977,-29.297,-19.531,-1000.000,0.000
1737552814.195,388.672,-12.207,-19.043,-1000.000,0.000
1737552814.199,378.418,-10.742,-24.902,-1000.000,0.000
1737552814.203,361.328,-5.859,-22.461,-1000.000,0.000
1737552814.207,378.906,-13.672,0.000,-1000.000,0.000
1737552814.211,339.844,-22.949,-3.906,-1000.000,0.000
1737552814.215,283.691,-2.441,-15.137,-1000.000,0.000
1737552814.219,207.520,-7.324,2.441,-1000.000,0.000
1737552814.223,172.363,-24.414,5.371,-1000.000,0.000
1737552814.227,161.133,6.348,-11.230,-1000.000,0.000
1737552814.230,134.277,22.949,-15.137,-1000.000,0.000
1737552814.234,104.980,0.000,-15.625,-1000.000,0.000
1737552814.238,59.570,-12.207,-18.555,-1000.000,0.000
1737552814.242,44.434,0.977,-22.949,-1000.000,0.000
1737552814.246,76.172,-8.301,-21.484,-1000.000,0.000
1737552814.250,92.285,-22.461,3.418,-1000.000,0.000
1737552814.254,-2.930,-14.648,5.859,-1000.000,0.000
1737552814.258,-112.305,-27.832,-4.395,-1000.000,0.000
1737552814.262,-132.324,-20.020,-2.930,-1000.000,0.000
1737552814.266,-137.207,6.348,-10.254,-1000.000,0.000
1737552814.270,-176.270,-11.230,-15.625,-1000.000,0.000
1737552814.273,-224.609,-30.762,-28.320,-1000.000,0.000
1737552814.277,-233.887,-17.578,-28.809,-1000.000,0.000
1737552814.281,-207.031,-8.301,-13.672,-1000.000,0.000
1737552814.285,-191.895,0.977,-15.625,-1000.000,0.000
1737552814.289,-202.148,8.301,-15.137,-1000.000,0.000
1737552814.293,-211.914,2.930,-12.695,-1000.000,0.000
1737552814.297,-238.770,-12.695,-13.184,-1000.000,0.000
1737552814.301,-192.383,-14.648,-16.113,-1000.000,0.000
1737552814.305,-133.301,-11.230,-36.621,-1000.000,0.000
1737552814.309,-134.766,-31.250,-27.344,-994.629,0.000
1737552814.312,-131.836,-40.039,-9.766,-1000.000,0.000
1737552814.316,-126.953,-11.230,-33.691,-953.613,0.000
1737552814.320,-112.793,0.488,-33.691,-888.672,0.000
1737552814.324,-114.258,-2.930,-7.324,-895.020,0.000
1737552814.328,-23.438,16.602,6.836,411.133,0.000
1737552814.332,-3.906,12.207,2.441,999.512,0.000
1737552814.336,-79.102,4.395,-4.883,896.484,0.000
1737552814.340,-112.305,4.395,-1.465,981.934,0.000
1737552814.344,-149.902,-20.508,-22.461,970.703,0.000
1737552814.348,-136.230,-10.254,-24.414,970.703,0.000
1737552814.352,-148.438,1.465,-11.719,970.703,0.000
1737552814.355,-198.242,-31.250,-8.789,975.098,0.000
1737552814.359,-224.121,-18.066,0.488,961.914,0.000
1737552814.363,-237.793,0.488,-0.488,932.129,0.000
1737552814.367,-208.496,-1.465,-21.484,999.512,0.000
1737552814.371,-250.000,-17.090,-10.254,141.602,0.000
1737552814.375,-355.957,-39.551,-4.395,-1000.000,0.000
1737552814.379,-341.309,-31.250,0.000,-995.605,0.000
1737552814.383,-274.902,-12.207,-0.977,-972.656,0.000
1737552814.387,-227.051,-15.137,-38.574,-1000.000,0.000
1737552814.391,-199.219,-2.441,-20.996,-1000.000,0.000
1737552814.395,-172.363,5.859,0.488,-1000.000,0.000
1737552814.398,-166.504,-16.113,-0.977,-1000.000,0.000
1737552814.402,-156.738,-7.812,0.000,-1000.000,0.000
1737552814.406,-120.605,4.395,-8.301,-1000.000,0.000
1737552814.410,-84.473,-19.531,-6.348,-1000.000,0.000
1737552814.414,-74.707,-23.438,-15.625,-1000.000,0.000
1737552814.418,-107.422,-19.531,-0.488,-1000.000,0.000
1737552814.422,-118.652,-16.113,-0.977,-1000.000,0.000
1737552814.426,-86.914,-13.184,-24.414,-1000.000,0.000
1737552814.430,-72.266,-0.977,-12.207,-1000.000,0.000
1737552814.434,-111.328,17.578,-24.902,-1000.000,0.000
1737552814.437,-130.859,2.441,-29.297,-1000.000,0.000
1737552814.441,-110.840,-5.859,12.695,-1000.000,0.000
1737552814.445,-105.957,1.465,5.371,-1000.000,0.000
1737552814.449,-74.219,-12.695,-23.438,-1000.000,0.000
1737552814.453,-63.965,-13.672,-11.230,-1000.000,0.000
1737552814.457,-94.238,4.883,-0.977,-1000.000,0.000
1737552814.461,-105.957,-2.930,-12.207,-1000.000,0.000
1737552814.465,-73.242,-18.066,-4.883,-1000.000,0.000
1737552814.469,-57.617,-6.836,-6.836,-1000.000,0.000
1737552814.473,-74.219,6.348,-25.879,-1000.000,0.000
1737552814.477,-77.637,5.371,-26.855,-1000.000,0.000
1737552814.480,-73.242,-13.672,-18.066,-1000.000,0.000
1737552814.484,-80.566,-12.207,-33.691,-1000.000,0.000
1737552814.488,-57.617,-2.930,-31.250,-1000.000,0.000
1737552814.492,-38.574,-10.742,3.906,-1000.000,0.000
1737552814.496,-31.738,-13.184,8.301,-1000.000,0.000
1737552814.500,-21.973,-12.695,-13.184,-1000.000,0.000
1737552814.504,-2.441,-17.090,-13.184,-1000.000,0.000
1737552814.508,50.293,-20.020,-0.488,-1000.000,0.000
1737552814.512,32.227,-20.996,-13.184,-1000.000,0.000
1737552814.516,-21.973,-11.230,-25.391,-1000.000,0.000
1737552814.520,-32.715,-18.555,-22.949,-1000.000,0.000
1737552814.523,-59.082,-20.020,-2.930,-1000.000,0.000
1737552814.527,-72.754,-18.066,14.648,-1000.000,0.000
1737552814.531,-82.031,-22.461,-10.742,-1000.000,0.000
1737552814.535,-108.887,-8.789,-31.250,-1000.000,0.000
1737552814.539,-104.004,-3.906,-28.320,-1000.000,0.000
1737552814.543,-68.359,5.371,-26.367,-1000.000,0.000
1737552814.547,-20.020,13.184,3.906,-1000.000,0.000
1737552814.551,6.348,0.977,16.113,-1000.000,0.000
1737552814.555,-17.578,-21.973,-5.371,-1000.000,0.000
1737552814.559,-31.738,-31.250,-14.648,-1000.000,0.000
1737552814.563,1.465,-31.738,-21.484,-1000.000,0.000
1737552814.566,33.203,-24.414,-32.227,-1000.000,0.000
1737552814.570,17.578,-5.859,-24.902,-1000.000,0.000
1737552814.574,-40.039,5.859,-12.695,-1000.000,0.000
1737552814.578,-46.875,-0.977,-19.043,-1000.000,0.000
1737552814.582,-34.180,-21.973,-31.250,-1000.000,0.000
1737552814.586,-39.551,-23.926,-21.484,-1000.000,0.000
1737552814.590,-51.758,-14.648,-8.789,-1000.000,0.000
1737552814.594,-90.820,-0.977,-8.301,-1000.000,0.000
1737552814.598,-139.648,-0.488,-19.531,-1000.000,0.000
1737552814.602,-141.602,-13.184,-28.320,-1000.000,0.000
1737552814.606,-129.395,-14.160,-23.926,-1000.000,0.000
1737552814.609,-148.926,2.930,-18.555,-1000.000,0.000
1737552814.613,-228.027,9.277,-19.043,-1000.000,0.000
1737552814.617,-283.691,16.113,-19.531,-1000.000,0.000
1737552814.621,-305.664,18.555,-21.973,-1000.000,0.000
1737552814.625,-333.496,18.555,-24.414,-1000.000,0.000
1737552814.629,-340.820,30.762,-18.555,-1000.000,0.000
1737552814.633,-381.348,15.625,-50.293,-1000.000,0.000
1737552814.637,-395.020,9.277,-95.703,-1000.000,0.000
1737552814.641,-371.582,15.137,-46.875,-1000.000,0.000
1737552814.645,-389.648,-2.441,-3.906,-1000.000,0.000
1737552814.649,-378.418,14.648,-23.926,-1000.000,0.000
1737552814.652,-368.652,54.688,-15.625,-1000.000,0.000
1737552814.656,-379.883,41.016,-21.973,-1000.000,0.000
1737552814.660,-366.699,25.391,-39.551,-1000.000,0.000
1737552814.664,-348.633,52.246,-17.578,-1000.000,0.000
1737552814.668,-305.176,63.477,10.742,-1000.000,0.000
1737552814.672,-260.742,60.059,-1.465,-1000.000,0.000
1737552814.676,-228.027,37.109,-41.016,-1000.000,0.000
1737552814.680,-211.914,28.809,-20.996,-1000.000,0.000
1737552814.684,-179.199,30.273,-2.930,-1000.000,0.000
1737552814.688,-119.629,6.348,-1.953,-1000.000,0.000
1737552814.692,-84.961,-9.766,-19.531,-1000.000,0.000
1737552814.695,-84.473,-17.090,-31.738,-1000.000,0.000
1737552814.699,-61.523,-0.977,-18.066,-1000.000,0.000
1737552814.703,-31.738,23.926,-10.742,-1000.000,0.000
1737552814.707,-2.930,16.602,-4.395,-1000.000,0.000
1737552814.711,9.766,8.301,-4.395,-1000.000,0.000
1737552814.715,4.883,-18.555,-22.461,-1000.000,0.000
1737552814.719,22.949,-31.250,-22.949,-1000.000,0.000
1737552814.723,37.109,-10.742,-6.836,-1000.000,0.000
1737552814.727,53.223,-15.625,-11.719,-1000.000,0.000
1737552814.731,62.988,-38.086,-23.926,-1000.000,0.000
1737552814.734,46.387,-38.086,-55.176,-1000.000,0.000
1737552814.738,59.082,-36.133,-45.898,-1000.000,0.000
1737552814.742,62.988,-42.969,-14.648,-1000.000,0.000
1737552814.746,94.238,-27.344,11.719,-1000.000,0.000
1737552814.750,133.789,-20.508,13.672,-1000.000,0.000
1737552814.754,104.492,-11.230,-5.859,-1000.000,0.000
1737552814.758,84.473,-6.836,-14.160,-1000.000,0.000
1737552814.762,81.055,-18.555,-7.812,-1000.000,0.000
1737552814.766,78.125,-26.367,-1.953,-1000.000,0.000
1737552814.770,99.121,-30.273,-3.418,-1000.000,0.000
1737552814.774,97.656,-42.480,0.488,-1000.000,0.000
1737552814.777,102.051,-46.875,-7.812,-1000.000,0.000
1737552814.781,117.188,-25.391,-47.852,-1000.000,0.000
1737552814.785,93.262,-17.578,-37.109,-1000.000,0.000
1737552814.789,117.188,-22.949,4.395,-1000.000,0.000
1737552814.793,125.977,-18.555,-4.883,-1000.000,0.000
1737552814.797,89.355,-20.020,-21.484,-1000.000,0.000
1737552814.801,81.055,-7.812,-19.043,-1000.000,0.000
1737552814.805,96.680,9.277,-7.324,-1000.000,0.000
1737552814.809,110.840,-5.859,-2.441,-1000.000,0.000
1737552814.813,104.004,-34.668,-9.277,-1000.000,0.000
1737552814.817,67.383,-40.527,-19.043,-1000.000,0.000
1737552814.820,49.316,-20.996,-18.066,-1000.000,0.000
1737552814.824,46.387,-14.160,-8.301,-1000.000,0.000
1737552814.828,63.477,-18.555,-18.066,-1000.000,0.000
1737552814.832,81.055,-19.531,-10.254,-1000.000,0.000
1737552814.836,55.176,-13.184,-7.812,-1000.000,0.000
1737552814.840,41.504,-15.137,-5.371,-1000.000,0.000
1737552814.844,37.598,-9.766,-0.488,-1000.000,0.000
1737552814.848,28.809,5.371,-3.906,-1000.000,0.000
1737552814.852,21.973,-18.066,-11.230,-1000.000,0.000
1737552814.856,5.371,-31.738,-25.391,-1000.000,0.000
1737552814.859,-11.230,-15.137,-25.391,-1000.000,0.000
1737552814.863,-7.812,-21.484,-29.297,-1000.000,0.000
1737552814.867,21.973,-15.137,-25.391,-1000.000,0.000
1737552814.871,21.973,-19.531,-4.395,-1000.000,0.000
1737552814.875,-7.324,-33.203,3.418,-1000.000,0.000
1737552814.879,-25.879,-18.555,13.672,-1000.000,0.000
1737552814.883,-20.996,-18.555,14.160,-1000.000,0.000
1737552814.887,-3.418,-12.695,0.000,-1000.000,0.000
1737552814.891,3.906,11.230,-8.301,-1000.000,0.000
1737552814.895,-2.930,-2.441,-9.766,-1000.000,0.000
1737552814.899,-7.812,-1.953,-23.438,-1000.000,0.000
1737552814.902,-19.531,-4.883,-20.020,-1000.000,0.000
1737552814.906,-8.301,-21.484,-2.441,-1000.000,0.000
1737552814.910,26.855,-23.926,-22.461,-1000.000,0.000
1737552814.914,-7.812,0.977,-14.648,-1000.000,0.000
1737552814.918,-56.641,11.719,4.883,-1000.000,0.000
1737552814.922,-54.688,-3.418,0.000,-1000.000,0.000
1737552814.926,-30.762,-24.902,-13.184,-1000.000,0.000
1737552814.930,10.254,-22.949,-8.789,-1000.000,0.000
1737552814.934,-6.348,-10.254,-8.789,-1000.000,0.000
1737552814.938,-39.551,-5.859,-34.668,-1000.000,0.000
1737552814.942,-60.059,-2.441,-30.762,-1000.000,0.000
1737552814.945,-66.406,4.883,0.488,-1000.000,0.000
1737552814.949,-38.574,0.000,2.441,-1000.000,0.000
1737552814.953,-29.297,1.465,1.953,-1000.000,0.000
1737552814.957,-47.363,0.000,-11.230,-1000.000,0.000
1737552814.961,-53.711,-27.344,-27.832,-1000.000,0.000
1737552814.965,-44.434,-23.438,-8.789,-1000.000,0.000
1737552814.969,-35.156,-19.531,12.207,-1000.000,0.000
1737552814.973,-34.668,-31.738,1.953,-1000.000,0.000
1737552814.977,-58.105,-20.020,-9.277,-1000.000,0.000
1737552814.981,-51.270,-17.090,-17.090,-1000.000,0.000
1737552814.985,-30.762,-17.578,-17.090,-1000.000,0.000
1737552814.988,-50.293,-22.949,-14.160,-1000.000,0.000
1737552814.992,-38.086,-9.277,-21.973,-1000.000,0.000
1737552814.996,-30.273,5.859,-13.672,-1000.000,0.000
1737552815.000,-53.223,0.488,-12.207,-1000.000,0.000
1737552815.004,-53.223,-7.324,-16.602,-1000.000,0.000
1737552815.008,-53.711,-9.277,-9.277,-1000.000,0.000
1737552815.012,-48.340,-4.395,1.465,-1000.000,0.000
1737552815.016,-50.293,-12.695,-6.348,-1000.000,0.000
1737552815.020,-62.012,-26.367,-16.602,-1000.000,0.000
1737552815.024,-47.363,-37.109,-15.137,-1000.000,0.000
1737552815.028,-24.902,-27.344,-22.461,-1000.000,0.000
1737552815.031,-16.602,11.719,5.859,-1000.000,0.000
1737552815.035,-20.996,0.488,11.719,-1000.000,0.000
1737552815.039,-40.039,-18.555,-5.859,-1000.000,0.000
1737552815.043,-56.152,20.508,6.836,-1000.000,0.000
1737552815.047,-64.453,23.926,-0.977,-1000.000,0.000
1737552815.051,-61.523,6.348,-24.902,-1000.000,0.000
1737552815.055,-65.430,-1.465,-10.742,-1000.000,0.000
1737552815.059,-66.406,-31.738,-6.348,-1000.000,0.000
1737552815.063,-66.406,-26.855,-17.090,-1000.000,0.000
1737552815.067,-63.965,-8.301,-23.926,-1000.000,0.000
1737552815.071,-37.598,-7.812,-11.230,-1000.000,0.000
1737552815.074,-39.062,-10.742,-13.184,-1000.000,0.000
1737552815.078,-41.504,-22.949,-22.949,-1000.000,0.000
1737552815.082,-34.668,-11.230,-6.348,-1000.000,0.000
1737552815.086,-29.785,10.742,5.859,-1000.000,0.000
1737552815.090,-14.160,3.418,-3.906,-1000.000,0.000
1737552815.094,-47.363,-32.227,-23.926,-1000.000,0.000
1737552815.098,-76.660,-32.715,-21.973,-1000.000,0.000
1737552815.102,-48.828,-3.906,-9.766,-1000.000,0.000
1737552815.106,-13.184,4.395,-1.465,-1000.000,0.000
1737552815.110,-7.324,6.836,-18.066,-1000.000,0.000
1737552815.114,-12.207,0.977,-33.203,-1000.000,0.000
1737552815.117,-28.809,-14.648,-15.137,-1000.000,0.000
1737552815.121,-29.785,-16.113,3.906,-1000.000,0.000
1737552815.125,-1.953,-21.973,1.953,-1000.000,0.000
1737552815.129,13.184,-14.648,-9.766,-1000.000,0.000
1737552815.133,3.906,18.066,-3.906,-1000.000,0.000
1737552815.137,-35.645,12.207,-2.441,-1000.000,0.000
1737552815.141,-40.527,-6.348,-5.859,-1000.000,0.000
1737552815.145,-13.184,-5.371,-19.043,-1000.000,0.000
1737552815.149,-12.207,-5.859,-26.367,-1000.000,0.000
1737552815.153,-16.113,2.441,-6.348,-1000.000,0.000
1737552815.156,-33.203,8.789,-18.555,-1000.000,0.000
1737552815.160,-35.156,0.488,-8.301,-1000.000,0.000
1737552815.164,-34.180,-11.230,-13.672,-1000.000,0.000
1737552815.168,-32.715,-16.113,-29.297,-1000.000,0.000
1737552815.172,-27.832,-22.949,5.371,-1000.000,0.000
1737552815.176,-44.434,7.324,7.324,-1000.000,0.000
1737552815.180,-23.438,21.484,-4.395,-1000.000,0.000
1737552815.184,-25.879,-14.160,-5.859,-1000.000,0.000
1737552815.188,-36.621,-5.859,-15.137,-1000.000,0.000
1737552815.192,-15.625,7.812,-7.324,-1000.000,0.000
1737552815.196,-20.996,-7.324,-13.672,-1000.000,0.000
1737552815.199,-18.066,-17.090,-22.949,-1000.000,0.000
1737552815.203,-2.930,-39.551,-8.301,-1000.000,0.000
1737552815.207,-36.621,-33.203,-10.254,-1000.000,0.000
1737552815.211,-39.551,-3.418,-3.906,-1000.000,0.000
1737552815.215,-36.621,10.742,-17.578,-1000.000,0.000
1737552815.219,-76.172,9.277,-31.738,-1000.000,0.000
1737552815.223,-104.492,-0.977,-17.578,-1000.000,0.000
