timestamps,TP9,AF7,AF8,TP10,Right AUX
1737556562.326,0.000,-20.996,-23.926,-7.324,0.000
1737556562.330,0.000,-27.832,-36.621,-48.340,0.000
1737556562.334,0.000,-27.832,-35.156,-47.852,0.000
1737556562.338,0.000,-10.254,-36.133,-30.762,0.000
1737556562.342,0.000,-9.277,-43.457,-7.324,0.000
1737556562.346,0.000,-10.742,-39.551,-4.883,0.000
1737556562.350,0.000,-12.695,-54.688,-28.809,0.000
1737556562.353,0.000,-21.973,-71.777,-23.926,0.000
1737556562.357,0.000,-22.461,-58.594,-9.766,0.000
1737556562.361,0.000,-30.273,-46.875,-27.832,0.000
1737556562.365,0.000,-32.715,-29.297,-39.062,0.000
1737556562.369,0.000,-25.391,-22.461,-47.363,0.000
1737556562.373,-79.590,-23.438,-24.902,-60.547,0.000
1737556562.377,-66.895,-23.438,-28.809,-60.059,0.000
1737556562.381,-52.246,-16.602,-38.574,-32.227,0.000
1737556562.385,-69.336,-19.531,-59.082,-14.648,0.000
1737556562.389,-85.938,-28.320,-66.406,-31.250,0.000
1737556562.393,-89.355,-23.926,-58.594,-36.621,0.000
1737556562.396,-68.359,-14.160,-74.219,-30.273,0.000
1737556562.400,-37.109,-8.301,-50.781,-8.301,0.000
1737556562.404,-56.641,-22.461,-9.766,-12.695,0.000
1737556562.408,-85.449,-29.785,-17.090,-32.715,0.000
1737556562.412,-75.684,-26.367,-26.367,-40.527,0.000
1737556562.416,-57.617,-21.973,-32.715,-45.410,0.000
1737556562.420,0.000,-16.113,0.000,0.000,0.000
1737556562.424,0.000,-15.137,0.000,0.000,0.000
1737556562.428,0.000,-18.555,0.000,0.000,0.000
1737556562.432,0.000,-20.508,0.000,0.000,0.000
1737556562.436,0.000,-17.578,0.000,0.000,0.000
1737556562.439,0.000,-18.066,0.000,0.000,0.000
1737556562.443,0.000,-21.973,0.000,0.000,0.000
1737556562.447,0.000,-24.902,0.000,0.000,0.000
1737556562.451,0.000,-18.555,0.000,0.000,0.000
1737556562.455,0.000,-21.973,0.000,0.000,0.000
1737556562.459,0.000,-19.531,0.000,0.000,0.000
1737556562.463,0.000,-12.695,0.000,0.000,0.000
1737556562.467,-58.594,-19.043,-39.062,-8.789,0.000
1737556562.471,-54.688,-23.438,-17.090,-31.738,0.000
1737556562.475,-48.340,-23.926,-15.137,-27.344,0.000
1737556562.479,-53.711,-27.832,-28.320,-21.484,0.000
1737556562.482,-40.527,-24.902,-21.973,1.465,0.000
1737556562.486,-51.758,-15.625,-43.457,16.113,0.000
1737556562.490,-71.289,-14.160,-69.336,-1.953,0.000
1737556562.494,-61.035,-22.461,-40.527,-22.949,0.000
1737556562.498,-58.594,-25.391,-18.555,-23.438,0.000
1737556562.502,-54.688,-27.832,-19.043,-15.625,0.000
1737556562.506,-55.664,-21.973,-11.719,-6.348,0.000
1737556562.510,-81.055,-24.414,-15.625,-4.395,0.000
1737556562.514,-83.984,-27.832,-28.320,-20.996,0.000
1737556562.518,-69.336,-22.461,-24.414,-41.504,0.000
1737556562.521,-43.457,-12.207,-16.602,-15.625,0.000
1737556562.525,-49.805,-12.695,-22.949,0.977,0.000
1737556562.529,-75.684,-28.320,-31.738,-22.949,0.000
1737556562.533,-67.871,-22.461,-43.945,-24.414,0.000
1737556562.537,-42.480,-10.742,-62.500,-7.812,0.000
1737556562.541,-32.227,-21.973,-48.340,3.906,0.000
1737556562.545,-49.805,-30.273,-19.531,1.465,0.000
1737556562.549,-89.844,-32.227,-19.531,-36.621,0.000
1737556562.553,-103.516,-33.691,-25.391,-63.477,0.000
1737556562.557,-83.984,-26.855,-26.367,-48.340,0.000
1737556562.561,-54.199,-21.973,-31.738,-25.391,0.000
1737556562.564,-50.293,-17.090,-33.203,-11.719,0.000
1737556562.568,-66.895,-17.090,-37.109,-19.043,0.000
1737556562.572,-68.359,-25.879,-42.480,-42.969,0.000
1737556562.576,-45.898,-21.484,-48.340,-33.691,0.000
1737556562.580,-22.461,-14.160,-55.176,-12.207,0.000
1737556562.584,-31.738,-14.160,-51.758,8.301,0.000
1737556562.588,-57.129,-21.973,-39.062,0.000,0.000
1737556562.592,-74.707,-35.156,-26.855,-43.457,0.000
1737556562.596,-63.965,-41.504,-30.273,-58.594,0.000
1737556562.600,-47.363,-37.109,-28.809,-31.738,0.000
1737556562.603,-40.527,-27.344,-22.461,-16.602,0.000
1737556562.607,-60.059,-27.344,-27.832,-27.832,0.000
1737556562.611,-62.988,-28.809,-41.504,-35.645,0.000
1737556562.615,-41.992,-24.902,-43.945,-33.203,0.000
1737556562.619,-42.480,-28.809,-44.434,-29.785,0.000
1737556562.623,-20.020,-25.879,-50.293,-19.043,0.000
1737556562.627,-38.574,-31.250,-51.758,-13.184,0.000
1737556562.631,-70.312,-42.480,-52.734,-33.203,0.000
1737556562.635,-59.570,-32.715,-41.992,-43.457,0.000
1737556562.639,-50.781,-19.043,-28.320,-34.668,0.000
1737556562.643,-30.762,-16.602,-14.648,-14.160,0.000
1737556562.646,-42.969,-19.043,-16.113,-21.973,0.000
1737556562.650,-80.078,-28.320,-41.504,-63.965,0.000
1737556562.654,-83.984,-33.203,-39.551,-60.547,0.000
1737556562.658,-41.504,-25.391,-29.785,-24.414,0.000
1737556562.662,-18.555,-18.066,-36.133,-14.160,0.000
1737556562.666,-22.461,-20.020,-35.645,-19.531,0.000
1737556562.670,-39.551,-29.297,-32.227,-14.648,0.000
1737556562.674,-54.688,-29.785,-38.086,-27.832,0.000
1737556562.678,-58.105,-28.320,-36.621,-39.062,0.000
1737556562.682,-64.453,-26.367,-33.203,-15.625,0.000
1737556562.686,-56.152,-19.531,-22.949,-1.953,0.000
1737556562.689,-58.594,-22.949,-17.090,-18.555,0.000
1737556562.693,-69.824,-30.762,-27.832,-33.203,0.000
1737556562.697,-41.992,-25.879,-31.738,-16.113,0.000
1737556562.701,-13.184,-18.066,-21.484,12.207,0.000
1737556562.705,-17.578,-20.020,-25.391,12.207,0.000
1737556562.709,-47.363,-27.344,-40.039,-20.020,0.000
1737556562.713,-67.383,-26.855,-44.434,-36.621,0.000
1737556562.717,-50.781,-20.508,-34.668,-17.578,0.000
1737556562.721,-29.785,-15.625,-19.531,3.906,0.000
1737556562.725,-43.457,-23.926,-41.504,-8.301,0.000
1737556562.729,-69.824,-25.391,-60.059,-25.879,0.000
1737556562.732,-59.570,-21.484,-44.434,-29.297,0.000
1737556562.736,-44.922,-27.344,-31.250,-29.297,0.000
1737556562.740,-45.898,-24.902,-19.531,-14.160,0.000
1737556562.744,-42.969,-26.855,-19.043,-5.859,0.000
1737556562.748,-66.406,-29.785,-27.344,-26.855,0.000
1737556562.752,-74.707,-26.855,-32.715,-41.016,0.000
1737556562.756,-42.480,-20.020,-36.133,-24.902,0.000
1737556562.760,-33.203,-21.973,-39.062,-8.789,0.000
1737556562.764,-45.410,-23.926,-29.785,15.625,0.000
1737556562.768,-45.898,-20.996,-5.371,16.602,0.000
1737556562.771,-46.875,-27.344,-2.441,-19.531,0.000
1737556562.775,-55.664,-33.203,-16.602,-36.133,0.000
1737556562.779,-47.363,-37.109,-25.879,-21.973,0.000
1737556562.783,-31.738,-33.203,-12.695,8.789,0.000
1737556562.787,-53.223,-26.367,-8.301,9.766,0.000
1737556562.791,-88.379,-29.785,-35.645,-24.414,0.000
1737556562.795,-83.008,-27.832,-44.434,-35.156,0.000
1737556562.799,-57.617,-24.902,-33.203,-26.855,0.000
1737556562.803,-33.691,-28.320,-23.926,-3.906,0.000
1737556562.807,-45.898,-30.762,-22.949,2.441,0.000
1737556562.811,-67.383,-33.203,-30.273,-19.531,0.000
1737556562.814,-56.152,-37.598,-33.691,-27.344,0.000
1737556562.818,-55.176,-39.062,-48.828,-17.578,0.000
1737556562.822,-47.852,-32.227,-55.176,16.113,0.000
1737556562.826,-47.852,-27.344,-26.855,12.695,0.000
1737556562.830,-69.336,-30.273,-18.555,-33.691,0.000
1737556562.834,-85.449,-31.250,-35.645,-35.156,0.000
1737556562.838,-76.172,-30.762,-40.039,-20.020,0.000
1737556562.842,-57.129,-32.715,-32.227,-14.160,0.000
1737556562.846,-64.941,-32.715,-35.645,-9.766,0.000
1737556562.850,-72.266,-31.738,-40.039,-25.391,0.000
1737556562.854,-71.777,-30.762,-41.504,-39.062,0.000
1737556562.857,-46.875,-29.297,-40.039,-24.414,0.000
1737556562.861,-23.926,-27.344,-31.738,-5.859,0.000
1737556562.865,-42.480,-24.414,-38.086,-0.977,0.000
1737556562.869,-51.758,-25.391,-39.551,-14.648,0.000
1737556562.873,-71.777,-26.855,-26.367,-36.133,0.000
1737556562.877,-60.059,-18.555,-23.438,-19.043,0.000
1737556562.881,-27.832,-14.160,-30.762,11.719,0.000
1737556562.885,-42.480,-14.160,-24.414,12.207,0.000
1737556562.889,0.000,-18.066,-22.461,-14.160,0.000
1737556562.893,0.000,-26.367,-28.320,-49.316,0.000
1737556562.896,0.000,-31.250,-30.273,-44.434,0.000
1737556562.900,0.000,-30.762,-30.762,-19.043,0.000
1737556562.904,0.000,-20.020,-21.484,0.488,0.000
1737556562.908,0.000,-17.090,-32.227,-2.441,0.000
1737556562.912,0.000,-16.113,-48.828,-31.738,0.000
1737556562.916,0.000,-19.531,-34.668,-42.969,0.000
1737556562.920,0.000,-27.832,-30.273,-20.020,0.000
1737556562.924,0.000,-30.273,-29.297,-6.348,0.000
1737556562.928,0.000,-19.531,-18.555,-20.508,0.000
1737556562.932,0.000,-11.719,-24.902,-43.945,0.000
1737556562.936,-54.688,-14.648,0.000,-46.875,0.000
1737556562.939,-47.363,-18.066,0.000,-32.227,0.000
1737556562.943,-29.297,-17.090,0.000,-10.254,0.000
1737556562.947,-56.152,-18.555,0.000,-13.184,0.000
1737556562.951,-68.848,-20.020,0.000,-33.691,0.000
1737556562.955,-47.852,-20.996,0.000,-50.293,0.000
1737556562.959,-35.156,-22.461,0.000,-45.898,0.000
1737556562.963,-33.691,-28.320,0.000,-18.066,0.000
1737556562.967,-54.199,-28.320,0.000,-14.648,0.000
1737556562.971,-63.965,-23.438,0.000,-33.203,0.000
1737556562.975,-55.664,-29.297,0.000,-43.457,0.000
1737556562.978,-40.039,-30.273,0.000,-41.016,0.000
1737556562.982,-38.574,-27.344,-34.668,-30.762,0.000
1737556562.986,-52.246,-19.531,-49.805,-23.438,0.000
1737556562.990,-65.430,-21.973,-63.965,-37.598,0.000
1737556562.994,-61.523,-32.715,-54.688,-44.434,0.000
1737556562.998,-44.434,-32.227,-36.621,-27.832,0.000
1737556563.002,-36.133,-23.926,-30.273,-13.672,0.000
1737556563.006,-49.316,-20.020,-21.484,-6.348,0.000
1737556563.010,-71.777,-30.273,-29.785,-28.809,0.000
1737556563.014,-67.383,-31.738,-37.109,-49.805,0.000
1737556563.018,-41.992,-22.949,-30.762,-26.367,0.000
1737556563.021,-29.297,-18.555,-32.715,-5.371,0.000
1737556563.025,-38.086,-18.555,-31.738,-8.789,0.000
1737556563.029,-55.664,-21.484,-44.434,-21.973,0.000
1737556563.033,-51.758,-20.020,-51.270,-18.066,0.000
1737556563.037,-27.832,-22.461,-44.922,-16.113,0.000
1737556563.041,-16.113,-29.297,-32.227,-24.414,0.000
1737556563.045,-30.273,-31.250,-17.090,-14.648,0.000
1737556563.049,-55.664,-24.902,-16.113,-17.578,0.000
1737556563.053,-77.637,-22.949,-27.344,-35.645,0.000
1737556563.057,-58.594,-20.020,-45.898,-23.438,0.000
1737556563.061,-21.484,-16.113,-42.969,-8.301,0.000
1737556563.064,-25.879,-17.578,-32.715,-5.859,0.000
1737556563.068,-45.898,-21.973,-47.852,-10.254,0.000
1737556563.072,-66.895,-29.297,-48.828,-36.133,0.000
1737556563.076,0.000,-31.738,0.000,-48.828,0.000
1737556563.080,0.000,-26.855,0.000,-37.109,0.000
1737556563.084,0.000,-17.578,0.000,-16.113,0.000
1737556563.088,0.000,-20.996,0.000,-22.461,0.000
1737556563.092,0.000,-22.949,0.000,-41.992,0.000
1737556563.096,0.000,-18.555,0.000,-45.410,0.000
1737556563.100,0.000,-16.602,0.000,-28.320,0.000
1737556563.104,0.000,-18.066,0.000,-8.301,0.000
1737556563.107,0.000,-10.742,0.000,-13.672,0.000
1737556563.111,0.000,-13.672,0.000,-28.809,0.000
1737556563.115,0.000,-30.273,0.000,-45.898,0.000
1737556563.119,0.000,-34.668,0.000,-47.363,0.000
1737556563.123,-53.711,-29.785,-20.508,-30.273,0.000
1737556563.127,-54.199,-27.344,-20.508,-29.297,0.000
1737556563.131,-68.848,-32.227,-37.598,-52.246,0.000
1737556563.135,-42.969,-27.832,-39.062,-43.945,0.000
1737556563.139,-19.531,-14.648,-34.180,-10.742,0.000
1737556563.143,-36.621,-17.578,-39.062,-15.137,0.000
1737556563.146,-43.457,-25.879,-31.250,-12.207,0.000
1737556563.150,-54.199,-27.344,-33.203,-17.578,0.000
1737556563.154,-62.988,-25.391,-43.457,-43.945,0.000
1737556563.158,-37.109,-19.531,-47.363,-30.762,0.000
1737556563.162,-34.668,-27.344,-45.898,-19.531,0.000
1737556563.166,-50.293,-34.668,-31.738,-36.621,0.000
1737556563.170,-59.570,-33.691,-24.414,-46.875,0.000
1737556563.174,-51.270,-32.715,-27.344,-49.316,0.000
1737556563.178,-32.715,-29.297,-29.785,-41.992,0.000
1737556563.182,-26.855,-25.879,-34.668,-18.066,0.000
1737556563.186,-31.738,-22.461,-36.621,-5.371,0.000
1737556563.189,-43.457,-20.996,-45.410,-23.926,0.000
1737556563.193,-55.664,-24.414,-47.852,-39.062,0.000
1737556563.197,-45.410,-28.320,-44.922,-24.414,0.000
1737556563.201,-30.762,-19.531,-35.645,-12.695,0.000
1737556563.205,-25.879,-17.090,-23.926,-7.812,0.000
1737556563.209,-40.527,-18.066,-30.762,-24.414,0.000
1737556563.213,-61.523,-17.090,-36.621,-42.969,0.000
1737556563.217,0.000,-14.648,-39.551,-20.020,0.000
1737556563.221,0.000,-12.695,-44.922,-1.465,0.000
1737556563.225,0.000,-16.113,-37.109,13.184,0.000
1737556563.229,0.000,-25.879,-24.902,-6.836,0.000
1737556563.232,0.000,-35.156,-30.762,-35.156,0.000
1737556563.236,0.000,-31.250,-49.805,-39.062,0.000
1737556563.240,0.000,-26.367,-43.945,-24.902,0.000
1737556563.244,0.000,-20.020,-22.461,5.859,0.000
1737556563.248,0.000,-21.484,-27.832,0.488,0.000
1737556563.252,0.000,-27.832,-44.434,-26.367,0.000
1737556563.256,0.000,-25.879,-44.434,-23.926,0.000
1737556563.260,0.000,-24.902,-32.227,1.953,0.000
1737556563.264,-22.949,-25.391,-21.973,16.602,0.000
1737556563.268,-17.090,-24.902,-27.344,-6.348,0.000
1737556563.271,-24.902,-24.902,-40.039,-24.902,0.000
1737556563.275,-45.410,-23.926,-48.828,-15.625,0.000
1737556563.279,-79.102,-23.926,-41.504,-4.395,0.000
1737556563.283,-68.359,-20.508,-32.715,4.395,0.000
1737556563.287,-52.246,-20.996,-41.016,5.371,0.000
1737556563.291,-27.344,-24.414,-44.434,-10.742,0.000
1737556563.295,-35.645,-26.855,-42.480,-17.578,0.000
1737556563.299,-63.965,-30.762,-39.551,-14.648,0.000
1737556563.303,-55.176,-33.203,-42.969,-4.395,0.000
1737556563.307,-33.691,-34.180,-40.527,-0.977,0.000
1737556563.311,-49.316,-31.738,-35.156,-21.484,0.000
1737556563.314,-50.781,-34.180,-39.551,-28.809,0.000
1737556563.318,-28.320,-31.738,-43.457,-6.836,0.000
1737556563.322,-15.625,-22.461,-42.969,15.625,0.000
1737556563.326,-24.414,-20.996,-34.180,19.531,0.000
1737556563.330,-39.062,-20.508,-20.996,-2.441,0.000
1737556563.334,-49.316,-18.066,-26.855,-15.137,0.000
1737556563.338,-21.973,-21.484,-39.062,2.930,0.000
1737556563.342,-11.230,-24.902,-30.762,14.160,0.000
1737556563.346,-33.691,-22.949,-32.715,8.301,0.000
1737556563.350,-41.016,-20.020,-16.602,-11.230,0.000
1737556563.353,-34.180,-25.391,-7.324,-30.273,0.000
1737556563.357,-17.090,-41.016,-31.250,-30.762,0.000
1737556563.361,-0.977,-36.133,-36.133,-8.789,0.000
1737556563.365,-4.883,-20.508,-28.809,16.113,0.000
1737556563.369,0.488,-17.578,-32.227,5.859,0.000
1737556563.373,-16.602,-18.555,-42.480,-24.414,0.000
1737556563.377,-33.691,-13.184,-54.688,-20.508,0.000
1737556563.381,-10.742,-10.254,-52.246,-6.836,0.000
1737556563.385,-11.719,-18.555,-31.250,-1.465,0.000
1737556563.389,-31.250,-20.508,-23.926,-21.973,0.000
1737556563.393,-36.621,-20.996,-30.762,-38.086,0.000
1737556563.396,-34.180,-19.043,-39.551,-31.738,0.000
1737556563.400,-23.438,-9.766,-29.785,-20.996,0.000
1737556563.404,-18.555,-9.766,-18.555,-11.719,0.000
1737556563.408,-45.898,-19.043,-30.273,-30.762,0.000
1737556563.412,-68.848,-23.438,-42.969,-61.035,0.000
1737556563.416,-57.617,-15.625,-41.016,-52.734,0.000
1737556563.420,-19.043,-8.301,-35.645,-20.996,0.000
1737556563.424,9.766,-0.488,-38.086,0.000,0.000
1737556563.428,-14.160,-2.441,-31.250,-2.441,0.000
1737556563.432,-53.711,-17.090,-25.879,-33.203,0.000
1737556563.436,-57.129,-24.902,-23.438,-46.387,0.000
1737556563.439,-37.598,-21.973,-23.438,-33.691,0.000
1737556563.443,-17.090,-19.043,-25.879,-11.719,0.000
1737556563.447,-25.391,-19.531,-29.785,-12.695,0.000
1737556563.451,0.000,-22.949,-38.086,-38.574,0.000
1737556563.455,0.000,-22.949,-44.922,-39.551,0.000
1737556563.459,0.000,-21.484,-47.852,-15.137,0.000
1737556563.463,0.000,-20.508,-40.527,0.488,0.000
1737556563.467,0.000,-21.484,-35.156,-23.438,0.000
1737556563.471,0.000,-21.973,-33.203,-49.805,0.000
1737556563.475,0.000,-26.367,-32.715,-46.387,0.000
1737556563.479,0.000,-22.949,-32.227,-24.902,0.000
1737556563.482,0.000,-19.043,-29.785,0.000,0.000
1737556563.486,0.000,-23.926,-32.227,3.418,0.000
1737556563.490,0.000,-29.785,-42.969,-11.719,0.000
1737556563.494,0.000,-32.227,-44.434,-31.738,0.000
1737556563.498,-43.457,-28.809,-41.504,-25.879,0.000
1737556563.502,-9.766,-28.809,-34.668,-2.441,0.000
1737556563.506,-6.348,-28.809,-17.578,-4.395,0.000
1737556563.510,-38.574,-33.691,-16.113,-21.973,0.000
1737556563.514,-60.059,-38.574,-35.645,-41.504,0.000
1737556563.518,-25.391,-21.484,-37.598,-32.227,0.000
1737556563.521,12.207,-11.719,-34.180,6.348,0.000
1737556563.525,-12.207,-14.648,-28.809,1.953,0.000
1737556563.529,-47.852,-23.438,-35.156,-26.367,0.000
1737556563.533,-55.176,-31.738,-43.945,-37.598,0.000
1737556563.537,-35.645,-22.949,-40.039,-26.367,0.000
1737556563.541,-0.488,-15.625,-33.203,-2.930,0.000
1737556563.545,3.906,-13.184,-21.484,2.930,0.000
1737556563.549,-36.621,-17.090,-26.367,-29.297,0.000
1737556563.553,-59.082,-26.367,-34.180,-41.992,0.000
1737556563.557,-40.527,-28.320,-27.832,-30.762,0.000
1737556563.561,-15.137,-20.508,-27.832,-23.438,0.000
1737556563.564,-5.371,-14.648,-29.297,-10.742,0.000
1737556563.568,-39.062,-18.555,-33.203,-15.137,0.000
1737556563.572,-64.941,-24.902,-43.457,-27.344,0.000
1737556563.576,-38.574,-24.414,-45.410,-20.508,0.000
1737556563.580,-10.254,-22.461,-36.621,-27.344,0.000
1737556563.584,-13.184,-19.531,-31.738,-30.762,0.000
1737556563.588,-42.969,-15.625,-33.203,-35.156,0.000
1737556563.592,-46.387,-19.531,-28.320,-60.059,0.000
1737556563.596,-25.879,-16.113,-30.762,-62.500,0.000
1737556563.600,-17.090,-13.184,-41.016,-36.133,0.000
1737556563.604,-29.785,-22.949,-39.551,-12.695,0.000
1737556563.607,-50.781,-23.438,-41.992,-21.973,0.000
1737556563.611,-47.852,-17.090,-55.664,-31.738,0.000
1737556563.615,-18.555,-10.254,-51.270,-29.297,0.000
1737556563.619,-18.555,-17.578,-34.180,-20.508,0.000
1737556563.623,-20.508,-24.902,-29.785,-3.418,0.000
1737556563.627,-38.574,-21.973,-38.086,-22.949,0.000
1737556563.631,-63.965,-24.414,-41.992,-47.852,0.000
1737556563.635,-45.410,-29.297,-46.387,-43.457,0.000
1737556563.639,-26.855,-21.973,-57.617,-32.227,0.000
1737556563.643,-19.043,-18.555,-47.852,-22.461,0.000
1737556563.646,-34.180,-31.738,-33.691,-13.184,0.000
1737556563.650,-54.199,-36.621,-34.668,-23.926,0.000
1737556563.654,-47.852,-30.273,-26.855,-39.551,0.000
1737556563.658,-39.062,-24.414,-26.855,-22.949,0.000
1737556563.662,-32.715,-29.785,-34.180,-1.953,0.000
1737556563.666,-42.480,-39.062,-27.832,-6.348,0.000
1737556563.670,-42.480,-32.227,-27.344,-24.414,0.000
1737556563.674,-48.340,-23.438,-35.645,-29.297,0.000
1737556563.678,-43.945,-24.902,-39.062,-15.625,0.000
1737556563.682,-17.090,-24.414,-34.668,7.812,0.000
1737556563.686,-30.762,-32.227,0.000,7.324,0.000
1737556563.689,-61.035,-35.645,0.000,-11.719,0.000
1737556563.693,-51.758,-23.438,0.000,-21.973,0.000
1737556563.697,-23.926,-24.902,0.000,-19.531,0.000
1737556563.701,-23.926,-23.926,0.000,-8.301,0.000
1737556563.705,-46.387,-19.043,0.000,-3.418,0.000
1737556563.709,-52.246,-26.367,0.000,-23.926,0.000
1737556563.713,-49.316,-29.785,0.000,-43.945,0.000
1737556563.717,-53.711,-28.809,0.000,-36.621,0.000
1737556563.721,-39.551,-30.762,0.000,-23.926,0.000
1737556563.725,-31.250,-29.297,0.000,-12.695,0.000
1737556563.728,-52.734,-30.762,0.000,-25.391,0.000
1737556563.732,-58.594,-33.203,-51.270,-46.387,0.000
1737556563.736,-38.574,-21.973,-59.082,-33.203,0.000
1737556563.740,-30.273,-12.207,-42.480,-9.766,0.000
1737556563.744,-36.621,-15.625,-29.297,-8.301,0.000
1737556563.748,-69.336,-21.484,-31.738,-41.016,0.000
1737556563.752,-63.965,-20.020,-34.668,-55.664,0.000
1737556563.756,-39.551,-22.949,-45.898,-43.945,0.000
1737556563.760,-36.621,-27.832,-44.922,-13.672,0.000
1737556563.764,-36.621,-21.973,-34.668,17.090,0.000
1737556563.768,-49.805,-19.531,-40.039,-11.230,0.000
1737556563.771,-53.711,-24.902,-41.504,-33.691,0.000
1737556563.775,-48.828,-20.508,-35.645,-23.438,0.000
1737556563.779,-36.621,-20.508,-37.109,-4.883,0.000
1737556563.783,-24.414,-23.438,-38.574,2.930,0.000
1737556563.787,-24.902,-15.137,-32.715,-5.371,0.000
1737556563.791,-37.598,-19.043,-27.832,-26.367,0.000
1737556563.795,-46.387,-22.461,-28.320,-42.969,0.000
1737556563.799,-38.086,-17.578,-31.738,-30.762,0.000
1737556563.803,-24.414,-19.043,-35.645,-6.836,0.000
1737556563.807,-34.668,-24.414,-49.316,-17.090,0.000
1737556563.811,-73.242,-34.668,-48.340,-42.969,0.000
1737556563.814,-83.496,-38.086,-35.156,-48.340,0.000
1737556563.818,-46.875,-34.668,-37.109,-36.621,0.000
1737556563.822,-6.348,-24.902,-34.180,-1.465,0.000
1737556563.826,0.000,-23.438,0.000,4.395,0.000
1737556563.830,0.000,-37.109,0.000,-23.438,0.000
1737556563.834,0.000,-37.598,0.000,-37.109,0.000
1737556563.838,0.000,-31.250,0.000,-22.949,0.000
1737556563.842,0.000,-33.203,0.000,-12.695,0.000
1737556563.846,0.000,-31.250,0.000,-9.766,0.000
1737556563.850,0.000,-28.809,0.000,-31.738,0.000
1737556563.854,0.000,-31.250,0.000,-49.316,0.000
1737556563.857,0.000,-32.715,0.000,-44.434,0.000
1737556563.861,0.000,-29.785,0.000,-28.320,0.000
1737556563.865,0.000,-24.414,0.000,-6.836,0.000
1737556563.869,0.000,-20.996,0.000,-18.555,0.000
1737556563.873,-32.715,-26.855,-39.551,-40.527,0.000
1737556563.877,-10.742,-34.668,-41.992,-35.156,0.000
1737556563.881,-2.930,-33.203,-38.574,0.977,0.000
1737556563.885,-6.836,-24.902,-30.273,13.672,0.000
1737556563.889,-42.969,-24.902,-39.062,-24.414,0.000
1737556563.893,-62.012,-20.996,-55.176,-46.387,0.000
1737556563.896,-32.227,-24.902,-49.316,-50.781,0.000
1737556563.900,-14.160,-33.203,-39.551,-34.180,0.000
1737556563.904,-10.254,-22.461,-45.898,-4.883,0.000
1737556563.908,-38.086,-28.320,-46.387,-16.602,0.000
1737556563.912,-50.293,-34.180,-35.156,-52.246,0.000
1737556563.916,-35.156,-38.574,-28.320,-51.758,0.000
1737556563.920,-23.926,-33.203,-28.320,-9.766,0.000
1737556563.924,-12.695,-19.043,-30.273,10.742,0.000
1737556563.928,-24.902,-18.555,-34.180,-20.508,0.000
1737556563.932,-41.016,-21.484,-39.551,-49.805,0.000
1737556563.936,-21.484,-18.066,-37.598,-36.621,0.000
1737556563.939,-15.625,-12.207,-43.457,-18.066,0.000
1737556563.943,-11.719,-11.230,-53.223,-4.395,0.000
1737556563.947,-27.344,-20.996,-54.199,-7.324,0.000
1737556563.951,-27.344,-25.391,-51.270,-26.855,0.000
1737556563.955,-24.414,-18.555,-47.363,-34.180,0.000
1737556563.959,-38.086,-13.672,-34.180,-23.926,0.000
1737556563.963,-14.648,-11.230,-25.879,-17.090,0.000
1737556563.967,-28.320,-17.578,-44.434,-16.602,0.000
1737556563.971,-43.945,-21.484,-53.223,-29.785,0.000
1737556563.975,-20.996,-18.555,-34.668,-30.273,0.000
1737556563.979,-25.391,-19.531,-22.949,-14.160,0.000
1737556563.982,-19.531,-19.531,-20.020,-5.859,0.000
1737556563.986,-8.789,-15.137,-22.461,0.488,0.000
1737556563.990,-36.621,-22.949,-24.902,-13.184,0.000
1737556563.994,-47.852,-26.855,-32.227,-31.250,0.000
1737556563.998,-29.297,-21.973,-37.598,-23.926,0.000
1737556564.002,-20.996,-30.273,-33.203,1.953,0.000
1737556564.006,-25.879,-33.203,-39.551,5.371,0.000
1737556564.010,-62.012,-34.180,-53.223,-26.855,0.000
1737556564.014,0.000,-33.203,0.000,-44.922,0.000
1737556564.018,0.000,-24.414,0.000,-29.297,0.000
1737556564.021,0.000,-20.020,0.000,-4.883,0.000
1737556564.025,0.000,-19.531,0.000,0.488,0.000
1737556564.029,0.000,-15.137,0.000,-17.578,0.000
1737556564.033,0.000,-17.578,0.000,-27.344,0.000
1737556564.037,0.000,-23.926,0.000,-16.602,0.000
1737556564.041,0.000,-27.832,0.000,1.465,0.000
1737556564.045,0.000,-24.902,0.000,9.766,0.000
1737556564.049,0.000,-23.438,0.000,-13.672,0.000
1737556564.053,0.000,-22.461,0.000,-26.367,0.000
1737556564.057,0.000,-21.973,0.000,-21.973,0.000
1737556564.061,-36.133,-22.949,-32.715,-15.137,0.000
1737556564.064,-33.691,-26.367,-35.156,-5.371,0.000
1737556564.068,-38.574,-24.414,-38.574,-12.207,0.000
1737556564.072,-44.922,-10.742,-28.320,-18.555,0.000
1737556564.076,-43.457,-19.531,-18.555,-30.273,0.000
1737556564.080,-25.391,-21.484,-28.809,-29.785,0.000
1737556564.084,-20.996,-19.043,-50.781,-11.719,0.000
1737556564.088,-34.668,-28.809,-45.898,-13.184,0.000
1737556564.092,-44.434,-25.879,-38.574,-34.668,0.000
1737556564.096,-61.523,-25.391,-48.828,-56.152,0.000
1737556564.100,-49.805,-20.996,-37.109,-38.086,0.000
1737556564.103,-27.832,-15.625,-24.414,-3.418,0.000
1737556564.107,-26.367,-9.766,-16.113,1.465,0.000
1737556564.111,-37.598,-6.348,-26.855,-18.066,0.000
1737556564.115,-42.969,-16.113,-48.340,-25.391,0.000
1737556564.119,-30.273,-19.043,-55.176,-8.301,0.000
1737556564.123,-6.836,-11.719,-36.621,17.578,0.000
1737556564.127,-21.973,-12.695,-20.996,-0.977,0.000
1737556564.131,-46.875,-20.508,-22.461,-30.273,0.000
1737556564.135,-42.969,-28.320,-25.879,-30.273,0.000
1737556564.139,-32.715,-23.438,-32.715,-19.043,0.000
1737556564.143,-36.133,-16.113,-42.969,-0.977,0.000
1737556564.146,-36.621,-17.090,-48.828,2.930,0.000
1737556564.150,-39.551,-22.461,-39.062,-18.066,0.000
1737556564.154,-54.688,-32.227,-40.039,-43.945,0.000
1737556564.158,-41.016,-28.320,-42.969,-33.203,0.000
1737556564.162,-17.090,-20.020,-32.715,-6.836,0.000
1737556564.166,-13.184,-17.090,-26.367,-5.859,0.000
1737556564.170,-19.043,-8.789,-28.809,-13.184,0.000
1737556564.174,-26.855,-13.672,-39.551,-13.184,0.000
1737556564.178,-35.645,-24.902,-54.199,-12.207,0.000
1737556564.182,-25.391,-25.391,-51.758,0.488,0.000
1737556564.186,-31.250,-22.949,-33.691,16.602,0.000
1737556564.189,-49.805,-21.484,-23.926,-15.625,0.000
1737556564.193,-52.246,-20.020,-25.879,-36.621,0.000
1737556564.197,-35.156,-20.996,-32.227,-14.160,0.000
1737556564.201,-17.090,-22.949,-35.645,-2.930,0.000
1737556564.205,-19.043,-25.391,-37.598,8.301,0.000
1737556564.209,-47.852,-27.832,-44.922,2.441,0.000
1737556564.213,-61.035,-33.691,-44.434,-27.344,0.000
1737556564.217,-35.156,-29.785,-38.086,-30.762,0.000
1737556564.221,-9.766,-25.879,-31.250,-20.508,0.000
1737556564.225,-19.043,-23.926,-24.414,-10.254,0.000
1737556564.229,-42.969,-18.066,-20.996,-23.926,0.000
1737556564.232,-42.969,-20.508,-25.879,-36.621,0.000
1737556564.236,-27.344,-20.996,-35.156,-12.695,0.000
1737556564.240,-15.625,-20.020,-31.738,5.371,0.000
1737556564.244,-15.137,-20.020,-39.062,2.441,0.000
1737556564.248,0.000,-20.996,-41.992,-15.625,0.000
1737556564.252,0.000,-23.926,-46.875,-32.227,0.000
1737556564.256,0.000,-23.926,-53.711,-24.902,0.000
1737556564.260,0.000,-14.648,-33.691,-11.719,0.000
1737556564.264,0.000,-8.789,-21.484,-14.648,0.000
1737556564.268,0.000,-9.277,-28.809,-26.367,0.000
1737556564.271,0.000,-16.602,-34.668,-32.227,0.000
1737556564.275,0.000,-20.508,-36.621,-22.949,0.000
1737556564.279,0.000,-14.160,-41.016,-10.742,0.000
1737556564.283,0.000,-16.602,-40.039,-1.465,0.000
1737556564.287,0.000,-11.719,-34.180,7.324,0.000
1737556564.291,0.000,-12.207,-40.039,-19.043,0.000
1737556564.295,-47.852,-20.996,-45.898,-42.969,0.000
1737556564.299,-27.344,-17.578,-47.363,-29.785,0.000
1737556564.303,-17.090,-16.602,-52.246,-16.113,0.000
1737556564.307,-41.504,-21.484,-51.270,-15.625,0.000
1737556564.311,-52.734,-19.043,-48.828,-29.297,0.000
1737556564.314,-38.086,-15.625,-44.434,-33.691,0.000
1737556564.318,-40.039,-15.137,-34.668,-16.113,0.000
1737556564.322,-19.531,-19.043,-31.738,-1.953,0.000
1737556564.326,-24.414,-27.344,-41.504,-7.324,0.000
1737556564.330,-42.969,-27.832,-38.574,-19.531,0.000
1737556564.334,-29.297,-26.855,-35.645,-17.090,0.000
1737556564.338,-39.062,-32.715,-43.457,-19.531,0.000
1737556564.342,-28.809,-28.320,-29.297,-13.672,0.000
1737556564.346,-24.414,-15.625,-26.367,-2.441,0.000
1737556564.350,-49.805,-26.855,-45.898,-20.020,0.000
1737556564.354,-50.293,-32.715,-43.945,-33.203,0.000
1737556564.357,-36.621,-28.320,-41.504,-29.297,0.000
1737556564.361,-17.090,-25.879,-29.297,-4.883,0.000
1737556564.365,-26.367,-19.531,-17.090,5.859,0.000
1737556564.369,-40.039,-22.949,-28.320,-16.113,0.000
1737556564.373,-52.246,-23.438,-40.527,-32.715,0.000
1737556564.377,-48.828,-17.578,-47.363,-30.273,0.000
1737556564.381,-19.043,-19.531,-37.109,-11.230,0.000
1737556564.385,-21.484,-25.879,-34.668,15.137,0.000
1737556564.389,-21.484,-22.949,-41.016,6.836,0.000
1737556564.393,-20.508,-24.414,-44.434,-24.902,0.000
1737556564.396,-41.016,-24.902,-45.898,-32.227,0.000
1737556564.400,-10.254,-14.648,-40.039,-7.812,0.000
1737556564.404,4.395,-16.113,-37.109,8.301,0.000
1737556564.408,-23.438,-14.160,-34.668,-8.789,0.000
1737556564.412,-36.621,-12.695,-41.504,-37.598,0.000
1737556564.416,-29.297,-24.414,-49.805,-54.199,0.000
1737556564.420,-20.996,-24.414,-39.551,-41.016,0.000
1737556564.424,-15.137,-20.996,-23.926,-18.066,0.000
1737556564.428,-39.551,-28.809,-20.996,-23.438,0.000
1737556564.432,-44.922,-27.344,-28.809,-39.062,0.000
1737556564.436,-16.113,-20.508,-41.504,-40.039,0.000
1737556564.439,-12.207,-24.414,-56.152,-43.945,0.000
1737556564.443,-6.836,-25.391,-49.805,-27.832,0.000
1737556564.447,-12.695,-18.555,-31.250,-13.184,0.000
1737556564.451,-29.297,-17.090,-38.574,-40.039,0.000
1737556564.455,-24.902,-22.461,-50.781,-45.898,0.000
1737556564.459,-14.160,-22.949,-29.785,-22.949,0.000
1737556564.463,8.301,-13.672,-20.996,-2.930,0.000
1737556564.467,-7.324,-15.625,-33.691,-7.324,0.000
1737556564.471,-53.223,-17.578,-38.574,-41.504,0.000
1737556564.475,-44.434,-24.414,-34.180,-58.105,0.000
1737556564.479,-15.137,-24.902,-34.180,-46.875,0.000
1737556564.482,0.000,-12.695,-47.852,-17.090,0.000
1737556564.486,0.000,-21.973,-52.734,-7.324,0.000
1737556564.490,0.000,-32.715,-50.781,-18.555,0.000
1737556564.494,0.000,-24.414,-36.621,-35.156,0.000
1737556564.498,0.000,-19.531,-14.648,-38.086,0.000
1737556564.502,0.000,-17.090,-17.090,-14.648,0.000
1737556564.506,0.000,-14.648,-26.855,-5.371,0.000
1737556564.510,0.000,-18.066,-38.574,-24.902,0.000
1737556564.514,0.000,-21.973,-44.922,-27.832,0.000
1737556564.518,0.000,-20.996,-37.109,-19.531,0.000
1737556564.521,0.000,-17.578,-34.180,-10.254,0.000
1737556564.525,0.000,-7.812,-26.855,10.254,0.000
1737556564.529,-17.090,-9.766,-23.438,-10.254,0.000
1737556564.533,-45.410,-21.973,-36.621,-39.551,0.000
1737556564.537,-25.879,-20.508,-45.898,-28.809,0.000
1737556564.541,7.812,-12.207,-34.668,3.418,0.000
1737556564.545,-11.230,-11.719,-24.902,14.648,0.000
1737556564.549,-41.016,-19.043,-26.855,-8.789,0.000
1737556564.553,-47.852,-21.973,-31.738,-25.391,0.000
1737556564.557,-40.039,-23.926,-39.551,-30.762,0.000
1737556564.561,-20.996,-23.926,-35.156,-21.973,0.000
1737556564.564,-14.648,-24.902,-39.551,-2.930,0.000
1737556564.568,-20.020,-27.832,-49.316,-2.930,0.000
1737556564.572,-20.508,-24.414,-39.062,-10.254,0.000
1737556564.576,0.000,-21.484,0.000,-17.090,0.000
1737556564.580,0.000,-21.973,0.000,-17.090,0.000
1737556564.584,0.000,-20.996,0.000,0.977,0.000
1737556564.588,0.000,-25.879,0.000,-2.441,0.000
1737556564.592,0.000,-24.414,0.000,-38.574,0.000
1737556564.596,0.000,-12.207,0.000,-32.227,0.000
1737556564.600,0.000,-14.160,0.000,-0.488,0.000
1737556564.604,0.000,-19.531,0.000,13.672,0.000
1737556564.607,0.000,-18.066,0.000,-3.906,0.000
1737556564.611,0.000,-25.391,0.000,-31.250,0.000
1737556564.615,0.000,-25.879,0.000,-34.180,0.000
1737556564.619,0.000,-20.020,0.000,-10.254,0.000
1737556564.623,-12.695,-16.113,-38.086,15.625,0.000
1737556564.627,-22.461,-19.531,-25.391,9.277,0.000
1737556564.631,-39.062,-30.273,-34.180,-20.996,0.000
1737556564.635,-38.086,-34.180,-33.691,-34.180,0.000
1737556564.639,-7.324,-23.438,-21.484,-14.160,0.000
1737556564.643,8.301,-10.742,-25.391,16.113,0.000
1737556564.646,-2.930,-12.695,-36.133,21.484,0.000
1737556564.650,-24.902,-20.996,-37.109,-0.977,0.000
1737556564.654,-29.297,-23.438,-37.109,-16.602,0.000
1737556564.658,-27.344,-24.414,-40.527,-9.766,0.000
1737556564.662,-26.855,-23.926,-38.574,5.859,0.000
1737556564.666,-20.508,-17.578,-23.926,16.113,0.000
1737556564.670,-29.785,-20.508,0.000,-5.371,0.000
1737556564.674,-36.621,-30.762,0.000,-33.691,0.000
1737556564.678,-24.902,-25.391,0.000,-21.484,0.000
1737556564.682,-13.672,-15.625,0.000,5.859,0.000
1737556564.686,-9.766,-11.719,0.000,15.137,0.000
1737556564.689,-23.438,-13.184,0.000,-15.625,0.000
1737556564.693,-41.016,-17.090,0.000,-41.504,0.000
1737556564.697,-37.109,-19.043,0.000,-34.180,0.000
1737556564.701,-15.625,-20.020,0.000,-14.160,0.000
1737556564.705,3.906,-17.578,0.000,5.859,0.000
1737556564.709,-22.949,-20.020,0.000,-1.953,0.000
1737556564.713,-40.039,-22.461,0.000,-33.691,0.000
1737556564.717,-15.625,-23.438,-28.320,-37.109,0.000
1737556564.721,-10.742,-20.996,-38.574,-8.789,0.000
1737556564.725,-21.484,-19.531,-32.715,-0.977,0.000
1737556564.729,-39.062,-27.344,-22.949,-11.719,0.000
1737556564.732,-51.758,-34.180,-35.156,-27.344,0.000
1737556564.736,-30.762,-28.320,-39.551,-35.645,0.000
1737556564.740,-8.789,-28.320,-32.715,-19.043,0.000
1737556564.744,-9.277,-30.273,-39.551,1.953,0.000
1737556564.748,-31.250,-24.902,-37.598,-12.207,0.000
1737556564.752,-36.133,-22.949,-30.762,-25.879,0.000
1737556564.756,-22.949,-21.484,-29.297,-21.484,0.000
1737556564.760,-25.391,-21.973,-28.809,-22.949,0.000
1737556564.764,-17.578,-21.973,-20.996,-12.695,0.000
1737556564.768,-44.922,-23.438,-16.602,-7.812,0.000
1737556564.771,-72.266,-34.668,-20.508,-28.320,0.000
1737556564.775,-43.457,-37.598,-19.531,-46.387,0.000
1737556564.779,-33.691,-32.715,-15.625,-42.969,0.000
1737556564.783,-32.227,-28.320,-16.602,-17.090,0.000
1737556564.787,-31.250,-30.762,-23.438,-10.254,0.000
1737556564.791,-35.645,-36.621,-31.738,-16.602,0.000
1737556564.795,-32.715,-32.715,-39.551,-22.461,0.000
1737556564.799,-35.645,-25.391,-59.570,-28.809,0.000
1737556564.803,-34.180,-27.344,-54.688,-18.555,0.000
1737556564.807,-44.434,-26.855,-22.461,-14.160,0.000
1737556564.811,0.000,-27.344,-22.461,-32.227,0.000
1737556564.814,0.000,-32.227,-32.227,-38.574,0.000
1737556564.818,0.000,-29.297,-27.832,-35.645,0.000
1737556564.822,0.000,-25.391,-25.391,-12.695,0.000
1737556564.826,0.000,-28.320,-29.297,-6.348,0.000
1737556564.830,0.000,-34.668,-34.180,-38.574,0.000
1737556564.834,0.000,-38.574,-39.551,-60.059,0.000
1737556564.838,0.000,-39.551,-36.133,-41.016,0.000
1737556564.842,0.000,-37.598,-41.504,-0.488,0.000
1737556564.846,0.000,-30.762,-52.734,-0.488,0.000
1737556564.850,0.000,-32.715,-43.457,-30.762,0.000
1737556564.854,0.000,-39.062,-19.043,-46.387,0.000
1737556564.857,-26.855,-36.133,-16.602,0.000,0.000
1737556564.861,-32.715,-28.320,-41.504,0.000,0.000
1737556564.865,-36.133,-32.227,-56.152,0.000,0.000
1737556564.869,-60.059,-36.133,-51.270,0.000,0.000
1737556564.873,-62.012,-35.645,-37.109,0.000,0.000
1737556564.877,-39.551,-31.738,-36.621,0.000,0.000
1737556564.881,-13.184,-27.344,-43.945,0.000,0.000
1737556564.885,-15.137,-31.250,-39.551,0.000,0.000
1737556564.889,-24.414,-29.785,-31.250,0.000,0.000
1737556564.893,-28.809,-31.250,-31.738,0.000,0.000
1737556564.896,-24.414,-32.715,-31.738,0.000,0.000
1737556564.900,-20.508,-28.320,-32.227,0.000,0.000
1737556564.904,-24.414,-29.785,-48.828,6.348,0.000
1737556564.908,-40.527,-30.762,-47.852,-3.906,0.000
1737556564.912,-67.871,-40.039,-34.668,-49.316,0.000
1737556564.916,-54.199,-33.691,-24.902,-45.410,0.000
1737556564.920,-7.812,1.953,-5.859,7.324,0.000
1737556564.924,-2.930,3.418,10.742,10.742,0.000
1737556564.928,-44.434,-8.789,-5.371,-12.695,0.000
1737556564.932,-70.801,-12.695,25.391,-33.203,0.000
1737556564.936,-38.086,3.906,115.234,-28.320,0.000
1737556564.939,-28.809,-6.348,66.895,-28.809,0.000
1737556564.943,-77.637,-20.508,74.219,-56.152,0.000
1737556564.947,-79.590,89.844,202.148,-47.363,0.000
1737556564.951,0.000,85.449,30.273,-87.402,0.000
1737556564.955,0.000,5.371,-112.793,-161.133,0.000
1737556564.959,0.000,-29.785,-60.059,-213.379,0.000
1737556564.963,0.000,-11.230,11.230,-239.258,0.000
1737556564.967,0.000,56.641,62.988,-270.996,0.000
1737556564.971,0.000,19.531,80.078,-285.645,0.000
1737556564.975,0.000,-10.742,55.664,-268.066,0.000
1737556564.979,0.000,25.391,-3.906,-275.391,0.000
1737556564.982,0.000,31.738,27.344,-291.992,0.000
1737556564.986,0.000,54.688,86.426,-259.766,0.000
1737556564.990,0.000,58.594,103.516,-255.859,0.000
1737556564.994,0.000,51.270,136.230,-278.809,0.000
1737556564.998,-210.938,50.781,137.695,-279.297,0.000
1737556565.002,-200.195,65.918,161.621,-251.465,0.000
1737556565.006,-201.660,78.613,185.547,-228.027,0.000
1737556565.010,-240.234,61.523,181.152,-251.953,0.000
1737556565.014,-268.066,67.383,214.844,-260.742,0.000
1737556565.018,-246.582,76.660,254.883,-226.562,0.000
1737556565.021,-240.234,58.105,273.926,-213.867,0.000
1737556565.025,-243.652,60.059,294.922,-208.008,0.000
1737556565.029,-256.348,68.359,303.223,-212.891,0.000
1737556565.033,-249.023,53.711,287.109,-226.074,0.000
1737556565.037,-229.980,41.992,287.598,-201.172,0.000
1737556565.041,-223.145,42.480,296.875,-156.250,0.000
1737556565.045,-209.473,40.039,284.180,0.000,0.000
1737556565.049,-231.934,15.625,239.746,0.000,0.000
1737556565.053,-220.703,-6.348,209.961,0.000,0.000
1737556565.057,-166.016,-1.953,202.148,0.000,0.000
1737556565.061,-138.672,-2.930,186.035,0.000,0.000
1737556565.064,-144.043,-8.301,152.344,0.000,0.000
1737556565.068,-140.137,-15.137,111.328,0.000,0.000
1737556565.072,-130.371,-26.367,91.797,0.000,0.000
1737556565.076,-124.512,-25.879,90.332,0.000,0.000
1737556565.080,-84.473,-22.461,63.965,0.000,0.000
1737556565.084,-43.457,-27.832,33.203,0.000,0.000
1737556565.088,-41.992,-35.156,18.066,0.000,0.000
1737556565.092,-34.180,-42.480,-9.766,75.195,0.000
1737556565.096,-26.367,-57.617,-37.598,67.383,0.000
1737556565.100,-15.625,-64.453,-49.805,72.266,0.000
1737556565.104,9.277,-55.176,-92.285,119.141,0.000
1737556565.107,10.254,-56.152,-108.398,136.719,0.000
1737556565.111,-12.695,-69.824,-96.191,105.469,0.000
1737556565.115,-5.859,-73.730,-111.328,104.980,0.000
1737556565.119,45.410,-64.941,-114.258,141.602,0.000
1737556565.123,76.172,-54.688,-106.934,167.969,0.000
1737556565.127,49.316,-60.059,-125.977,173.340,0.000
1737556565.131,30.273,-68.359,-151.367,152.832,0.000
1737556565.135,47.363,-70.801,-156.738,137.695,0.000
1737556565.139,0.000,-71.777,-149.414,0.000,0.000
1737556565.143,0.000,-72.266,-156.738,0.000,0.000
1737556565.147,0.000,-75.684,-171.387,0.000,0.000
1737556565.150,0.000,-80.566,-161.133,0.000,0.000
1737556565.154,0.000,-85.938,-139.648,0.000,0.000
1737556565.158,0.000,-80.078,-141.113,0.000,0.000
1737556565.162,0.000,-64.941,-148.926,0.000,0.000
1737556565.166,0.000,-62.500,-138.672,0.000,0.000
1737556565.170,0.000,-69.824,-143.555,0.000,0.000
1737556565.174,0.000,-73.730,-129.395,0.000,0.000
1737556565.178,0.000,-70.312,-126.953,0.000,0.000
1737556565.182,0.000,-54.688,-161.133,0.000,0.000
1737556565.186,56.152,-51.758,-145.996,128.906,0.000
1737556565.189,23.926,-68.848,-113.281,104.980,0.000
1737556565.193,24.902,-79.590,-141.113,84.961,0.000
1737556565.197,36.621,-71.289,-157.227,83.008,0.000
1737556565.201,39.062,-60.547,-126.953,85.449,0.000
1737556565.205,30.762,-51.270,-113.770,93.262,0.000
1737556565.209,15.137,-52.734,-121.094,87.402,0.000
1737556565.213,24.414,-57.129,-136.719,79.102,0.000
1737556565.217,32.715,-57.617,-145.020,68.848,0.000
1737556565.221,35.156,-50.293,-108.398,66.895,0.000
1737556565.225,40.527,-46.387,-70.312,73.242,0.000
1737556565.229,17.578,-60.547,-86.914,43.945,0.000
1737556565.232,-10.742,-59.082,-106.934,19.531,0.000
1737556565.236,9.766,-41.504,-105.957,41.504,0.000
1737556565.240,40.039,-43.457,-108.398,71.777,0.000
1737556565.244,34.668,-45.410,-101.562,81.543,0.000
1737556565.248,27.344,-40.527,-104.004,57.617,0.000
1737556565.252,15.625,-40.527,-111.816,33.203,0.000
1737556565.256,10.742,-40.527,-101.562,38.574,0.000
1737556565.260,23.438,-44.922,-103.027,52.246,0.000
1737556565.264,24.902,-52.734,-94.727,65.918,0.000
1737556565.268,19.043,-51.270,-81.055,48.340,0.000
1737556565.271,-16.602,-49.805,-74.219,4.395,0.000
1737556565.275,-31.738,-44.434,-87.402,4.395,0.000
1737556565.279,0.000,-34.668,-112.793,38.086,0.000
1737556565.283,0.000,-21.484,-108.887,63.477,0.000
1737556565.287,0.000,-22.461,-84.961,62.988,0.000
1737556565.291,0.000,-35.156,-49.316,22.461,0.000
1737556565.295,0.000,-36.621,-48.828,-0.488,0.000
1737556565.299,0.000,-30.762,-67.871,16.602,0.000
1737556565.303,0.000,-29.297,-76.172,46.387,0.000
1737556565.307,0.000,-28.809,-78.613,52.734,0.000
1737556565.311,0.000,-23.438,-63.477,14.648,0.000
1737556565.314,0.000,-26.855,-53.711,-4.395,0.000
1737556565.318,0.000,-35.645,-58.105,11.230,0.000
1737556565.322,0.000,-37.598,-62.988,25.391,0.000
1737556565.326,-5.859,-33.203,-60.059,19.531,0.000
1737556565.330,-12.695,-32.227,-61.035,-5.859,0.000
1737556565.334,-12.695,-31.250,-66.895,-6.348,0.000
1737556565.338,2.441,-25.391,-77.637,12.207,0.000
1737556565.342,7.324,-23.926,-77.637,27.344,0.000
1737556565.346,1.953,-25.879,-65.430,32.715,0.000
1737556565.350,-13.184,-33.691,-65.918,10.254,0.000
1737556565.354,-42.480,-47.852,-73.730,-11.719,0.000
1737556565.357,-27.344,-49.316,-66.895,-17.578,0.000
1737556565.361,-10.742,-41.016,-45.410,-6.836,0.000
1737556565.365,-5.859,-33.691,-45.898,11.230,0.000
1737556565.369,-18.555,-27.344,-61.523,4.395,0.000
1737556565.373,-29.785,-27.832,-46.875,-4.395,0.000
1737556565.377,-14.160,-33.691,-27.832,1.953,0.000
1737556565.381,4.883,-33.203,-30.762,15.625,0.000
1737556565.385,13.672,-27.832,-41.016,28.320,0.000
1737556565.389,-17.578,-25.879,-39.551,17.578,0.000
1737556565.393,-49.805,-24.902,-34.668,-6.348,0.000
1737556565.396,-44.434,-30.273,-48.340,-7.324,0.000
1737556565.400,-6.836,-36.133,-62.988,20.996,0.000
1737556565.404,19.531,-29.297,-47.852,35.156,0.000
1737556565.408,-11.230,-28.320,-39.551,6.348,0.000
1737556565.412,-43.945,-33.691,-50.781,-19.531,0.000
1737556565.416,-37.598,-31.738,-55.176,-28.809,0.000
1737556565.420,-13.184,-21.973,-41.992,-8.789,0.000
1737556565.424,-13.672,-25.879,-31.250,10.742,0.000
1737556565.428,-30.762,-27.344,-30.273,7.812,0.000
1737556565.432,-23.926,-22.949,-43.457,1.465,0.000
1737556565.436,-21.973,-20.020,-58.105,10.254,0.000
1737556565.439,-2.930,-16.113,-42.969,18.066,0.000
1737556565.443,8.301,-22.949,-27.344,22.949,0.000
1737556565.447,-17.090,-29.297,-49.316,21.484,0.000
1737556565.451,-20.020,-32.715,-51.270,-9.277,0.000
1737556565.455,-10.742,-32.227,-38.574,-17.090,0.000
1737556565.459,-2.441,-20.996,-37.109,0.000,0.000
1737556565.463,0.000,-15.137,-37.598,-0.977,0.000
1737556565.467,0.000,-18.066,-46.387,-12.207,0.000
1737556565.471,0.000,-19.531,-51.270,-29.297,0.000
1737556565.475,0.000,-13.672,-54.199,-40.039,0.000
1737556565.479,0.000,-7.812,-51.758,-26.855,0.000
1737556565.482,0.000,-3.906,-32.227,3.418,0.000
1737556565.486,0.000,-2.441,-28.320,9.766,0.000
1737556565.490,0.000,-10.742,-47.363,-9.766,0.000
1737556565.494,0.000,-16.602,-62.988,-10.254,0.000
1737556565.498,0.000,-14.648,-78.125,-0.488,0.000
1737556565.502,0.000,-19.043,-56.152,-3.418,0.000
1737556565.506,0.000,-20.020,-28.809,-8.301,0.000
1737556565.510,0.000,-23.438,-37.598,-23.926,0.000
1737556565.514,-49.316,-30.762,-41.016,-45.410,0.000
1737556565.518,-21.484,-25.391,-38.086,-27.344,0.000
1737556565.522,-1.953,-15.625,-34.180,-6.348,0.000
1737556565.525,-6.348,-18.555,-27.832,-12.207,0.000
1737556565.529,-42.969,-30.762,-38.086,-32.227,0.000
1737556565.533,-41.016,-30.273,-43.945,-24.902,0.000
1737556565.537,-0.488,-30.762,-26.367,-9.766,0.000
1737556565.541,19.531,-27.832,-17.090,-5.859,0.000
1737556565.545,2.441,-22.949,-25.879,-4.395,0.000
1737556565.549,-23.926,-23.438,-35.645,-19.531,0.000
1737556565.553,-28.809,-22.949,-52.734,-15.137,0.000
1737556565.557,-7.812,-20.996,-48.340,-17.578,0.000
1737556565.561,0.000,-21.484,-30.762,-22.949,0.000
1737556565.564,0.000,-19.043,-23.438,-3.418,0.000
1737556565.568,0.000,-19.043,-16.602,-3.906,0.000
1737556565.572,0.000,-29.785,-26.367,-25.879,0.000
1737556565.576,0.000,-24.414,-34.180,-44.434,0.000
1737556565.580,0.000,-11.230,-28.809,-18.555,0.000
1737556565.584,0.000,-19.043,-22.949,-4.395,0.000
1737556565.588,0.000,-38.574,-30.273,-26.367,0.000
1737556565.592,0.000,-36.621,-42.480,-40.039,0.000
1737556565.596,0.000,-25.391,-38.574,-31.250,0.000
1737556565.600,0.000,-23.438,-41.016,-8.789,0.000
1737556565.604,0.000,-15.137,-35.156,6.348,0.000
1737556565.607,-13.672,-16.113,-22.949,-2.441,0.000
1737556565.611,-24.414,-15.625,-36.621,-14.160,0.000
1737556565.615,-7.812,-15.137,-53.711,-23.438,0.000
1737556565.619,12.207,-12.695,-55.664,-17.578,0.000
1737556565.623,-13.184,-19.531,-18.555,-5.859,0.000
1737556565.627,-15.137,-28.320,6.836,-9.766,0.000
1737556565.631,-10.254,-30.762,-4.395,-26.855,0.000
1737556565.635,-27.344,-36.133,-14.648,-29.297,0.000
1737556565.639,-3.418,-27.344,-21.484,-8.789,0.000
1737556565.643,13.184,-16.602,-25.391,12.695,0.000
1737556565.646,-1.465,-20.020,-33.691,16.113,0.000
1737556565.650,-17.578,-31.250,-27.832,-18.066,0.000
1737556565.654,-11.719,-38.086,-13.672,-33.203,0.000
1737556565.658,6.836,-33.691,-21.973,-20.020,0.000
1737556565.662,10.254,-20.020,-40.527,1.953,0.000
1737556565.666,-6.348,-12.695,-50.293,20.996,0.000
1737556565.670,-21.973,-11.719,-33.691,-2.441,0.000
1737556565.674,-27.832,-18.066,-20.996,-44.922,0.000
1737556565.678,-39.551,-27.832,-20.020,-49.316,0.000
1737556565.682,-24.902,-32.227,-21.484,-19.043,0.000
1737556565.686,-13.672,-28.320,-31.738,-11.230,0.000
1737556565.689,-15.137,-25.391,-37.109,-27.832,0.000
1737556565.693,-23.926,-29.297,-29.297,-35.156,0.000
1737556565.697,-17.090,-27.832,-39.551,-25.391,0.000
1737556565.701,5.859,-23.926,-49.316,-5.371,0.000
1737556565.705,-0.488,-25.391,-36.133,9.766,0.000
1737556565.709,-16.113,-24.902,-32.227,-6.348,0.000
1737556565.713,-28.809,-16.602,-38.574,-22.461,0.000
1737556565.717,-22.461,-20.508,-36.133,-27.832,0.000
1737556565.721,-0.488,-23.438,-20.996,-21.484,0.000
1737556565.725,-5.371,-17.578,-11.230,-5.371,0.000
1737556565.729,-29.297,-19.531,-21.973,-18.555,0.000
1737556565.732,-30.273,-22.949,-32.227,-21.973,0.000
1737556565.736,-16.602,-20.996,-30.273,-18.555,0.000
1737556565.740,-8.301,-21.973,-41.504,-12.207,0.000
1737556565.744,-4.883,-21.484,-44.434,13.672,0.000
1737556565.748,-23.438,-23.926,-24.902,-4.883,0.000
1737556565.752,-39.062,-26.855,-22.949,-41.992,0.000
1737556565.756,-23.926,-22.949,-21.484,-50.293,0.000
1737556565.760,-13.672,-21.973,-22.461,-27.344,0.000
1737556565.764,-8.301,-15.625,-30.762,0.977,0.000
1737556565.768,-8.301,-12.695,-31.738,-11.230,0.000
1737556565.771,-35.156,-21.484,-46.387,-25.391,0.000
1737556565.775,-32.715,-25.391,-56.641,-22.461,0.000
1737556565.779,-2.441,-18.066,-55.664,0.488,0.000
1737556565.783,16.602,-16.602,-42.969,29.785,0.000
1737556565.787,0.000,-22.461,-21.973,10.254,0.000
1737556565.791,-43.457,-18.555,-21.484,-35.156,0.000
1737556565.795,-35.156,-12.207,-27.832,-31.250,0.000
1737556565.799,-8.789,-7.812,-25.879,-2.930,0.000
1737556565.803,-1.465,-5.859,-24.902,10.742,0.000
1737556565.807,-15.137,-15.625,-32.227,-5.371,0.000
1737556565.811,-36.621,-23.438,-46.387,-24.902,0.000
1737556565.814,-31.250,-24.902,-48.828,-18.066,0.000
1737556565.818,-11.230,-27.344,-40.527,-19.531,0.000
1737556565.822,-13.672,-30.762,-32.715,-13.184,0.000
1737556565.826,-16.113,-31.250,-21.973,-4.883,0.000
1737556565.830,-31.250,-24.414,-14.648,-17.090,0.000
1737556565.834,-53.711,-19.043,-18.066,-18.066,0.000
1737556565.838,-30.762,-20.508,-21.973,-13.184,0.000
1737556565.842,-10.742,-20.020,-28.809,-5.859,0.000
1737556565.846,-21.973,-15.625,-36.621,0.000,0.000
1737556565.850,-38.086,-13.672,-35.156,-4.395,0.000
1737556565.854,-39.551,-24.902,-26.855,-19.043,0.000
1737556565.857,-22.461,-29.785,-28.320,-17.090,0.000
1737556565.861,-16.602,-23.438,-23.438,1.953,0.000
1737556565.865,-15.625,-20.508,-20.508,11.719,0.000
1737556565.869,-15.625,-23.926,-33.691,-0.977,0.000
1737556565.873,-34.668,-32.227,-33.203,-14.648,0.000
1737556565.877,-20.996,-32.715,-29.785,-15.625,0.000
1737556565.881,-11.230,-27.344,-26.855,-3.418,0.000
1737556565.885,-24.414,-22.461,-24.902,5.859,0.000
1737556565.889,-31.250,-18.555,-26.367,-1.465,0.000
1737556565.893,-36.621,-26.855,-25.879,-25.391,0.000
1737556565.897,-20.996,-34.668,-21.484,-35.645,0.000
1737556565.900,3.906,-32.227,-29.785,-13.184,0.000
1737556565.904,14.160,-19.531,-39.062,14.160,0.000
1737556565.908,-8.301,-14.648,-30.762,-4.395,0.000
1737556565.912,-27.344,-23.926,-33.691,-30.273,0.000
1737556565.916,-11.719,-30.762,-40.039,-44.434,0.000
1737556565.920,14.160,-27.832,-35.156,-29.297,0.000
1737556565.924,12.207,-20.020,-26.855,-1.465,0.000
1737556565.928,-8.789,-19.043,-18.066,-9.277,0.000
1737556565.932,-17.578,-24.414,-18.555,-26.855,0.000
1737556565.936,-24.414,-24.902,-39.062,-18.555,0.000
1737556565.939,-7.812,-17.578,-45.410,0.977,0.000
1737556565.943,16.113,-16.113,-27.832,8.789,0.000
1737556565.947,-13.184,-23.438,-17.578,6.348,0.000
1737556565.951,-29.785,-30.273,-20.020,-18.555,0.000
1737556565.955,3.418,-23.438,-28.809,-19.531,0.000
1737556565.959,21.484,-20.508,-37.598,7.324,0.000
1737556565.963,11.719,-23.926,-30.273,14.648,0.000
1737556565.967,-25.391,-21.484,-23.926,19.043,0.000
1737556565.971,-47.363,-29.297,-48.340,-5.859,0.000
1737556565.975,-36.621,-39.062,-50.781,-27.832,0.000
1737556565.979,-6.348,-33.203,-17.578,-14.160,0.000
1737556565.982,-1.465,-29.785,0.000,0.977,0.000
1737556565.986,-20.020,-32.715,0.000,-1.465,0.000
1737556565.990,-23.926,-37.109,0.000,-22.949,0.000
1737556565.994,-27.344,-38.086,0.000,-28.320,0.000
1737556565.998,-7.324,-33.203,0.000,-7.324,0.000
1737556566.002,18.555,-30.273,0.000,21.484,0.000
1737556566.006,8.789,-23.438,0.000,26.855,0.000
1737556566.010,-24.414,-26.367,0.000,4.395,0.000
1737556566.014,-35.645,-35.645,0.000,-21.973,0.000
1737556566.018,-12.695,-34.180,0.000,-26.367,0.000
1737556566.021,5.859,-31.250,0.000,-5.371,0.000
1737556566.025,-3.418,-32.715,0.000,1.465,0.000
1737556566.029,-30.273,-36.621,-17.578,-18.555,0.000
1737556566.033,-48.828,-39.551,-32.715,-21.973,0.000
1737556566.037,-36.621,-30.762,-51.758,-4.395,0.000
1737556566.041,-10.254,-22.461,-52.734,9.766,0.000
1737556566.045,-8.301,-23.438,-41.504,12.695,0.000
1737556566.049,-22.461,-28.320,-29.785,-16.113,0.000
1737556566.053,-30.762,-33.203,-19.043,-44.922,0.000
1737556566.057,-20.020,-34.668,-18.555,-41.992,0.000
1737556566.061,4.395,-27.832,-26.855,-8.301,0.000
1737556566.064,-6.836,-24.902,-15.137,24.902,0.000
1737556566.068,-35.156,-28.809,-15.137,11.719,0.000
1737556566.072,-44.434,-33.691,-37.598,-14.648,0.000
1737556566.076,-33.691,-34.180,-42.969,-19.043,0.000
1737556566.080,-8.301,-29.297,-33.691,0.000,0.000
1737556566.084,1.465,-26.855,-40.527,28.809,0.000
1737556566.088,-26.855,-31.250,-49.316,24.414,0.000
1737556566.092,-56.152,-37.598,-25.391,-12.207,0.000
1737556566.096,-37.598,-32.715,-5.371,-35.645,0.000
1737556566.100,-5.859,-19.531,-16.602,-16.113,0.000
1737556566.104,-12.207,-20.508,-18.066,13.184,0.000
1737556566.107,-33.691,-24.902,-14.160,0.977,0.000
1737556566.111,-40.039,-24.902,-29.785,-12.207,0.000
1737556566.115,-39.062,-24.902,-46.875,1.953,0.000
1737556566.119,-33.203,-25.879,-47.363,8.789,0.000
1737556566.123,-22.461,-35.645,-26.367,0.488,0.000
1737556566.127,-36.621,-42.480,-17.578,-13.184,0.000
1737556566.131,-46.387,-41.504,-28.809,-33.203,0.000
1737556566.135,-40.039,-41.504,-32.227,-54.688,0.000
1737556566.139,-22.949,-34.668,-26.367,-33.203,0.000
1737556566.143,-0.977,-20.508,-22.461,4.883,0.000
1737556566.146,-6.348,-21.484,-28.320,4.883,0.000
1737556566.150,-38.574,-30.762,-35.156,-12.695,0.000
1737556566.154,-26.367,-29.297,-45.410,-18.066,0.000
1737556566.158,-7.812,-24.414,-41.016,-12.695,0.000
1737556566.162,-19.043,-22.461,-22.461,2.930,0.000
1737556566.166,-27.344,-24.902,-18.066,4.883,0.000
1737556566.170,-40.039,-29.297,-27.344,-18.066,0.000
1737556566.174,-49.316,-26.367,-30.273,-28.809,0.000
1737556566.178,-34.180,-21.973,-23.438,-24.414,0.000
1737556566.182,-13.672,-18.066,-20.996,-9.766,0.000
1737556566.186,-12.207,-17.090,-15.625,-3.906,0.000
1737556566.189,-28.809,-9.277,-7.812,-14.160,0.000
1737556566.193,-43.457,-12.695,31.250,-24.414,0.000
1737556566.197,-3.906,2.930,73.730,7.324,0.000
1737556566.201,6.836,6.836,54.688,20.996,0.000
1737556566.205,-36.621,1.465,69.824,-10.254,0.000
1737556566.209,-59.082,68.359,116.211,-42.480,0.000
1737556566.213,-53.223,44.434,62.500,-55.664,0.000
1737556566.217,-97.168,-15.137,16.113,-104.004,0.000
1737556566.221,-118.652,30.273,-36.133,-129.883,0.000
1737556566.225,-119.141,81.055,-34.668,-130.859,0.000
1737556566.229,-172.363,55.664,43.945,-189.453,0.000
1737556566.232,-213.379,-6.348,98.145,-248.047,0.000
1737556566.236,-210.938,-7.324,70.801,-274.414,0.000
1737556566.240,-201.660,24.414,37.109,-258.789,0.000
1737556566.244,-232.422,30.762,35.156,-270.508,0.000
1737556566.248,-248.047,56.641,65.430,-289.551,0.000
1737556566.252,-255.859,64.941,104.980,-310.059,0.000
1737556566.256,-254.883,84.473,112.305,-309.082,0.000
1737556566.260,-245.605,99.609,115.723,-287.109,0.000
1737556566.264,-239.258,94.238,143.066,-257.812,0.000
1737556566.268,-245.117,98.145,170.898,-251.465,0.000
1737556566.272,-277.832,96.191,190.430,-274.414,0.000
1737556566.275,-276.855,94.727,203.125,-275.391,0.000
1737556566.279,-239.746,90.820,206.543,-239.746,0.000
1737556566.283,-225.586,94.727,192.871,-183.105,0.000
1737556566.287,-220.703,95.703,180.664,-184.570,0.000
1737556566.291,-235.352,82.031,191.895,-215.332,0.000
1737556566.295,-250.488,62.012,205.078,-204.590,0.000
1737556566.299,-222.168,58.594,215.332,-175.781,0.000
1737556566.303,-183.105,57.617,212.891,-134.277,0.000
1737556566.307,-178.711,38.086,180.176,-109.863,0.000
1737556566.311,-182.129,20.020,132.324,-105.469,0.000
1737556566.314,-153.809,3.906,103.027,-92.773,0.000
1737556566.318,-122.070,-10.742,100.098,-69.336,0.000
1737556566.322,-111.328,-19.531,89.844,-45.898,0.000
1737556566.326,-104.004,-31.250,47.852,-20.996,0.000
1737556566.330,-105.469,-34.668,12.207,5.371,0.000
1737556566.334,-100.098,-41.992,-10.742,5.859,0.000
1737556566.338,-65.918,-55.176,-34.180,-6.836,0.000
1737556566.342,-32.227,-57.129,-52.246,19.531,0.000
1737556566.346,-27.832,-56.641,-50.781,50.293,0.000
1737556566.350,-45.410,-64.453,-59.570,53.711,0.000
1737556566.354,-47.852,-68.848,-89.844,28.320,0.000
1737556566.357,-20.996,-68.359,-92.285,36.621,0.000
1737556566.361,7.324,-69.824,-79.590,76.660,0.000
1737556566.365,10.254,-66.406,-91.797,87.402,0.000
1737556566.369,-7.812,-72.266,-110.840,69.336,0.000
1737556566.373,8.789,-79.102,-129.883,69.336,0.000
1737556566.377,44.434,-68.359,-187.012,118.164,0.000
1737556566.381,62.012,-61.035,-184.082,140.137,0.000
1737556566.385,61.523,-58.594,-110.352,127.441,0.000
1737556566.389,39.062,-63.965,-87.402,101.562,0.000
1737556566.393,1.465,-73.242,-98.145,61.035,0.000
1737556566.396,10.742,-74.707,-120.605,57.617,0.000
1737556566.400,41.504,-68.848,-131.836,77.637,0.000
1737556566.404,0.000,-55.176,0.000,121.582,0.000
1737556566.408,0.000,-53.711,0.000,126.465,0.000
1737556566.412,0.000,-63.477,0.000,84.961,0.000
1737556566.416,0.000,-68.848,0.000,70.312,0.000
1737556566.420,0.000,-61.523,0.000,82.520,0.000
1737556566.424,0.000,-47.363,0.000,99.121,0.000
1737556566.428,0.000,-47.852,0.000,93.750,0.000
1737556566.432,0.000,-55.176,0.000,73.242,0.000
1737556566.436,0.000,-54.688,0.000,81.055,0.000
1737556566.439,0.000,-51.270,0.000,104.004,0.000
1737556566.443,0.000,-45.898,0.000,125.977,0.000
1737556566.447,0.000,-49.316,0.000,106.445,0.000
1737556566.451,29.297,-53.223,-120.605,75.684,0.000
1737556566.455,33.691,-53.223,-113.281,74.219,0.000
1737556566.459,54.688,-45.898,-90.332,95.703,0.000
1737556566.463,73.242,-34.180,-93.750,120.605,0.000
1737556566.467,60.059,-38.574,-83.984,101.562,0.000
1737556566.471,49.316,-45.410,-64.453,72.754,0.000
1737556566.475,46.387,-49.805,-81.543,48.340,0.000
1737556566.479,41.504,-48.340,-92.773,52.246,0.000
1737556566.482,47.363,-36.621,-87.402,88.379,0.000
1737556566.486,40.039,-36.133,-85.938,97.656,0.000
1737556566.490,14.160,-44.434,-93.262,73.730,0.000
1737556566.494,12.207,-39.551,-70.312,37.598,0.000
1737556566.498,23.926,-36.133,-54.199,30.762,0.000
1737556566.502,37.598,-36.133,-55.664,58.594,0.000
1737556566.506,49.316,-37.598,-54.199,66.406,0.000
1737556566.510,43.945,-39.551,-85.938,55.176,0.000
1737556566.514,15.137,-37.598,-101.562,64.941,0.000
1737556566.518,6.836,-35.156,-76.660,68.359,0.000
1737556566.522,21.484,-39.062,-57.129,35.645,0.000
1737556566.525,9.277,-43.945,-47.852,29.297,0.000
1737556566.529,-1.465,-43.457,-49.805,23.438,0.000
1737556566.533,0.000,-35.645,-59.570,11.719,0.000
1737556566.537,9.766,-33.691,-67.383,25.879,0.000
1737556566.541,20.020,-34.668,-56.641,50.781,0.000
1737556566.545,23.438,-30.273,-46.875,66.406,0.000
1737556566.549,18.555,-30.273,-79.102,60.547,0.000
1737556566.553,1.953,-36.133,-81.055,36.133,0.000
1737556566.557,-1.953,-35.645,-39.062,27.832,0.000
1737556566.561,-6.348,-36.621,-32.715,41.504,0.000
1737556566.564,-13.184,-36.621,-52.246,56.641,0.000
1737556566.568,-7.812,-35.645,-55.176,58.594,0.000
1737556566.572,-4.883,-49.316,-56.152,55.664,0.000
1737556566.576,6.348,-47.852,-62.988,43.945,0.000
1737556566.580,19.043,-40.039,-46.387,36.133,0.000
1737556566.584,16.113,-49.316,-23.926,38.086,0.000
1737556566.588,-15.137,-47.363,-24.414,21.973,0.000
1737556566.592,-23.926,-41.016,-32.715,6.348,0.000
1737556566.596,1.953,-28.809,-39.062,15.625,0.000
1737556566.600,7.324,-15.137,-49.316,32.227,0.000
1737556566.604,9.277,-20.996,-45.410,40.527,0.000
1737556566.607,13.184,-36.133,-36.133,34.180,0.000
1737556566.611,-1.953,-39.551,-31.250,25.879,0.000
1737556566.615,-6.348,-36.133,-24.902,17.090,0.000
1737556566.619,3.418,-37.598,-34.668,11.719,0.000
1737556566.623,8.301,-41.016,-45.898,14.160,0.000
1737556566.627,0.488,-36.621,-40.039,2.441,0.000
1737556566.631,-8.301,-30.273,-32.227,-11.719,0.000
1737556566.635,0.977,-24.902,-35.645,-16.113,0.000
1737556566.639,0.000,-21.973,0.000,-2.441,0.000
1737556566.643,0.000,-16.113,0.000,31.250,0.000
1737556566.647,0.000,-13.672,0.000,39.062,0.000
1737556566.650,0.000,-27.344,0.000,4.883,0.000
1737556566.654,0.000,-37.598,0.000,-28.809,0.000
1737556566.658,0.000,-22.949,0.000,-9.277,0.000
1737556566.662,0.000,-18.555,0.000,12.695,0.000
1737556566.666,0.000,-25.879,0.000,6.348,0.000
1737556566.670,0.000,-29.297,0.000,-10.742,0.000
1737556566.674,0.000,-35.156,0.000,-25.879,0.000
1737556566.678,0.000,-30.273,0.000,-6.836,0.000
1737556566.682,0.000,-14.648,0.000,21.484,0.000
1737556566.686,16.113,-18.555,-41.504,0.000,0.000
1737556566.689,-16.602,-31.250,-51.270,0.000,0.000
1737556566.693,-25.391,-28.809,-52.246,0.000,0.000
1737556566.697,-26.367,-24.414,-36.621,0.000,0.000
1737556566.701,-10.742,-23.926,-30.762,0.000,0.000
1737556566.705,2.441,-22.949,-40.527,0.000,0.000
1737556566.709,-11.719,-20.508,-33.691,0.000,0.000
1737556566.713,-23.926,-32.227,-31.250,0.000,0.000
1737556566.717,-20.996,-34.180,-41.992,0.000,0.000
1737556566.721,-7.812,-23.438,-39.551,0.000,0.000
1737556566.725,-2.441,-24.902,-38.086,0.000,0.000
1737556566.729,-15.137,-31.738,-39.062,0.000,0.000
1737556566.732,-27.344,-35.645,-38.086,-21.484,0.000
1737556566.736,-20.020,-33.203,-39.062,-26.367,0.000
1737556566.740,-14.648,-25.879,-32.227,-0.488,0.000
1737556566.744,0.977,-17.578,-30.273,25.391,0.000
1737556566.748,8.789,-15.625,-33.691,15.137,0.000
1737556566.752,-23.926,-20.996,-29.785,-26.855,0.000
1737556566.756,-18.066,-24.414,-33.203,-33.691,0.000
1737556566.760,4.883,-29.785,-39.062,-8.301,0.000
1737556566.764,-1.953,-31.738,-28.809,3.906,0.000
1737556566.768,-26.367,-30.273,-46.875,10.742,0.000
1737556566.771,-25.391,-28.809,-60.059,25.391,0.000
1737556566.775,-32.715,-25.391,-39.062,-18.555,0.000
1737556566.779,-60.059,-25.391,-22.461,-66.406,0.000
1737556566.783,-57.617,-16.602,-8.301,-55.664,0.000
1737556566.787,-60.059,-13.184,-26.367,-54.199,0.000
1737556566.791,-88.867,-27.344,-36.133,-85.938,0.000
1737556566.795,-103.516,-39.062,-20.020,-106.445,0.000
1737556566.799,-88.867,-33.691,-24.902,-93.262,0.000
1737556566.803,-74.219,-37.109,-22.461,-72.266,0.000
1737556566.807,-85.938,-52.246,-8.789,-73.242,0.000
1737556566.811,-106.934,-47.363,-17.090,-101.074,0.000
1737556566.814,-106.934,-37.109,-28.809,-103.516,0.000
1737556566.818,-78.125,-35.156,-21.973,-73.242,0.000
1737556566.822,-31.250,-28.320,-24.902,-38.574,0.000
1737556566.826,-21.973,-24.414,-38.086,-18.066,0.000
1737556566.830,-41.016,-33.691,-23.926,-25.391,0.000
1737556566.834,-52.734,-43.945,-8.789,-41.016,0.000
1737556566.838,-42.969,-43.945,-15.625,-23.438,0.000
1737556566.842,-19.531,-34.668,-16.602,6.836,0.000
1737556566.846,-8.301,-26.367,-27.832,13.672,0.000
1737556566.850,-24.414,-32.715,-27.832,-5.371,0.000
1737556566.854,-31.250,-37.598,-20.020,-24.902,0.000
1737556566.857,-4.395,-30.762,-15.625,-4.395,0.000
1737556566.861,18.555,-20.020,-4.395,22.461,0.000
1737556566.865,-4.883,-26.367,-26.367,20.020,0.000
1737556566.869,-25.391,-37.109,-47.852,-4.395,0.000
1737556566.873,-31.250,-37.598,-29.297,-16.602,0.000
1737556566.877,-31.738,-34.668,-27.344,-8.789,0.000
1737556566.881,-9.766,-26.855,-37.598,10.254,0.000
1737556566.885,0.977,-26.855,-30.273,23.926,0.000
1737556566.889,-10.742,-29.785,-29.785,21.484,0.000
1737556566.893,-24.902,-27.344,-31.250,-1.953,0.000
1737556566.897,-22.949,-30.762,-20.020,-17.090,0.000
1737556566.900,-5.859,-27.832,-12.695,10.742,0.000
1737556566.904,7.324,-18.555,-11.230,33.203,0.000
1737556566.908,10.742,-23.438,-26.367,0.488,0.000
1737556566.912,-15.625,-28.809,-37.109,-20.996,0.000
1737556566.916,-41.504,-28.809,-31.738,-14.648,0.000
1737556566.920,-15.625,-22.949,-29.297,-7.812,0.000
1737556566.924,-0.488,-19.043,-34.180,3.418,0.000
1737556566.928,-14.648,-19.043,-39.062,8.301,0.000
1737556566.932,-36.133,-26.367,-38.086,-13.184,0.000
1737556566.936,-40.527,-35.156,-26.855,-24.902,0.000
1737556566.939,-12.695,-27.832,-19.043,-11.230,0.000
1737556566.943,-10.254,-23.438,-22.461,-2.441,0.000
1737556566.947,-34.180,-23.438,-25.391,-15.625,0.000
1737556566.951,-28.809,-22.949,-23.926,-27.344,0.000
1737556566.955,-13.184,-32.715,-27.832,-28.809,0.000
1737556566.959,-4.395,-28.320,-46.875,-23.926,0.000
1737556566.963,-0.977,-12.695,-44.922,-5.371,0.000
1737556566.967,-20.996,-12.695,-23.438,-13.184,0.000
1737556566.971,-39.062,-20.996,-23.438,-31.738,0.000
1737556566.975,-21.973,-18.066,-24.414,-28.809,0.000
1737556566.979,-0.977,-5.371,-19.531,-12.695,0.000
1737556566.982,14.648,-3.906,-28.320,3.418,0.000
1737556566.986,4.883,-12.207,-33.691,6.348,0.000
1737556566.990,-29.297,-21.973,-32.715,-28.320,0.000
1737556566.994,-32.715,-31.738,-34.180,-58.105,0.000
1737556566.998,-5.371,-30.273,-33.203,-34.668,0.000
1737556567.002,3.418,-23.438,-30.762,-5.859,0.000
1737556567.006,-16.602,-17.578,-31.738,0.000,0.000
1737556567.010,-27.344,-9.766,-30.762,-17.578,0.000
1737556567.014,-31.250,-11.230,-30.762,-39.551,0.000
1737556567.018,-19.531,-7.324,-21.484,-40.527,0.000
1737556567.022,14.160,-4.883,-13.184,-15.625,0.000
1737556567.025,-4.883,-15.137,-31.250,-0.488,0.000
1737556567.029,-55.176,-21.973,-36.133,-29.297,0.000
1737556567.033,-45.898,-20.020,-27.344,-47.852,0.000
1737556567.037,-20.020,-22.949,-26.855,-39.062,0.000
1737556567.041,-5.371,-24.414,-25.391,-25.879,0.000
1737556567.045,-13.672,-22.949,-26.367,-22.949,0.000
1737556567.049,-29.785,-26.367,-39.062,-27.832,0.000
1737556567.053,-31.738,-24.902,-40.039,-43.945,0.000
1737556567.057,-44.434,-21.484,-32.227,-56.641,0.000
1737556567.061,-34.180,-20.020,-32.715,-32.715,0.000
1737556567.064,-32.715,-26.367,-26.367,-16.113,0.000
1737556567.068,-56.152,-30.273,-20.020,-29.297,0.000
1737556567.072,-48.828,-33.691,-25.391,-52.734,0.000
1737556567.076,-33.691,-41.016,-26.855,-64.941,0.000
1737556567.080,-7.812,-28.320,-14.648,-34.668,0.000
1737556567.084,9.277,-16.602,-7.812,-0.977,0.000
1737556567.088,-21.484,-27.832,-27.832,-16.602,0.000
1737556567.092,-43.945,-35.156,-48.340,-32.715,0.000
1737556567.096,-16.602,-26.367,-34.668,-31.250,0.000
1737556567.100,-17.578,-23.926,-10.742,-20.020,0.000
1737556567.104,-30.762,-27.344,-11.719,-7.324,0.000
1737556567.107,0.000,-26.855,-20.996,0.000,0.000
1737556567.111,0.000,-23.438,-22.949,0.000,0.000
1737556567.115,0.000,-19.043,-21.484,0.000,0.000
1737556567.119,0.000,-19.043,-18.066,0.000,0.000
1737556567.123,0.000,-15.625,-22.461,0.000,0.000
1737556567.127,0.000,-6.836,-30.762,0.000,0.000
1737556567.131,0.000,-12.695,-50.293,0.000,0.000
1737556567.135,0.000,-22.461,-52.246,0.000,0.000
1737556567.139,0.000,-31.738,-24.414,0.000,0.000
1737556567.143,0.000,-27.344,-3.906,0.000,0.000
1737556567.146,0.000,-16.602,-12.207,0.000,0.000
1737556567.150,0.000,-17.090,-32.227,0.000,0.000
1737556567.154,-41.016,-22.461,-29.297,-41.504,0.000
1737556567.158,-19.043,-24.902,-27.832,-34.668,0.000
1737556567.162,-16.602,-24.902,-37.109,-20.020,0.000
1737556567.166,-33.203,-26.367,-33.203,-16.113,0.000
1737556567.170,-49.316,-21.484,-30.273,-24.902,0.000
1737556567.174,-35.645,-19.043,-22.461,-37.109,0.000
1737556567.178,-22.461,-21.973,-15.137,-33.203,0.000
1737556567.182,-19.043,-21.973,-17.090,-18.066,0.000
1737556567.186,-13.184,-14.648,-22.461,-8.789,0.000
1737556567.189,-48.828,-19.531,-31.738,-33.691,0.000
1737556567.193,-46.387,-27.832,-25.391,-59.082,0.000
1737556567.197,-17.578,-24.414,-17.090,-28.809,0.000
1737556567.201,3.418,-18.555,-13.672,18.555,0.000
1737556567.205,-3.906,-13.672,-15.625,12.695,0.000
1737556567.209,-26.367,-11.230,-20.508,-17.578,0.000
1737556567.213,-16.602,-14.160,-20.996,-38.574,0.000
1737556567.217,3.906,-13.184,-29.297,-21.484,0.000
1737556567.221,37.109,-13.672,-30.762,13.672,0.000
1737556567.225,40.039,-27.344,-32.715,33.691,0.000
1737556567.229,16.113,-32.227,-42.969,26.855,0.000
1737556567.232,16.602,-28.320,-53.711,15.137,0.000
1737556567.236,41.016,-22.949,-53.223,25.879,0.000
1737556567.240,60.547,-15.137,-40.039,45.410,0.000
1737556567.244,57.617,-18.555,-31.738,55.664,0.000
1737556567.248,40.527,-19.531,-29.785,53.711,0.000
1737556567.252,15.625,-22.461,-38.574,28.320,0.000
1737556567.256,24.902,-24.902,-44.434,9.766,0.000
1737556567.260,55.176,-20.020,-54.199,24.414,0.000
1737556567.264,48.340,-20.508,-59.082,48.340,0.000
1737556567.268,17.090,-27.832,-42.480,28.809,0.000
1737556567.272,-2.930,-37.598,-33.203,-14.160,0.000
1737556567.275,-5.371,-30.762,-20.508,-19.043,0.000
1737556567.279,20.020,-11.230,-5.371,8.301,0.000
1737556567.283,35.156,-6.348,-11.719,31.250,0.000
1737556567.287,18.555,-14.648,-18.066,26.367,0.000
1737556567.291,-5.371,-23.926,-16.113,5.859,0.000
1737556567.295,-9.277,-22.949,-21.484,-7.812,0.000
1737556567.299,13.184,-19.531,-37.109,2.441,0.000
1737556567.303,19.531,-20.996,-37.109,22.949,0.000
1737556567.307,6.348,-14.648,-29.297,27.832,0.000
1737556567.311,-0.488,-11.719,-30.762,5.859,0.000
1737556567.314,10.742,-10.254,-33.203,-8.789,0.000
1737556567.318,21.973,-8.301,-29.297,3.906,0.000
1737556567.322,18.066,-9.766,-27.832,21.973,0.000
1737556567.326,11.230,-7.812,-25.879,23.926,0.000
1737556567.330,1.953,-6.348,-25.879,12.207,0.000
1737556567.334,-14.160,-17.090,-43.945,-4.395,0.000
1737556567.338,1.953,-22.949,-41.992,-5.371,0.000
1737556567.342,22.461,-23.926,-26.367,8.789,0.000
1737556567.346,14.160,-25.391,-27.344,18.555,0.000
1737556567.350,-3.418,-20.508,-24.414,17.090,0.000
1737556567.354,-19.531,-23.926,-19.043,2.441,0.000
1737556567.357,-0.488,-19.043,-18.555,6.836,0.000
1737556567.361,20.020,-9.766,-23.438,14.160,0.000
1737556567.365,-4.883,-12.207,-35.156,12.207,0.000
1737556567.369,-32.227,-17.578,-35.156,-4.395,0.000
1737556567.373,-22.461,-19.043,-18.066,-26.367,0.000
1737556567.377,-9.766,-20.996,-20.508,-19.043,0.000
1737556567.381,-6.348,-22.949,-28.809,4.883,0.000
1737556567.385,0.000,-20.508,-28.320,22.949,0.000
1737556567.389,-16.113,-20.508,-35.645,6.348,0.000
1737556567.393,-19.043,-16.602,-19.531,-6.836,0.000
1737556567.397,-1.953,-20.508,-15.137,-2.930,0.000
1737556567.400,15.625,-25.879,-26.855,2.441,0.000
1737556567.404,14.160,-21.973,-27.344,18.066,0.000
1737556567.408,-22.949,-22.461,-25.391,6.836,0.000
1737556567.412,-22.949,-28.320,-31.250,-28.809,0.000
1737556567.416,-16.602,-31.738,-32.227,-46.387,0.000
1737556567.420,-16.113,-25.879,-19.531,-24.902,0.000
1737556567.424,2.930,-18.555,-8.789,-2.930,0.000
1737556567.428,-17.090,-20.020,-15.625,-21.484,0.000
1737556567.432,-36.621,-18.066,-28.809,-44.922,0.000
1737556567.436,-26.367,-18.066,-34.668,-50.293,0.000
1737556567.439,-0.977,-17.090,-34.668,-25.391,0.000
1737556567.443,28.809,-13.184,-31.250,-2.930,0.000
1737556567.447,14.648,-18.066,-25.391,-4.883,0.000
1737556567.451,-29.297,-19.043,-33.203,-11.719,0.000
1737556567.455,-21.484,-11.719,-49.805,-18.555,0.000
1737556567.459,-0.488,-16.113,-46.875,-23.438,0.000
1737556567.463,-2.930,-23.438,-35.645,-17.578,0.000
1737556567.467,-15.625,-20.996,-42.969,-15.625,0.000
1737556567.471,-23.926,-21.484,-27.832,-31.250,0.000
1737556567.475,-14.648,-24.414,-3.906,-45.410,0.000
1737556567.479,-0.977,-19.043,-6.836,-30.273,0.000
1737556567.482,0.000,-6.836,0.000,5.371,0.000
1737556567.486,0.000,-2.930,0.000,16.113,0.000
1737556567.490,0.000,-12.695,0.000,0.977,0.000
1737556567.494,0.000,-20.020,0.000,-19.531,0.000
1737556567.498,0.000,-25.391,0.000,-30.273,0.000
1737556567.502,0.000,-24.902,0.000,-24.414,0.000
1737556567.506,0.000,-12.207,0.000,-0.977,0.000
1737556567.510,0.000,-14.648,0.000,-9.766,0.000
1737556567.514,0.000,-14.160,0.000,-19.043,0.000
1737556567.518,0.000,18.066,0.000,4.395,0.000
1737556567.522,0.000,14.160,0.000,1.953,0.000
1737556567.525,0.000,-0.488,0.000,7.324,0.000
1737556567.529,-74.219,-10.742,50.781,-66.406,0.000
1737556567.533,-125.488,-8.301,96.680,-134.277,0.000
1737556567.537,-48.340,118.164,89.844,-72.266,0.000
1737556567.541,-40.039,207.520,-27.832,-69.336,0.000
1737556567.545,-160.156,11.230,-22.461,-183.105,0.000
1737556567.549,-216.797,-88.867,70.312,-257.324,0.000
1737556567.553,-200.195,24.414,146.973,-281.250,0.000
1737556567.557,-223.633,47.852,54.688,-315.918,0.000
1737556567.561,-184.570,63.477,-26.367,-284.668,0.000
1737556567.564,-208.008,133.789,41.992,-301.758,0.000
1737556567.568,-248.047,229.004,155.762,-329.590,0.000
1737556567.572,-197.266,158.203,105.469,-302.734,0.000
1737556567.576,-174.805,77.148,62.500,-310.547,0.000
1737556567.580,-192.871,133.301,133.301,-333.496,0.000
1737556567.584,-193.848,211.426,189.453,-322.754,0.000
1737556567.588,-189.941,288.574,239.258,-319.336,0.000
1737556567.592,-211.914,302.734,245.605,-359.863,0.000
1737556567.596,-189.453,376.953,250.000,-333.496,0.000
1737556567.600,-169.434,429.199,255.371,-299.316,0.000
1737556567.604,-177.246,432.129,275.879,-285.156,0.000
1737556567.607,-187.500,457.520,311.523,-265.625,0.000
1737556567.611,-228.516,467.773,326.172,-258.301,0.000
1737556567.615,-252.441,468.262,336.426,-240.234,0.000
1737556567.619,-218.750,476.562,338.379,-191.406,0.000
1737556567.623,-203.613,485.352,331.543,-152.344,0.000
1737556567.627,-225.586,476.562,324.219,-140.137,0.000
1737556567.631,-253.418,452.637,327.637,-169.434,0.000
1737556567.635,-265.625,436.035,335.449,-185.059,0.000
1737556567.639,-255.859,422.852,345.703,-152.832,0.000
1737556567.643,-229.980,433.105,354.980,-104.004,0.000
1737556567.647,-241.699,455.566,345.215,-100.098,0.000
1737556567.650,-263.184,463.867,351.074,-115.234,0.000
1737556567.654,-240.234,474.121,349.121,-90.332,0.000
1737556567.658,-196.777,478.027,319.824,-51.758,0.000
1737556567.662,-174.805,461.426,291.016,-29.785,0.000
1737556567.666,-177.246,419.434,278.809,-14.648,0.000
1737556567.670,-176.758,358.398,255.859,-11.230,0.000
1737556567.674,-147.461,323.730,219.727,10.254,0.000
1737556567.678,-114.258,295.410,186.523,42.480,0.000
1737556567.682,-101.562,260.742,130.859,59.570,0.000
1737556567.686,-72.754,229.492,94.238,77.148,0.000
1737556567.689,-79.590,184.082,67.383,75.684,0.000
1737556567.693,-105.957,148.926,30.273,77.148,0.000
1737556567.697,-73.730,128.418,-9.766,93.262,0.000
1737556567.701,-21.484,104.492,-39.062,114.258,0.000
1737556567.705,-4.395,83.984,-70.312,146.484,0.000
1737556567.709,-12.695,61.523,-109.863,138.672,0.000
1737556567.713,-8.301,41.504,-114.746,109.863,0.000
1737556567.717,13.184,29.785,-123.535,119.629,0.000
1737556567.721,26.367,22.949,-145.508,144.531,0.000
1737556567.725,40.527,5.859,-135.742,146.973,0.000
1737556567.729,13.672,-14.160,-135.254,135.254,0.000
1737556567.732,-9.766,-23.926,-147.949,120.117,0.000
1737556567.736,6.836,-32.715,-142.578,107.422,0.000
1737556567.740,25.391,-32.715,-134.766,135.742,0.000
1737556567.744,44.922,-31.250,-162.109,166.504,0.000
1737556567.748,32.715,-36.621,-176.758,147.949,0.000
1737556567.752,21.973,-43.457,-155.762,111.328,0.000
1737556567.756,46.387,-43.945,-144.531,106.445,0.000
1737556567.760,63.965,-43.945,-164.062,130.859,0.000
1737556567.764,69.824,-48.828,-187.012,0.000,0.000
1737556567.768,59.570,-49.805,-181.641,0.000,0.000
1737556567.772,40.039,-55.664,-184.570,0.000,0.000
1737556567.775,48.828,-59.570,-192.383,0.000,0.000
1737556567.779,56.152,-63.965,-183.105,0.000,0.000
1737556567.783,59.082,-64.941,-150.879,0.000,0.000
1737556567.787,41.992,-66.406,-126.465,0.000,0.000
1737556567.791,32.715,-70.312,-143.066,0.000,0.000
1737556567.795,48.828,-62.988,-152.832,0.000,0.000
1737556567.799,66.406,-62.012,-160.156,0.000,0.000
1737556567.803,71.777,-75.195,-154.297,0.000,0.000
1737556567.807,49.316,-74.707,-151.855,0.000,0.000
1737556567.811,35.156,-67.871,-154.297,60.547,0.000
1737556567.814,54.199,-70.801,-143.555,50.781,0.000
1737556567.818,58.105,-68.359,-148.926,76.172,0.000
1737556567.822,74.219,-60.547,-153.809,103.027,0.000
1737556567.826,73.730,-63.477,-140.137,103.027,0.000
1737556567.830,40.039,-66.895,-128.906,67.871,0.000
1737556567.834,27.832,-66.406,-121.094,37.109,0.000
1737556567.838,48.828,-60.547,-119.629,45.898,0.000
1737556567.842,61.523,-52.246,-126.465,81.543,0.000
1737556567.846,50.293,-58.594,-131.348,99.121,0.000
1737556567.850,39.551,-62.500,-126.465,76.172,0.000
1737556567.854,35.156,-57.129,-121.094,48.340,0.000
1737556567.857,36.133,-61.035,-113.281,51.270,0.000
1737556567.861,44.434,-63.965,-107.910,69.824,0.000
1737556567.865,40.527,-60.547,-94.238,69.336,0.000
1737556567.869,19.043,-60.547,-79.590,50.293,0.000
1737556567.873,21.484,-57.617,-84.473,42.480,0.000
1737556567.877,36.621,-50.781,-93.750,53.711,0.000
1737556567.881,46.387,-51.758,-98.145,77.637,0.000
1737556567.885,51.270,-58.105,-112.793,96.680,0.000
1737556567.889,21.973,-62.988,-106.445,58.594,0.000
1737556567.893,2.441,-62.012,-78.125,27.344,0.000
1737556567.897,23.438,-59.082,-70.312,33.203,0.000
1737556567.900,34.668,-62.012,-78.125,36.133,0.000
1737556567.904,32.715,-60.547,-72.266,63.477,0.000
1737556567.908,18.066,-60.547,-75.195,61.523,0.000
1737556567.912,9.277,-56.641,-96.680,39.551,0.000
1737556567.916,37.598,-52.734,-99.609,50.781,0.000
1737556567.920,37.598,-52.734,-93.262,59.570,0.000
1737556567.924,25.879,-51.758,-90.820,78.125,0.000
1737556567.928,22.949,-62.012,-67.383,57.129,0.000
1737556567.932,-1.465,-70.312,-53.711,12.695,0.000
1737556567.936,-5.859,-68.359,-60.059,10.254,0.000
1737556567.939,36.621,-59.082,-70.312,36.621,0.000
1737556567.943,55.176,-51.758,-84.473,69.824,0.000
1737556567.947,40.039,-47.852,-72.754,67.871,0.000
1737556567.951,9.766,-57.129,-64.941,28.320,0.000
1737556567.955,4.883,-58.105,-70.312,12.695,0.000
1737556567.959,24.414,-51.758,-62.500,14.160,0.000
1737556567.963,24.902,-55.176,-44.434,14.160,0.000
1737556567.967,12.207,-54.199,-44.922,9.277,0.000
1737556567.971,11.230,-48.828,-52.734,7.324,0.000
1737556567.975,11.230,-47.363,-62.500,-3.906,0.000
1737556567.979,12.695,-48.828,-66.895,0.488,0.000
1737556567.982,30.273,-38.574,-55.664,33.203,0.000
1737556567.986,17.578,-41.016,-68.359,23.438,0.000
1737556567.990,1.465,-48.340,-71.777,11.230,0.000
1737556567.994,-3.906,-45.410,-67.383,0.977,0.000
1737556567.998,4.883,-44.922,-62.988,-11.719,0.000
1737556568.002,32.227,-41.016,-44.434,6.836,0.000
1737556568.006,4.883,-33.691,-37.109,26.367,0.000
1737556568.010,-35.645,-44.434,-41.016,-2.441,0.000
1737556568.014,-18.555,-55.176,-41.016,-31.250,0.000
1737556568.018,13.672,-40.039,-38.086,-15.625,0.000
1737556568.022,20.996,-25.391,-41.504,12.207,0.000
1737556568.025,17.578,-27.832,-63.965,26.855,0.000
1737556568.029,5.859,-35.156,-78.125,14.160,0.000
1737556568.033,-10.254,-43.457,-77.148,-7.324,0.000
1737556568.037,-3.418,-44.922,-70.312,-17.578,0.000
1737556568.041,28.809,-37.598,-45.410,-0.977,0.000
1737556568.045,18.555,-33.691,-21.973,10.742,0.000
1737556568.049,-23.926,-44.922,-20.996,-17.578,0.000
1737556568.053,-30.273,-48.340,-24.902,-39.551,0.000
1737556568.057,-20.996,-40.039,-47.852,-24.902,0.000
1737556568.061,0.977,-38.574,-57.129,-6.348,0.000
1737556568.064,21.484,-36.133,-39.062,0.000,0.000
1737556568.068,2.441,-34.180,-37.598,-15.625,0.000
1737556568.072,-19.043,-42.969,-52.734,-36.621,0.000
1737556568.076,-6.348,-45.898,-49.805,-35.645,0.000
1737556568.080,24.414,-42.969,-39.551,-16.113,0.000
1737556568.084,28.320,-39.062,-41.992,9.766,0.000
1737556568.088,8.301,-38.574,-32.227,-0.488,0.000
1737556568.092,-3.418,-45.898,-26.855,-34.180,0.000
1737556568.096,0.488,-47.363,-34.180,-39.551,0.000
1737556568.100,2.441,-39.062,-29.785,-25.879,0.000
1737556568.104,5.859,-32.715,-26.855,-12.695,0.000
1737556568.107,3.906,-32.715,-30.762,-12.695,0.000
1737556568.111,-9.766,-31.738,-21.973,-25.391,0.000
1737556568.115,-9.277,-37.109,-24.902,-34.180,0.000
1737556568.119,9.277,-40.039,-39.551,-15.625,0.000
1737556568.123,20.996,-30.273,-45.410,12.695,0.000
1737556568.127,3.906,-33.691,-44.922,9.277,0.000
1737556568.131,3.418,-40.039,-35.156,-14.160,0.000
1737556568.135,1.465,-39.062,-30.762,-30.273,0.000
1737556568.139,-4.395,-40.039,-37.598,-41.992,0.000
1737556568.143,19.043,-37.598,-46.387,-31.738,0.000
1737556568.147,13.672,-31.250,-35.645,-15.137,0.000
1737556568.150,-4.395,-31.738,-34.180,-29.785,0.000
1737556568.154,-13.672,-40.039,-41.992,-45.898,0.000
1737556568.158,-6.836,-40.527,-36.133,-38.574,0.000
1737556568.162,10.742,-39.062,-34.180,-20.996,0.000
1737556568.166,4.883,-46.875,-37.109,-11.719,0.000
1737556568.170,-6.836,-49.316,-42.969,-24.414,0.000
1737556568.174,-9.277,-40.527,-40.039,-29.297,0.000
1737556568.178,11.719,-31.738,-26.367,-22.949,0.000
1737556568.182,14.160,-26.367,-35.156,-2.441,0.000
1737556568.186,0.488,-29.297,-52.734,6.348,0.000
1737556568.190,-3.906,-32.715,-45.410,-25.391,0.000
1737556568.193,-1.953,-34.668,-26.367,-49.316,0.000
1737556568.197,2.930,-30.762,-19.043,-32.227,0.000
1737556568.201,29.297,-20.996,-24.902,-6.836,0.000
1737556568.205,26.367,-15.137,-25.879,8.789,0.000
1737556568.209,-19.043,-23.926,-25.391,-5.371,0.000
1737556568.213,-19.043,-30.762,-26.367,-34.668,0.000
1737556568.217,-5.371,-33.691,-21.973,-37.109,0.000
1737556568.221,11.230,-29.297,-24.414,-15.625,0.000
1737556568.225,19.531,-27.344,-30.273,2.441,0.000
1737556568.229,-4.883,-37.598,-25.879,-26.367,0.000
1737556568.232,0.000,-40.527,0.000,0.000,0.000
1737556568.236,0.000,-34.668,0.000,0.000,0.000
1737556568.240,0.000,-28.320,0.000,0.000,0.000
1737556568.244,0.000,-24.414,0.000,0.000,0.000
1737556568.248,0.000,-22.461,0.000,0.000,0.000
1737556568.252,0.000,-20.996,0.000,0.000,0.000
1737556568.256,0.000,-19.531,0.000,0.000,0.000
1737556568.260,0.000,-20.508,0.000,0.000,0.000
1737556568.264,0.000,-20.020,0.000,0.000,0.000
1737556568.268,0.000,-20.996,0.000,0.000,0.000
1737556568.272,0.000,-26.855,0.000,0.000,0.000
1737556568.275,0.000,-34.668,0.000,0.000,0.000
1737556568.279,-2.930,-32.227,-37.109,-30.273,0.000
1737556568.283,7.324,-24.414,-21.484,-9.277,0.000
1737556568.287,-3.906,-25.879,-29.297,-13.184,0.000
1737556568.291,-17.090,-30.273,-51.270,-37.598,0.000
1737556568.295,-6.348,-25.879,-46.387,-36.621,0.000
1737556568.299,1.953,-24.902,-27.344,-19.043,0.000
1737556568.303,13.672,-27.832,-23.926,2.441,0.000
1737556568.307,6.836,-30.273,-28.809,2.930,0.000
1737556568.311,-13.184,-34.668,-31.738,-23.926,0.000
1737556568.315,-10.254,-34.668,-36.621,-40.039,0.000
1737556568.318,-2.930,-31.738,-29.785,-30.273,0.000
1737556568.322,6.836,-29.785,-34.668,7.324,0.000
1737556568.326,5.859,-20.508,-45.410,13.184,0.000
1737556568.330,-6.348,-17.090,-27.832,-28.809,0.000
1737556568.334,-34.668,-24.902,-23.438,-50.293,0.000
1737556568.338,-26.855,-21.973,-46.387,-26.855,0.000
1737556568.342,-6.348,-30.273,-36.621,-4.395,0.000
1737556568.346,0.488,-31.738,-6.836,0.000,0.000
1737556568.350,-3.418,-20.996,-3.418,-18.555,0.000
1737556568.354,-15.137,-29.785,-18.555,-41.992,0.000
1737556568.357,-13.672,-36.621,-22.949,-34.180,0.000
1737556568.361,-3.906,-29.297,-28.809,-6.348,0.000
1737556568.365,5.859,-28.320,-44.922,2.930,0.000
1737556568.369,-14.648,-34.668,-34.180,-27.344,0.000
1737556568.373,-37.109,-34.668,-12.207,-48.828,0.000
1737556568.377,-21.484,-29.785,-7.324,-46.387,0.000
1737556568.381,3.418,-27.344,-20.020,-29.297,0.000
1737556568.385,0.488,-26.367,-31.250,-17.578,0.000
1737556568.389,-29.785,-29.297,-35.645,-19.043,0.000
1737556568.393,-36.133,-28.320,-45.410,-16.113,0.000
1737556568.397,-19.043,-25.391,-48.340,-25.391,0.000
1737556568.400,-20.996,-33.203,-42.480,-35.645,0.000
1737556568.404,-13.672,-34.180,-20.020,-27.344,0.000
1737556568.408,-14.648,-29.785,-1.465,-31.738,0.000
1737556568.412,-27.832,-28.809,-13.672,-44.922,0.000
1737556568.416,-28.809,-30.273,-22.461,-47.852,0.000
1737556568.420,0.000,-25.879,-10.742,-33.203,0.000
1737556568.424,22.461,-22.461,-11.230,-3.906,0.000
1737556568.428,-17.578,-29.785,-22.461,3.418,0.000
1737556568.432,-50.781,-39.551,-29.297,-19.531,0.000
1737556568.436,-46.387,-33.203,-24.902,-35.645,0.000
1737556568.440,-19.531,-26.855,-23.438,-19.531,0.000
1737556568.443,5.859,-27.344,-33.691,3.418,0.000
1737556568.447,-7.812,-27.832,-35.645,-10.254,0.000
1737556568.451,-23.926,-33.691,-29.297,-37.109,0.000
1737556568.455,-15.137,-29.297,-23.926,-36.621,0.000
1737556568.459,-0.488,-21.973,-30.273,-11.230,0.000
1737556568.463,20.996,-17.578,-32.227,11.719,0.000
1737556568.467,-1.465,-22.949,-16.113,-0.977,0.000
1737556568.471,-34.668,-33.691,-14.648,-27.832,0.000
1737556568.475,-29.297,-30.273,-23.926,-34.668,0.000
1737556568.479,-25.391,-28.809,-27.344,-22.949,0.000
1737556568.482,-12.207,-26.367,-28.809,6.836,0.000
1737556568.486,18.066,-20.508,-34.668,29.297,0.000
1737556568.490,-5.859,-28.809,-37.109,-3.906,0.000
1737556568.494,-44.434,-41.016,-29.785,-48.340,0.000
1737556568.498,-33.203,-39.062,-19.043,-44.922,0.000
1737556568.502,-18.555,-24.902,-15.625,-21.973,0.000
1737556568.506,-29.297,-21.973,-18.066,-12.695,0.000
1737556568.510,-40.039,-26.855,-20.020,-24.414,0.000
1737556568.514,-43.945,-27.832,-27.832,-40.039,0.000
1737556568.518,-28.320,-26.855,-33.203,-28.320,0.000
1737556568.522,4.883,-21.973,-22.949,13.672,0.000
1737556568.525,-6.348,-18.066,-10.254,13.672,0.000
1737556568.529,-45.898,-29.297,-17.090,-36.133,0.000
1737556568.533,-59.082,-37.109,-27.832,-58.594,0.000
1737556568.537,-34.668,-41.016,-21.973,-43.457,0.000
1737556568.541,-25.879,-39.062,-16.602,-27.832,0.000
1737556568.545,-36.621,-38.574,-13.184,-6.348,0.000
1737556568.549,-41.992,-45.410,-7.812,0.977,0.000
1737556568.553,-55.664,-51.758,-20.020,-32.715,0.000
1737556568.557,-38.086,-50.781,-30.273,-51.758,0.000
1737556568.561,0.000,-48.828,0.000,-29.297,0.000
1737556568.565,0.000,-48.340,0.000,-16.602,0.000
1737556568.568,0.000,-44.922,0.000,-34.180,0.000
1737556568.572,0.000,-49.316,0.000,-50.781,0.000
1737556568.576,0.000,-47.852,0.000,-45.410,0.000
1737556568.580,0.000,-38.574,0.000,-13.672,0.000
1737556568.584,0.000,-39.551,0.000,14.648,0.000
1737556568.588,0.000,-47.363,0.000,-8.789,0.000
1737556568.592,0.000,-47.363,0.000,-52.246,0.000
1737556568.596,0.000,-44.922,0.000,-52.734,0.000
1737556568.600,0.000,-42.480,0.000,-24.902,0.000
1737556568.604,0.000,-41.016,0.000,1.465,0.000
1737556568.608,-36.621,-42.969,-28.320,-0.488,0.000
1737556568.611,-41.016,-45.410,-24.902,-37.109,0.000
1737556568.615,-30.762,-41.016,-32.715,-59.570,0.000
1737556568.619,-6.836,-35.645,-37.109,-37.109,0.000
1737556568.623,-11.230,-32.227,-26.855,-10.742,0.000
1737556568.627,-29.785,-26.367,-18.555,-11.719,0.000
1737556568.631,-22.949,-30.273,-28.809,-38.574,0.000
1737556568.635,-29.785,-38.086,-22.949,-50.293,0.000
1737556568.639,-29.297,-37.598,-10.742,-34.180,0.000
1737556568.643,-10.742,-30.273,-12.207,-16.113,0.000
1737556568.647,-26.855,-36.133,-14.160,-10.254,0.000
1737556568.650,-54.199,-42.969,-21.484,-17.090,0.000
1737556568.654,-48.340,-38.574,-32.715,-20.508,0.000
1737556568.658,-13.672,-29.785,-33.691,-23.438,0.000
1737556568.662,0.977,-23.438,-24.902,-16.113,0.000
1737556568.666,-14.160,-27.344,-14.160,-18.066,0.000
1737556568.670,-34.180,-33.203,-21.973,-49.805,0.000
1737556568.674,-43.945,-34.180,-40.039,-63.477,0.000
1737556568.678,-33.691,-33.203,-31.250,-52.734,0.000
1737556568.682,-22.461,-28.809,-21.973,-25.879,0.000
1737556568.686,-13.184,-22.461,-33.691,-9.277,0.000
1737556568.690,-26.367,-20.508,-33.691,-18.555,0.000
1737556568.693,-44.434,-24.902,-41.016,-26.367,0.000
1737556568.697,-28.809,-29.785,-45.898,-19.531,0.000
1737556568.701,-4.883,-30.273,-20.508,-12.695,0.000
1737556568.705,-1.953,-25.879,-6.348,-14.648,0.000
1737556568.709,-29.297,-27.344,-20.996,-26.367,0.000
1737556568.713,-42.480,-32.715,-35.645,-43.457,0.000
1737556568.717,-25.391,-28.320,-29.785,-38.574,0.000
1737556568.721,-8.789,-23.438,-20.020,-22.949,0.000
1737556568.725,-11.719,-28.809,-15.137,-10.254,0.000
1737556568.729,-36.621,-32.227,-17.090,-18.066,0.000
1737556568.732,-39.062,-31.250,-31.738,-37.109,0.000
1737556568.736,-24.414,-30.762,-39.062,-37.598,0.000
1737556568.740,-9.766,-26.855,-31.250,-8.789,0.000
1737556568.744,5.371,-24.902,-29.785,15.137,0.000
1737556568.748,0.000,-24.414,0.000,-0.977,0.000
1737556568.752,0.000,-31.250,0.000,-27.832,0.000
1737556568.756,0.000,-31.250,0.000,-23.926,0.000
1737556568.760,0.000,-28.320,0.000,-10.742,0.000
1737556568.764,0.000,-30.762,0.000,-16.602,0.000
1737556568.768,0.000,-29.785,0.000,-19.531,0.000
1737556568.772,0.000,-31.250,0.000,-35.645,0.000
1737556568.775,0.000,-34.668,0.000,-45.898,0.000
1737556568.779,0.000,-31.738,0.000,-29.297,0.000
1737556568.783,0.000,-26.367,0.000,-1.953,0.000
1737556568.787,0.000,-22.949,0.000,5.859,0.000
1737556568.791,0.000,-22.949,0.000,-18.066,0.000
1737556568.795,-26.367,-31.250,-29.297,-20.020,0.000
1737556568.799,-9.277,-26.855,-20.020,0.000,0.000
1737556568.803,2.441,-19.043,-2.441,7.812,0.000
1737556568.807,-8.789,-19.531,-5.371,4.395,0.000
1737556568.811,-28.320,-21.973,-20.996,-21.484,0.000
1737556568.815,-28.320,-30.762,-32.715,-35.645,0.000
1737556568.818,-17.578,-40.039,-39.551,-14.648,0.000
1737556568.822,-1.953,-35.156,-39.551,4.395,0.000
1737556568.826,-6.836,-29.297,-34.668,5.859,0.000
1737556568.830,-18.555,-31.250,-27.832,-1.465,0.000
1737556568.834,-40.527,-36.133,-27.344,-0.488,0.000
1737556568.838,-15.625,-32.227,-20.508,-20.508,0.000
1737556568.842,13.672,-20.020,-8.789,-18.066,0.000
1737556568.846,-22.949,-24.414,-13.184,-1.953,0.000
1737556568.850,-48.340,-31.250,-10.254,-22.949,0.000
1737556568.854,-42.969,-38.574,-31.250,-30.273,0.000
1737556568.857,-26.855,-32.715,-32.715,-17.090,0.000
1737556568.861,4.395,-12.695,31.738,6.836,0.000
1737556568.865,7.812,24.902,67.383,20.020,0.000
1737556568.869,-21.973,21.484,71.289,-21.973,0.000
1737556568.873,-50.781,33.203,97.168,-39.551,0.000
1737556568.877,-33.691,103.027,109.863,-20.020,0.000
1737556568.881,-62.500,51.270,102.051,-52.734,0.000
1737556568.885,-71.777,164.062,46.387,-70.801,0.000
1737556568.889,-48.340,87.402,-45.898,-77.148,0.000
1737556568.893,-107.910,-110.840,-62.988,-162.598,0.000
1737556568.897,-176.270,-45.898,15.137,-257.324,0.000
1737556568.900,-170.898,100.098,85.938,-279.785,0.000
1737556568.904,-136.230,110.352,42.969,-249.023,0.000
1737556568.908,-148.438,111.816,12.207,-262.695,0.000
1737556568.912,-150.879,155.762,40.527,-282.715,0.000
1737556568.916,-140.625,174.316,91.309,-271.973,0.000
1737556568.920,-130.371,222.656,83.496,-252.441,0.000
1737556568.924,-150.879,236.816,50.293,-256.836,0.000
1737556568.928,-170.410,239.746,108.887,-265.625,0.000
1737556568.932,-187.012,245.605,156.250,-272.949,0.000
1737556568.936,-223.145,242.676,165.039,-271.484,0.000
1737556568.940,-217.773,248.047,191.895,-232.910,0.000
1737556568.943,-176.758,257.324,227.539,-203.125,0.000
1737556568.947,-199.219,244.141,237.793,-209.473,0.000
1737556568.951,-284.180,234.375,225.586,-212.891,0.000
1737556568.955,-292.480,235.352,210.449,-196.289,0.000
1737556568.959,-228.027,239.746,212.891,-168.945,0.000
1737556568.963,-197.754,228.516,220.703,-94.727,0.000
1737556568.967,-237.305,215.820,223.633,-101.074,0.000
1737556568.971,-255.371,233.398,208.984,-160.156,0.000
1737556568.975,-216.309,245.605,183.594,-135.742,0.000
1737556568.979,-176.270,245.605,163.086,-63.477,0.000
1737556568.983,-156.250,243.164,138.184,-18.555,0.000
1737556568.986,-142.578,221.680,106.445,-3.418,0.000
1737556568.990,-116.699,185.547,87.891,-6.348,0.000
1737556568.994,-101.562,140.625,76.660,-17.578,0.000
1737556568.998,-87.402,99.121,54.199,-1.465,0.000
1737556569.002,-69.336,73.730,39.551,27.832,0.000
1737556569.006,-48.340,50.781,10.742,64.941,0.000
1737556569.010,-30.273,17.578,-30.762,81.055,0.000
1737556569.014,-46.387,-10.254,-52.246,53.223,0.000
1737556569.018,-49.316,-30.273,-83.496,44.434,0.000
1737556569.022,-8.789,-39.551,-139.648,78.125,0.000
1737556569.025,18.066,-48.828,-128.906,105.957,0.000
1737556569.029,0.000,-67.383,-90.820,93.750,0.000
1737556569.033,0.000,-80.566,-102.051,58.594,0.000
1737556569.037,0.000,-84.473,-119.141,67.383,0.000
1737556569.041,0.000,-81.543,-143.555,116.699,0.000
1737556569.045,0.000,-84.473,-147.949,128.418,0.000
1737556569.049,0.000,-87.402,-147.949,93.262,0.000
1737556569.053,0.000,-91.797,-175.781,60.059,0.000
1737556569.057,0.000,-97.656,-182.617,67.871,0.000
1737556569.061,0.000,-97.656,-138.672,98.633,0.000
1737556569.065,0.000,-97.656,-108.887,100.586,0.000
1737556569.068,0.000,-98.145,-115.234,90.332,0.000
1737556569.072,0.000,-104.492,-135.742,73.730,0.000
1737556569.076,70.312,-105.469,-150.879,64.941,0.000
1737556569.080,97.168,-98.633,-166.016,92.285,0.000
1737556569.084,110.352,-95.215,-172.363,104.492,0.000
1737556569.088,101.562,-95.215,-160.645,74.219,0.000
1737556569.092,80.078,-98.145,-135.254,52.246,0.000
1737556569.096,83.008,-95.215,-122.070,48.340,0.000
1737556569.100,104.004,-87.891,-130.371,64.453,0.000
1737556569.104,103.027,-85.449,-135.742,87.891,0.000
1737556569.107,81.543,-93.262,-146.484,86.426,0.000
1737556569.111,68.848,-102.051,-148.926,50.781,0.000
1737556569.115,78.613,-91.797,-117.188,35.156,0.000
1737556569.119,91.797,-86.426,-104.004,48.340,0.000
1737556569.123,0.000,-90.332,-113.770,51.270,0.000
1737556569.127,0.000,-89.844,-113.770,50.293,0.000
1737556569.131,0.000,-83.496,-130.371,33.203,0.000
1737556569.135,0.000,-82.520,-135.742,8.789,0.000
1737556569.139,0.000,-84.961,-103.516,31.250,0.000
1737556569.143,0.000,-76.660,-88.867,73.242,0.000
1737556569.147,0.000,-80.566,-93.262,54.199,0.000
1737556569.150,0.000,-88.379,-91.797,16.602,0.000
1737556569.154,0.000,-79.102,-85.938,8.301,0.000
1737556569.158,0.000,-71.777,-94.727,26.855,0.000
1737556569.162,0.000,-72.266,-96.680,52.734,0.000
1737556569.166,0.000,-76.172,-79.102,49.316,0.000
1737556569.170,62.988,-71.289,-82.520,12.695,0.000
1737556569.174,47.363,-71.777,-97.656,-9.277,0.000
1737556569.178,46.387,-77.148,-76.172,7.812,0.000
1737556569.182,54.688,-73.730,-53.711,34.668,0.000
1737556569.186,49.805,-74.219,-64.453,31.738,0.000
1737556569.190,43.945,-72.754,-69.336,3.906,0.000
1737556569.193,43.945,-70.312,-59.082,-9.277,0.000
1737556569.197,46.387,-64.453,-53.711,14.648,0.000
1737556569.201,54.199,-60.059,-70.801,28.320,0.000
1737556569.205,68.848,-57.617,-76.660,26.855,0.000
1737556569.209,36.133,-52.734,-55.664,4.395,0.000
1737556569.213,20.508,-52.734,-48.828,-1.953,0.000
1737556569.217,37.109,-53.223,-63.477,12.207,0.000
1737556569.221,39.062,-57.129,-70.312,15.137,0.000
1737556569.225,41.016,-58.594,-44.922,12.207,0.000
1737556569.229,39.551,-53.711,-30.762,-8.789,0.000
1737556569.232,33.203,-54.199,-40.039,-35.156,0.000
1737556569.236,24.902,-48.340,-42.480,-32.715,0.000
1737556569.240,18.555,-47.363,-42.969,-16.602,0.000
1737556569.244,29.785,-52.246,-42.480,11.719,0.000
1737556569.248,20.508,-53.711,-58.594,17.090,0.000
1737556569.252,9.277,-60.547,-70.312,-11.230,0.000
1737556569.256,10.742,-60.547,-60.547,-29.785,0.000
1737556569.260,35.645,-50.293,-50.781,-12.695,0.000
1737556569.264,32.227,-43.457,0.000,0.000,0.000
1737556569.268,3.906,-41.992,0.000,0.000,0.000
1737556569.272,15.137,-41.992,0.000,0.000,0.000
1737556569.275,6.836,-43.457,0.000,0.000,0.000
1737556569.279,6.836,-44.922,0.000,0.000,0.000
1737556569.283,25.879,-40.039,0.000,0.000,0.000
1737556569.287,15.625,-40.039,0.000,0.000,0.000
1737556569.291,5.859,-42.969,0.000,0.000,0.000
1737556569.295,10.254,-40.039,0.000,0.000,0.000
1737556569.299,17.578,-45.898,0.000,0.000,0.000
1737556569.303,37.598,-46.875,0.000,0.000,0.000
1737556569.307,13.672,-46.387,0.000,0.000,0.000
1737556569.311,0.000,-47.363,-45.898,-2.441,0.000
1737556569.315,0.000,-35.645,-48.828,-12.207,0.000
1737556569.318,0.000,-34.180,-49.316,-11.230,0.000
1737556569.322,0.000,-40.039,-49.805,5.859,0.000
1737556569.326,0.000,-36.621,-41.016,21.484,0.000
1737556569.330,0.000,-36.621,-44.922,-7.324,0.000
1737556569.334,0.000,-31.738,-54.199,-20.020,0.000
1737556569.338,0.000,-32.715,-44.922,-2.930,0.000
1737556569.342,0.000,-39.062,-23.926,-2.441,0.000
1737556569.346,0.000,-41.016,-13.672,-2.441,0.000
1737556569.350,0.000,-41.992,-25.391,-13.184,0.000
1737556569.354,0.000,-42.480,-25.879,-33.203,0.000
1737556569.358,-23.926,-42.480,-21.973,-20.996,0.000
1737556569.361,-5.371,-35.645,-26.855,5.859,0.000
1737556569.365,11.230,-28.320,-29.785,16.602,0.000
1737556569.369,-2.441,-29.297,-36.621,14.160,0.000
1737556569.373,-31.250,-31.250,-47.852,-15.625,0.000
1737556569.377,-28.320,-31.250,-49.316,-21.484,0.000
1737556569.381,-12.695,-39.062,-40.527,-4.395,0.000
1737556569.385,-8.301,-44.922,-35.645,2.930,0.000
1737556569.389,-36.621,-44.922,-38.086,-2.441,0.000
1737556569.393,-48.828,-42.969,-25.391,-26.855,0.000
1737556569.397,-32.227,-32.715,-6.348,-23.438,0.000
1737556569.400,-21.484,-30.273,-0.977,7.812,0.000
1737556569.404,-33.203,-34.180,-6.836,9.766,0.000
1737556569.408,-45.898,-28.320,-19.043,-19.043,0.000
1737556569.412,-42.480,-29.297,-38.574,-34.668,0.000
1737556569.416,-34.180,-31.738,-46.875,-26.855,0.000
1737556569.420,-27.832,-30.762,-33.691,-7.324,0.000
1737556569.424,-24.414,-32.715,-24.414,8.789,0.000
1737556569.428,-33.691,-37.109,-25.879,-1.953,0.000
1737556569.432,-43.457,-36.133,-22.461,-24.414,0.000
1737556569.436,-47.363,-28.320,-18.066,-28.809,0.000
1737556569.440,-25.391,-26.367,-25.391,-15.137,0.000
1737556569.443,-9.277,-28.320,-28.320,10.742,0.000
1737556569.447,-49.805,-29.297,-18.555,14.648,0.000
1737556569.451,-70.801,-35.645,-19.531,-20.020,0.000
1737556569.455,-58.594,-38.086,-31.250,-36.133,0.000
1737556569.459,-39.062,-31.738,-34.180,-14.160,0.000
1737556569.463,-11.719,-31.250,-27.832,7.324,0.000
1737556569.467,-20.508,-40.527,-24.902,-5.371,0.000
1737556569.471,-53.223,-39.551,-16.602,-27.344,0.000
1737556569.475,-45.898,-35.156,-21.484,-32.227,0.000
1737556569.479,-33.691,-38.086,-36.133,-16.602,0.000
1737556569.482,-18.555,-32.715,-31.738,3.418,0.000
1737556569.486,-20.996,-27.344,-24.414,16.113,0.000
1737556569.490,-38.086,-34.668,-23.926,3.418,0.000
1737556569.494,-45.898,-41.016,-36.621,-35.645,0.000
1737556569.498,0.000,-43.457,0.000,0.000,0.000
1737556569.502,0.000,-40.527,0.000,0.000,0.000
1737556569.506,0.000,-35.645,0.000,0.000,0.000
1737556569.510,0.000,-44.922,0.000,0.000,0.000
1737556569.514,0.000,-42.480,0.000,0.000,0.000
1737556569.518,0.000,-30.273,0.000,0.000,0.000
1737556569.522,0.000,-31.250,0.000,0.000,0.000
1737556569.525,0.000,-32.227,0.000,0.000,0.000
1737556569.529,0.000,-35.156,0.000,0.000,0.000
1737556569.533,0.000,-38.574,0.000,0.000,0.000
1737556569.537,0.000,-35.156,0.000,0.000,0.000
1737556569.541,0.000,-28.809,0.000,0.000,0.000
1737556569.545,-20.996,-26.855,-24.902,-6.348,0.000
1737556569.549,-28.320,-27.344,-35.156,-22.949,0.000
1737556569.553,-36.133,-27.832,-27.344,-41.504,0.000
1737556569.557,-35.156,-27.832,-18.555,-20.996,0.000
1737556569.561,-18.066,-22.461,-29.785,6.836,0.000
1737556569.565,-10.742,-21.484,-35.645,7.812,0.000
1737556569.568,-18.066,-30.762,-44.434,-11.230,0.000
1737556569.572,-33.203,-31.250,-40.039,-24.902,0.000
1737556569.576,-23.438,-28.320,-25.879,-16.602,0.000
1737556569.580,2.930,-25.391,-14.160,-1.465,0.000
1737556569.584,16.602,-22.949,-6.348,15.137,0.000
1737556569.588,-10.742,-18.555,-20.508,11.230,0.000
1737556569.592,-20.020,-18.066,-27.832,-5.371,0.000
1737556569.596,-3.418,-22.949,-22.461,-9.277,0.000
1737556569.600,5.859,-21.484,-17.090,-2.930,0.000
1737556569.604,13.184,-16.602,-26.367,12.207,0.000
1737556569.608,-6.836,-18.555,-30.762,16.113,0.000
1737556569.611,-40.039,-27.344,-20.020,-23.926,0.000
1737556569.615,-44.922,-31.738,-12.207,-46.875,0.000
1737556569.619,-18.555,-30.762,-6.836,-15.137,0.000
1737556569.623,1.465,-26.855,-11.230,2.441,0.000
1737556569.627,-35.156,-26.367,-29.297,-3.418,0.000
1737556569.631,-42.480,-31.738,-31.250,-10.742,0.000
1737556569.635,-17.090,-31.738,-22.949,-24.414,0.000
1737556569.639,-16.113,-31.738,-23.438,-19.043,0.000
1737556569.643,-0.488,-25.391,-23.438,11.719,0.000
1737556569.647,1.465,-21.973,-36.621,15.625,0.000
1737556569.650,-13.184,-30.762,-40.039,-22.461,0.000
1737556569.654,-26.855,-30.273,-38.574,-36.621,0.000
1737556569.658,-34.668,-23.926,-40.039,-20.996,0.000
1737556569.662,-19.531,-23.438,-18.066,-9.277,0.000
1737556569.666,-8.789,-27.344,-9.766,-4.883,0.000
1737556569.670,-19.531,-22.461,-22.461,-12.695,0.000
1737556569.674,-28.320,-25.391,-20.996,-32.227,0.000
1737556569.678,-30.273,-35.156,-18.066,-29.297,0.000
1737556569.682,-25.879,-36.133,-26.855,4.395,0.000
1737556569.686,-14.160,-31.250,-27.832,15.625,0.000
1737556569.690,-25.879,-28.320,-19.043,-17.090,0.000
1737556569.693,-40.527,-33.691,-20.020,-39.062,0.000
1737556569.697,-29.297,-31.738,-30.273,-15.625,0.000
1737556569.701,-23.926,-29.785,-31.250,-10.742,0.000
1737556569.705,-24.414,-33.691,-23.438,-15.625,0.000
1737556569.709,-40.039,-36.621,-16.602,-21.484,0.000
1737556569.713,-45.410,-39.551,-27.832,-57.129,0.000
1737556569.717,-22.461,-32.227,-34.668,-32.715,0.000
1737556569.721,-7.324,-26.855,-31.738,-5.371,0.000
1737556569.725,5.859,-25.391,-22.949,-5.859,0.000
1737556569.729,-15.625,-22.461,-15.625,-11.230,0.000
1737556569.733,-43.945,-22.461,-24.414,-38.086,0.000
1737556569.736,-21.484,-21.973,-25.391,-38.086,0.000
1737556569.740,-3.418,-16.602,-11.719,-3.418,0.000
1737556569.744,0.977,-12.695,-1.465,22.949,0.000
1737556569.748,-11.230,-16.602,-15.625,-3.418,0.000
1737556569.752,-23.438,-17.090,-39.551,-31.250,0.000
1737556569.756,-13.672,-17.090,-33.203,-27.832,0.000
1737556569.760,5.371,-22.461,-23.926,-10.254,0.000
1737556569.764,-17.090,-25.391,-33.203,13.672,0.000
1737556569.768,-36.133,-21.973,-20.996,-15.625,0.000
1737556569.772,-30.762,-16.602,-13.672,-51.270,0.000
1737556569.775,-27.344,-25.391,-29.297,-47.363,0.000
1737556569.779,-19.531,-29.785,0.000,0.000,0.000
1737556569.783,3.906,-20.020,0.000,0.000,0.000
1737556569.787,-2.930,-25.391,0.000,0.000,0.000
1737556569.791,-32.227,-37.598,0.000,0.000,0.000
1737556569.795,-42.480,-30.273,0.000,0.000,0.000
1737556569.799,-14.648,-18.066,0.000,0.000,0.000
1737556569.803,11.719,-18.555,0.000,0.000,0.000
1737556569.807,-0.977,-20.996,0.000,0.000,0.000
1737556569.811,-22.949,-24.414,0.000,0.000,0.000
1737556569.815,-32.715,-26.855,0.000,0.000,0.000
1737556569.818,-11.230,-23.438,0.000,0.000,0.000
1737556569.822,20.508,-22.949,0.000,0.000,0.000
1737556569.826,-0.977,-27.344,-31.250,2.441,0.000
1737556569.830,-22.949,-33.691,-39.062,-19.531,0.000
1737556569.834,-12.695,-34.668,-45.410,-30.762,0.000
1737556569.838,-12.207,-32.715,-35.156,-25.879,0.000
1737556569.842,-9.277,-27.344,-19.531,-0.977,0.000
1737556569.846,-1.953,-25.879,-23.926,19.043,0.000
1737556569.850,-23.438,-34.180,-33.203,-7.812,0.000
1737556569.854,-28.809,-37.109,-29.785,-35.645,0.000
1737556569.858,-13.672,-31.250,-24.902,-27.832,0.000
1737556569.861,-3.418,-25.879,-25.391,-0.488,0.000
1737556569.865,8.789,-20.508,-24.414,19.043,0.000
1737556569.869,-6.348,-21.973,-24.902,-9.766,0.000
1737556569.873,0.000,-27.832,-29.297,-33.691,0.000
1737556569.877,0.000,-22.949,-33.203,-12.207,0.000
1737556569.881,0.000,-19.531,-32.227,3.418,0.000
1737556569.885,0.000,-28.320,-23.438,1.465,0.000
1737556569.889,0.000,-30.762,-20.508,-13.672,0.000
1737556569.893,0.000,-35.156,-24.414,-34.180,0.000
1737556569.897,0.000,-37.598,-25.391,-32.227,0.000
1737556569.900,0.000,-28.320,-25.391,-11.719,0.000
1737556569.904,0.000,-27.344,-33.203,10.742,0.000
1737556569.908,0.000,-34.668,-34.180,-0.977,0.000
1737556569.912,0.000,-37.598,-20.020,-32.715,0.000
1737556569.916,0.000,-34.180,-14.648,-30.762,0.000
1737556569.920,-15.625,-29.785,-5.859,-7.812,0.000
1737556569.924,0.488,-24.414,-6.348,1.465,0.000
1737556569.928,-2.930,-21.973,-11.719,-13.672,0.000
1737556569.932,-24.414,-24.902,-18.066,-37.598,0.000
1737556569.936,-23.438,-25.879,-27.832,-39.062,0.000
1737556569.940,0.977,-25.391,-33.203,-26.855,0.000
1737556569.943,10.254,-23.438,-38.574,-21.484,0.000
1737556569.947,-11.719,-5.371,1.953,-16.602,0.000
1737556569.951,-32.227,-2.441,66.895,-19.043,0.000
1737556569.955,-16.113,61.035,82.031,-19.043,0.000
1737556569.959,-26.367,33.691,82.520,-30.762,0.000
1737556569.963,-46.875,18.066,80.078,-35.645,0.000
1737556569.967,-13.184,149.902,102.539,-1.465,0.000
1737556569.971,-75.684,141.602,42.969,-66.895,0.000
1737556569.975,-112.793,74.219,-40.527,-124.512,0.000
1737556569.979,-145.996,-72.266,-51.270,-173.340,0.000
1737556569.983,-172.852,-44.922,29.297,-206.543,0.000
1737556569.986,-177.734,43.945,106.934,-224.609,0.000
1737556569.990,-200.195,103.516,44.434,-258.789,0.000
1737556569.994,-197.754,137.695,43.457,-284.180,0.000
1737556569.998,-148.926,141.113,62.012,-250.977,0.000
1737556570.002,-163.574,140.137,35.156,-249.023,0.000
1737556570.006,-189.453,159.668,108.887,-254.883,0.000
1737556570.010,-175.293,197.266,119.141,-231.445,0.000
1737556570.014,-216.797,191.406,104.492,-276.855,0.000
1737556570.018,-238.770,185.059,161.621,-293.457,0.000
1737556570.022,-228.516,183.105,203.125,-251.953,0.000
1737556570.025,-229.492,161.621,235.840,-229.980,0.000
1737556570.029,-230.469,144.531,256.836,-229.004,0.000
1737556570.033,-250.488,142.090,254.883,-226.562,0.000
1737556570.037,-295.898,133.789,250.488,-200.195,0.000
1737556570.041,-289.062,127.441,259.766,-153.809,0.000
1737556570.045,-254.395,119.141,272.949,-148.438,0.000
1737556570.049,-264.648,105.469,257.324,-177.734,0.000
1737556570.053,-280.273,111.816,232.422,-169.922,0.000
1737556570.057,-264.648,131.348,201.172,-128.418,0.000
1737556570.061,-226.074,144.531,0.000,-89.355,0.000
1737556570.065,-213.379,138.184,0.000,-60.059,0.000
1737556570.068,-218.262,118.164,0.000,-57.617,0.000
1737556570.072,-212.891,81.543,0.000,-75.195,0.000
1737556570.076,-202.637,36.133,0.000,-70.312,0.000
1737556570.080,-163.086,9.277,0.000,-21.484,0.000
1737556570.084,-138.672,-13.184,0.000,23.926,0.000
1737556570.088,-145.020,-41.992,0.000,41.992,0.000
1737556570.092,-134.766,-71.777,0.000,20.996,0.000
1737556570.096,-109.863,-87.891,0.000,18.555,0.000
1737556570.100,-87.891,-100.586,0.000,55.664,0.000
1737556570.104,-65.430,-115.234,0.000,90.332,0.000
1737556570.108,-77.637,-128.906,-80.566,91.797,0.000
1737556570.111,-69.824,-138.672,-97.656,68.359,0.000
1737556570.115,-35.156,-141.113,-113.281,80.078,0.000
1737556570.119,-22.461,-131.836,-122.070,97.656,0.000
1737556570.123,-9.766,-126.953,-115.723,106.445,0.000
1737556570.127,-12.695,-137.695,-127.930,108.887,0.000
1737556570.131,-18.555,-139.160,-131.348,95.215,0.000
1737556570.135,-12.207,-136.719,-151.855,92.285,0.000
1737556570.139,0.000,-142.578,-169.434,91.309,0.000
1737556570.143,30.762,-138.672,-145.508,92.773,0.000
1737556570.147,28.320,-132.812,-135.742,102.051,0.000
1737556570.150,0.977,-132.324,-135.742,100.586,0.000
1737556570.154,4.395,-126.953,-135.254,70.312,0.000
1737556570.158,18.555,-118.652,-135.742,59.570,0.000
1737556570.162,38.086,-111.816,-144.043,87.891,0.000
1737556570.166,41.992,-104.492,-143.066,104.004,0.000
1737556570.170,27.832,-102.539,-138.184,90.820,0.000
1737556570.174,16.113,-99.121,-145.020,71.777,0.000
1737556570.178,16.113,-96.191,-150.391,73.730,0.000
1737556570.182,21.484,-93.750,-146.484,100.098,0.000
1737556570.186,26.855,-84.473,-124.023,107.910,0.000
1737556570.190,12.695,-89.355,-111.328,74.219,0.000
1737556570.193,2.441,-94.238,-112.305,49.316,0.000
1737556570.197,24.414,-87.402,-101.074,64.453,0.000
1737556570.201,0.000,-82.520,0.000,75.195,0.000
1737556570.205,0.000,-80.078,0.000,77.637,0.000
1737556570.209,0.000,-74.219,0.000,46.875,0.000
1737556570.213,0.000,-77.637,0.000,1.465,0.000
1737556570.217,0.000,-80.078,0.000,0.977,0.000
1737556570.221,0.000,-66.406,0.000,35.156,0.000
1737556570.225,0.000,-59.570,0.000,48.828,0.000
1737556570.229,0.000,-63.965,0.000,23.438,0.000
1737556570.233,0.000,-64.453,0.000,10.254,0.000
1737556570.236,0.000,-62.500,0.000,21.973,0.000
1737556570.240,0.000,-70.801,0.000,20.020,0.000
1737556570.244,0.000,-71.777,0.000,27.832,0.000
1737556570.248,-15.137,-68.848,-74.707,11.230,0.000
1737556570.252,-19.043,-67.383,-90.820,-14.648,0.000
1737556570.256,1.953,-64.453,-89.355,-4.883,0.000
1737556570.260,24.902,-62.988,-72.266,4.395,0.000
1737556570.264,17.578,-61.035,-69.824,12.695,0.000
1737556570.268,-12.695,-55.176,-68.848,18.066,0.000
1737556570.272,-7.324,-54.688,-76.660,0.977,0.000
1737556570.275,10.742,-58.105,-77.637,-1.953,0.000
1737556570.279,10.742,-54.688,-52.734,25.391,0.000
1737556570.283,18.555,-48.828,-48.340,40.039,0.000
1737556570.287,19.531,-51.758,-58.594,14.648,0.000
1737556570.291,-0.977,-56.152,-53.711,-12.207,0.000
1737556570.295,2.930,-58.105,-50.293,-21.973,0.000
1737556570.299,16.602,-57.129,-50.293,-15.625,0.000
1737556570.303,28.320,-46.387,-42.480,20.020,0.000
1737556570.307,19.043,-43.457,-45.410,31.250,0.000
1737556570.311,1.953,-43.945,-58.105,-0.488,0.000
1737556570.315,-12.207,-39.062,-58.105,0.977,0.000
1737556570.318,-5.371,-41.016,-51.270,17.578,0.000
1737556570.322,15.137,-38.086,-43.945,26.855,0.000
1737556570.326,24.902,-29.297,-42.480,40.527,0.000
1737556570.330,0.977,-37.109,-50.293,6.348,0.000
1737556570.334,-17.090,-47.363,-54.199,-35.645,0.000
1737556570.338,-3.418,-43.945,-44.434,-21.973,0.000
1737556570.342,8.789,-33.203,-36.621,23.438,0.000
1737556570.346,23.438,-18.066,-25.391,42.480,0.000
1737556570.350,3.418,-19.531,-27.344,8.789,0.000
1737556570.354,-22.949,-35.156,-40.039,-17.090,0.000
1737556570.358,-8.789,-39.062,-39.062,-12.207,0.000
1737556570.361,5.859,-31.738,-38.086,6.836,0.000
1737556570.365,-20.020,-36.133,-44.922,12.695,0.000
1737556570.369,-45.898,-43.457,-49.316,-3.418,0.000
1737556570.373,-34.180,-41.016,-42.969,-25.391,0.000
1737556570.377,-15.625,-40.039,-30.273,-23.438,0.000
1737556570.381,-1.953,-41.016,-28.320,4.395,0.000
1737556570.385,3.906,-40.039,-43.945,19.043,0.000
1737556570.389,-13.184,-42.969,-41.992,-1.465,0.000
1737556570.393,-24.414,-44.434,-43.457,-11.719,0.000
1737556570.397,-20.508,-45.898,-49.805,-1.465,0.000
1737556570.400,-2.441,-40.039,-29.297,-2.441,0.000
1737556570.404,3.906,-32.227,-25.391,-5.859,0.000
1737556570.408,-18.555,-30.762,-36.133,-16.602,0.000
1737556570.412,-24.414,-26.367,-26.367,-19.043,0.000
1737556570.416,-23.926,-28.809,-18.555,-22.461,0.000
1737556570.420,-15.137,-36.133,-29.297,-15.625,0.000
1737556570.424,1.465,-34.668,-47.852,16.113,0.000
1737556570.428,-19.531,-35.156,-56.641,9.277,0.000
1737556570.432,-38.574,-39.551,-42.480,-20.020,0.000
1737556570.436,-19.531,-42.969,-25.391,-20.508,0.000
1737556570.440,-3.906,-38.574,-28.809,-2.441,0.000
1737556570.443,18.555,-25.391,-30.273,17.578,0.000
1737556570.447,2.930,-24.414,-28.809,5.859,0.000
1737556570.451,-22.461,-31.738,-29.785,-30.273,0.000
1737556570.455,-10.254,-24.902,-26.367,-34.180,0.000
1737556570.459,-3.418,-22.461,-22.461,-22.949,0.000
1737556570.463,0.000,-27.344,-26.367,-14.160,0.000
1737556570.467,1.465,-27.832,-27.832,-6.836,0.000
1737556570.471,-12.207,-23.926,-21.484,-5.859,0.000
1737556570.475,-22.461,-29.785,-28.809,-27.344,0.000
1737556570.479,-8.301,-34.668,-40.039,-18.555,0.000
1737556570.483,14.160,-22.949,-39.551,0.000,0.000
1737556570.486,0.000,-22.949,-32.715,0.000,0.000
1737556570.490,-25.391,-31.738,-37.109,0.000,0.000
1737556570.494,-18.066,-25.879,-35.645,0.000,0.000
1737556570.498,-12.207,-26.367,-28.809,0.000,0.000
1737556570.502,9.277,-26.367,-22.949,0.000,0.000
1737556570.506,12.695,-29.297,-21.973,0.000,0.000
1737556570.510,-24.902,-37.598,-23.926,0.000,0.000
1737556570.514,-31.250,-29.785,-40.039,0.000,0.000
1737556570.518,-3.906,-20.020,-39.062,0.000,0.000
1737556570.522,27.344,-17.090,-12.695,0.000,0.000
1737556570.525,17.090,-21.484,-3.906,0.000,0.000
1737556570.529,-18.555,-28.320,0.000,15.625,0.000
1737556570.533,-29.297,-29.785,0.000,13.184,0.000
1737556570.537,-16.602,-32.227,0.000,-21.484,0.000
1737556570.541,2.441,-35.156,0.000,-34.668,0.000
1737556570.545,11.719,-33.203,0.000,-22.949,0.000
1737556570.549,-5.859,-28.809,0.000,1.465,0.000
1737556570.553,-11.719,-35.156,0.000,10.254,0.000
1737556570.557,2.930,-39.551,0.000,-14.648,0.000
1737556570.561,12.695,-32.715,0.000,-20.996,0.000
1737556570.565,8.301,-25.879,0.000,3.418,0.000
1737556570.568,7.812,-27.832,0.000,8.301,0.000
1737556570.572,11.230,-26.855,0.000,-4.883,0.000
1737556570.576,-15.137,-22.461,-43.457,-18.555,0.000
1737556570.580,-3.906,-12.207,-36.133,5.371,0.000
1737556570.584,9.277,-13.672,-18.555,7.324,0.000
1737556570.588,-16.113,-26.855,-17.090,-6.836,0.000
1737556570.592,-24.414,-29.785,-21.973,-39.062,0.000
1737556570.596,-7.812,-24.902,-30.762,-37.598,0.000
1737556570.600,18.555,-18.066,-41.016,-6.348,0.000
1737556570.604,11.719,-14.160,-22.461,19.043,0.000
1737556570.607,-4.883,-20.996,-6.348,3.418,0.000
1737556570.611,-21.973,-22.949,-17.578,-35.156,0.000
1737556570.615,-25.879,-17.090,-19.531,-42.969,0.000
1737556570.619,-4.883,-14.160,-30.273,-17.090,0.000
1737556570.623,20.020,-14.160,-40.039,14.648,0.000
1737556570.627,5.859,-17.578,-11.230,11.719,0.000
1737556570.631,-32.227,-21.484,-6.836,-20.020,0.000
1737556570.635,-13.672,-23.926,-35.645,-17.090,0.000
1737556570.639,28.320,-19.531,-31.738,15.137,0.000
1737556570.643,20.020,-13.672,-15.137,10.254,0.000
1737556570.647,-11.719,-20.508,-13.184,-8.789,0.000
1737556570.650,-26.855,-27.344,-15.137,-24.414,0.000
1737556570.654,-26.367,-30.762,-20.020,-39.551,0.000
1737556570.658,-18.555,-29.297,-26.855,-30.273,0.000
1737556570.662,-5.371,-22.949,-30.273,-5.859,0.000
1737556570.666,3.906,-14.160,-32.227,16.113,0.000
1737556570.670,-0.488,-12.207,-31.738,16.602,0.000
1737556570.674,-22.949,-23.438,-34.180,-16.113,0.000
1737556570.678,-22.949,-32.227,-33.691,-32.227,0.000
1737556570.682,-8.789,-29.785,-24.902,-10.254,0.000
1737556570.686,1.953,-22.949,-18.555,5.371,0.000
1737556570.690,0.000,-26.367,-23.438,-9.277,0.000
1737556570.693,-29.297,-31.738,-39.062,-29.297,0.000
1737556570.697,-21.484,-26.367,-43.457,-10.254,0.000
1737556570.701,-3.906,-19.531,-28.320,16.113,0.000
1737556570.705,0.000,-22.949,-16.602,23.438,0.000
1737556570.709,-17.578,-29.785,-25.391,0.977,0.000
1737556570.713,-38.574,-35.156,-33.691,-38.086,0.000
1737556570.717,-30.762,-35.645,-24.414,-29.785,0.000
1737556570.721,-17.578,-31.738,-11.230,-9.277,0.000
1737556570.725,-9.766,-23.438,-18.066,-8.301,0.000
1737556570.729,-23.438,-23.438,-35.645,-8.789,0.000
1737556570.732,-38.574,-34.180,-38.574,-28.320,0.000
1737556570.736,-37.109,-31.738,-27.832,-40.527,0.000
1737556570.740,-17.090,-25.391,-25.391,-26.367,0.000
1737556570.744,4.883,-29.297,-22.949,-7.324,0.000
1737556570.748,-14.160,-35.156,-17.090,-16.113,0.000
1737556570.752,-46.875,-39.551,-31.250,-33.203,0.000
1737556570.756,-24.414,-35.156,-34.180,-39.062,0.000
1737556570.760,5.859,-25.879,-27.344,-12.207,0.000
1737556570.764,0.000,-24.414,-44.434,16.602,0.000
1737556570.768,-11.230,-24.414,-44.922,-2.930,0.000
1737556570.772,-20.996,-28.809,-26.367,-35.645,0.000
1737556570.775,-32.715,-33.691,-15.137,-42.480,0.000
1737556570.779,-21.484,-27.344,-13.672,-31.738,0.000
1737556570.783,-4.395,-23.926,-16.113,-11.719,0.000
1737556570.787,0.000,-28.320,-26.855,-6.836,0.000
1737556570.791,-4.395,-34.668,-38.574,-23.926,0.000
1737556570.795,4.395,-38.086,-37.109,-21.484,0.000
1737556570.799,13.672,-27.344,-27.344,-4.395,0.000
1737556570.803,13.672,-23.926,-27.344,-7.812,0.000
1737556570.807,11.719,-29.297,-27.832,-14.160,0.000
1737556570.811,0.000,-28.809,0.000,0.000,0.000
1737556570.815,0.000,-21.484,0.000,0.000,0.000
1737556570.818,0.000,-17.578,0.000,0.000,0.000
1737556570.822,0.000,-19.531,0.000,0.000,0.000
1737556570.826,0.000,-25.391,0.000,0.000,0.000
1737556570.830,0.000,-29.785,0.000,0.000,0.000
1737556570.834,0.000,-34.180,0.000,0.000,0.000
1737556570.838,0.000,-31.250,0.000,0.000,0.000
1737556570.842,0.000,-24.414,0.000,0.000,0.000
1737556570.846,0.000,-21.973,0.000,0.000,0.000
1737556570.850,0.000,-18.066,0.000,0.000,0.000
1737556570.854,0.000,-14.648,0.000,0.000,0.000
1737556570.858,5.859,-21.484,-24.414,-19.043,0.000
1737556570.861,32.715,-21.484,-4.883,-7.812,0.000
1737556570.865,36.133,-15.137,6.836,10.742,0.000
1737556570.869,-1.465,-18.555,-4.395,-12.695,0.000
1737556570.873,-12.207,-25.879,-23.926,-35.645,0.000
1737556570.877,3.906,-24.902,-36.621,-19.531,0.000
1737556570.881,2.441,-23.926,-24.414,-18.555,0.000
1737556570.885,-0.977,-31.250,-6.836,-19.531,0.000
1737556570.889,-30.762,-32.715,-7.812,-27.344,0.000
1737556570.893,-34.180,-27.832,-21.484,-37.598,0.000
1737556570.897,-13.184,-31.250,-37.109,-20.508,0.000
1737556570.900,11.719,-28.809,-33.691,-3.906,0.000
1737556570.904,0.000,-23.926,-27.344,5.371,0.000
1737556570.908,0.000,-32.715,-26.367,-13.672,0.000
1737556570.912,0.000,-31.738,-25.391,-46.387,0.000
1737556570.916,0.000,-23.926,-23.926,-50.781,0.000
1737556570.920,0.000,-22.949,-20.996,-26.855,0.000
1737556570.924,0.000,-20.020,-22.949,1.953,0.000
1737556570.928,0.000,-21.973,-29.297,-15.137,0.000
1737556570.932,0.000,-33.203,-32.715,-36.621,0.000
1737556570.936,0.000,-38.574,-31.250,-31.250,0.000
1737556570.940,0.000,-38.574,-30.762,-7.812,0.000
1737556570.943,0.000,-31.738,-28.809,8.301,0.000
1737556570.947,0.000,-31.738,-28.320,-2.441,0.000
1737556570.951,-37.109,-36.621,-37.109,-26.367,0.000
1737556570.955,-14.648,-26.367,-34.668,-39.062,0.000
1737556570.959,13.672,-12.695,-21.484,-18.066,0.000
1737556570.963,19.043,-12.695,-16.602,4.395,0.000
1737556570.967,7.324,-29.297,-11.230,4.395,0.000
1737556570.971,-6.348,-41.992,-32.227,-28.809,0.000
1737556570.975,-19.043,-35.156,-50.781,-36.621,0.000
1737556570.979,-9.277,-28.809,-36.133,-18.555,0.000
1737556570.982,20.996,-26.367,-16.602,-3.418,0.000
1737556570.986,14.160,-24.902,-7.324,8.301,0.000
1737556570.990,-8.301,-26.855,-24.902,-1.465,0.000
1737556570.994,-8.301,-23.926,-39.551,-13.672,0.000
1737556570.998,6.348,-20.996,-26.855,-7.812,0.000
1737556571.002,21.973,-20.020,-14.160,1.953,0.000
1737556571.006,23.438,-18.066,-8.789,3.418,0.000
1737556571.010,-11.719,-31.250,-23.438,-28.809,0.000
1737556571.014,-35.645,-41.504,-39.551,-44.434,0.000
1737556571.018,-5.371,-10.254,-20.020,-24.414,0.000
1737556571.022,3.418,-16.602,20.020,-13.672,0.000
1737556571.025,-8.301,-27.832,51.758,14.160,0.000
1737556571.029,-18.066,31.738,44.922,3.418,0.000
1737556571.033,-32.715,78.125,97.168,-45.898,0.000
1737556571.037,-16.113,49.805,114.258,-24.902,0.000
1737556571.041,-30.273,41.992,60.059,-28.320,0.000
1737556571.045,-23.926,195.312,1.465,-27.832,0.000
1737556571.049,-57.129,94.727,-49.316,-75.684,0.000
1737556571.053,-157.227,-85.938,-11.230,-188.477,0.000
1737556571.057,-153.320,-12.207,93.262,-215.332,0.000
1737556571.061,-119.141,77.148,129.883,-201.172,0.000
1737556571.065,-149.902,97.656,16.113,-222.168,0.000
1737556571.068,-138.672,117.676,-9.277,-232.910,0.000
1737556571.072,-128.418,136.230,59.082,-228.027,0.000
1737556571.076,-168.457,133.789,82.031,-259.277,0.000
1737556571.080,-158.691,169.922,134.277,-257.324,0.000
1737556571.084,-119.629,240.234,130.859,-208.496,0.000
1737556571.088,-148.926,238.281,100.098,-219.727,0.000
1737556571.092,-187.500,239.746,144.531,-241.211,0.000
1737556571.096,-185.547,269.531,174.316,-242.188,0.000
1737556571.100,-184.082,283.691,197.266,-210.938,0.000
1737556571.104,-211.426,292.480,215.332,-171.875,0.000
1737556571.107,-234.375,299.316,208.984,-185.547,0.000
1737556571.111,-248.047,309.082,211.914,-190.430,0.000
1737556571.115,-254.395,313.477,212.891,-188.965,0.000
1737556571.119,-255.859,304.688,227.539,-187.012,0.000
1737556571.123,-255.859,292.969,248.535,-172.363,0.000
1737556571.127,-253.906,277.344,254.395,-164.062,0.000
1737556571.131,-256.836,259.766,226.074,-155.273,0.000
1737556571.135,-253.418,248.047,186.035,-124.512,0.000
1737556571.139,-220.215,251.953,182.129,-91.797,0.000
1737556571.143,-195.801,257.324,176.758,-64.453,0.000
1737556571.147,-189.453,252.441,143.555,-26.855,0.000
1737556571.150,-192.383,246.094,115.723,-9.766,0.000
1737556571.154,-180.664,229.980,102.539,1.953,0.000
1737556571.158,-141.602,189.453,83.008,19.043,0.000
1737556571.162,-126.465,133.789,60.059,27.832,0.000
1737556571.166,-134.766,85.938,33.203,30.273,0.000
1737556571.170,-122.070,57.129,-2.930,37.598,0.000
1737556571.174,-120.117,28.809,-39.551,45.898,0.000
1737556571.178,-101.074,-5.859,-64.941,47.852,0.000
1737556571.182,-65.918,-33.203,-78.125,68.359,0.000
1737556571.186,-31.250,-54.688,-90.332,95.215,0.000
1737556571.190,-37.598,-74.707,-110.352,100.586,0.000
1737556571.193,-46.875,-91.309,-136.230,89.355,0.000
1737556571.197,-1.953,-93.262,-160.645,102.051,0.000
1737556571.201,11.719,-101.562,-171.875,118.652,0.000
1737556571.205,18.066,-115.234,-136.230,115.234,0.000
1737556571.209,25.391,-119.629,-97.168,116.699,0.000
1737556571.213,20.508,-126.465,-115.723,116.699,0.000
1737556571.217,43.457,-133.301,-133.789,107.422,0.000
1737556571.221,56.641,-135.742,-131.348,106.445,0.000
1737556571.225,38.086,-137.695,-134.766,118.652,0.000
1737556571.229,38.574,-135.742,-148.438,115.234,0.000
1737556571.233,46.875,-136.719,-158.203,97.656,0.000
1737556571.236,52.734,-137.695,-147.461,100.098,0.000
1737556571.240,61.035,-130.859,-143.555,121.582,0.000
1737556571.244,60.547,-127.930,-145.020,126.465,0.000
1737556571.248,49.316,-134.277,-145.996,105.957,0.000
1737556571.252,35.156,-136.230,-166.504,90.332,0.000
1737556571.256,46.387,-130.859,-166.504,79.590,0.000
1737556571.260,63.477,-128.906,-133.301,82.031,0.000
1737556571.264,62.500,-118.652,-123.047,95.703,0.000
1737556571.268,51.270,-116.699,-121.094,83.984,0.000
1737556571.272,40.039,-123.047,-112.793,61.523,0.000
1737556571.275,44.434,-114.258,-113.281,60.059,0.000
1737556571.279,56.152,-105.469,-124.023,76.660,0.000
1737556571.283,68.848,-101.562,-125.000,92.773,0.000
1737556571.287,51.270,-105.469,-110.352,72.754,0.000
1737556571.291,21.484,-112.305,-102.051,33.203,0.000
1737556571.295,24.902,-106.934,-105.957,39.551,0.000
1737556571.299,47.363,-93.750,-116.211,79.102,0.000
1737556571.303,58.105,-86.914,-126.953,90.332,0.000
1737556571.307,57.617,-92.773,-101.074,67.871,0.000
1737556571.311,50.293,-94.238,-71.289,38.574,0.000
1737556571.315,28.809,-88.379,-65.430,31.738,0.000
1737556571.318,25.391,-81.543,-64.941,28.809,0.000
1737556571.322,38.086,-82.520,-76.660,36.133,0.000
1737556571.326,34.668,-85.938,-92.773,51.758,0.000
1737556571.330,24.414,-79.102,-90.332,43.945,0.000
1737556571.334,13.184,-80.078,-83.008,20.020,0.000
1737556571.338,25.391,-90.332,-72.266,16.602,0.000
1737556571.342,54.199,-90.332,-72.266,50.293,0.000
1737556571.346,35.645,-79.102,-81.543,66.406,0.000
1737556571.350,-7.812,-78.125,-75.195,43.945,0.000
1737556571.354,-8.301,-81.543,-57.617,20.020,0.000
1737556571.357,11.230,-67.383,-53.223,18.555,0.000
1737556571.361,29.785,-61.523,-59.082,30.273,0.000
1737556571.365,34.180,-68.359,-60.547,31.738,0.000
1737556571.369,15.625,-68.848,-60.547,21.973,0.000
1737556571.373,10.742,-67.871,-67.871,17.578,0.000
1737556571.377,6.348,-66.406,-68.848,21.484,0.000
1737556571.381,-5.859,-66.895,-55.664,19.043,0.000
1737556571.385,10.254,-64.453,-41.016,25.879,0.000
1737556571.389,19.043,-58.105,-50.293,22.949,0.000
1737556571.393,-5.859,-55.176,-64.941,-4.883,0.000
1737556571.397,-7.324,-60.059,-50.293,3.418,0.000
1737556571.400,37.109,-62.988,-34.668,24.902,0.000
1737556571.404,54.688,-53.223,-31.738,31.250,0.000
1737556571.408,19.043,-50.293,-38.086,24.414,0.000
