timestamps,TP9,AF7,AF8,TP10,Right AUX
1737551379.583,69.336,-38.574,-16.602,324.219,0.000
1737551379.587,57.617,-35.156,-24.414,316.895,0.000
1737551379.590,0.000,-23.926,-25.391,-44.922,0.000
1737551379.594,6.836,-32.227,-24.902,-389.648,0.000
1737551379.598,29.785,-40.527,-16.602,-101.074,0.000
1737551379.602,26.855,-26.855,2.441,261.230,0.000
1737551379.606,-25.879,3.906,-24.902,226.562,0.000
1737551379.610,-36.621,-20.996,-36.133,-35.156,0.000
1737551379.614,12.695,-36.621,-16.113,-372.559,0.000
1737551379.618,24.414,-26.855,-6.348,-225.586,0.000
1737551379.622,-6.348,-35.645,0.000,165.527,0.000
1737551379.626,36.133,-18.555,-27.344,317.383,0.000
1737551379.629,94.727,-22.949,-34.668,217.773,0.000
1737551379.633,34.668,-2.441,-36.133,-168.457,0.000
1737551379.637,-7.812,-16.113,-21.484,-74.707,0.000
1737551379.641,18.555,-40.527,-12.207,336.914,0.000
1737551379.645,19.043,-31.250,0.977,432.129,0.000
1737551379.649,17.578,-29.297,-0.488,247.559,0.000
1737551379.653,0.977,-16.602,-13.184,-203.125,0.000
1737551379.657,33.203,-40.039,-5.859,-172.852,0.000
1737551379.661,21.973,-30.273,-7.812,229.980,0.000
1737551379.665,-20.508,-15.625,-22.949,377.441,0.000
1737551379.669,31.250,-36.621,-14.648,267.578,0.000
1737551379.672,41.992,-39.551,9.766,-210.938,0.000
1737551379.676,-33.691,0.977,-24.902,-282.227,0.000
1737551379.680,-68.359,18.555,-45.898,137.695,0.000
1737551379.684,32.715,-40.039,-0.977,364.258,0.000
1737551379.688,90.820,-52.246,12.695,318.848,0.000
1737551379.692,49.316,-16.602,-0.977,-147.461,0.000
1737551379.696,18.066,-25.391,-12.695,-263.184,0.000
1737551379.700,42.480,-52.734,9.277,189.941,0.000
1737551379.704,13.184,-29.297,19.531,364.746,0.000
1737551379.708,11.230,-29.297,-1.953,227.051,0.000
1737551379.712,19.043,-39.062,-2.930,-167.480,0.000
1737551379.715,-26.855,-4.395,-15.137,-321.777,0.000
1737551379.719,-17.090,-14.648,-14.160,69.336,0.000
1737551379.723,24.414,-20.996,-9.277,280.762,0.000
1737551379.727,36.621,-22.949,8.789,229.492,0.000
1737551379.731,-15.137,-20.020,9.277,-131.836,0.000
1737551379.735,-27.344,1.465,-40.039,-392.578,0.000
1737551379.739,30.762,13.184,-38.574,0.000,0.000
1737551379.743,32.227,-7.812,3.418,296.875,0.000
1737551379.747,34.668,-35.156,1.953,265.625,0.000
1737551379.751,48.340,-15.137,-37.109,-46.387,0.000
1737551379.754,-1.465,-8.789,-35.645,-435.059,0.000
1737551379.758,-24.902,-24.414,-5.371,-160.645,0.000
1737551379.762,10.742,-22.461,-10.742,220.703,0.000
1737551379.766,-62.988,6.836,-8.789,168.945,0.000
1737551379.770,-107.910,-8.789,32.715,-166.992,0.000
1737551379.774,-20.996,-41.504,5.371,-465.332,0.000
1737551379.778,10.742,-28.809,-55.664,-183.105,0.000
1737551379.782,13.672,-2.441,-49.316,127.441,0.000
1737551379.786,-23.926,-11.230,4.395,117.188,0.000
1737551379.790,-95.215,2.930,-20.508,-114.746,0.000
1737551379.794,-61.035,-28.320,-33.691,-532.227,0.000
1737551379.797,14.648,-52.734,-2.441,-432.617,0.000
1737551379.801,59.570,-45.898,1.465,33.691,0.000
1737551379.805,-35.156,15.625,-15.625,99.609,0.000
1737551379.809,-106.934,1.953,-9.766,-208.496,0.000
1737551379.813,-96.191,6.348,-32.715,-659.668,0.000
1737551379.817,-69.336,10.742,16.602,-566.895,0.000
1737551379.821,12.695,-35.645,72.266,-12.695,0.000
1737551379.825,43.945,-22.949,2.930,193.359,0.000
1737551379.829,53.711,11.230,0.000,16.602,0.000
1737551379.833,-22.949,72.266,-21.973,-419.434,0.000
1737551379.837,-1.953,44.434,-3.906,-458.008,0.000
1737551379.840,52.734,-57.617,53.711,-127.441,0.000
1737551379.844,35.156,-17.090,5.371,-59.570,0.000
1737551379.848,5.371,22.949,-41.992,-407.227,0.000
1737551379.852,-119.141,15.137,-16.602,-914.551,0.000
1737551379.856,-224.609,24.902,25.879,-1000.000,0.000
1737551379.860,-270.996,46.875,86.914,-927.734,0.000
1737551379.864,-280.762,64.453,151.855,-751.465,0.000
1737551379.868,-347.168,68.359,187.500,-793.457,0.000
1737551379.872,-393.066,85.449,232.422,-984.375,0.000
1737551379.876,-406.250,98.145,280.762,-1000.000,0.000
1737551379.879,-384.277,108.887,304.688,-602.539,0.000
1737551379.883,-315.918,130.859,327.148,-161.621,0.000
1737551379.887,-291.992,139.160,352.051,-146.973,0.000
1737551379.891,-336.914,167.480,358.887,-536.133,0.000
1737551379.895,-365.723,208.496,362.305,-643.555,0.000
1737551379.899,-325.684,229.492,358.398,-62.500,0.000
1737551379.903,-302.734,240.234,372.559,304.199,0.000
1737551379.907,-327.637,269.531,377.441,227.539,0.000
1737551379.911,-279.297,279.785,357.910,-185.059,0.000
1737551379.915,-266.113,285.156,362.305,-517.090,0.000
1737551379.919,-322.266,290.527,369.629,-216.797,0.000
1737551379.922,-349.121,289.062,359.863,123.047,0.000
1737551379.926,-320.801,289.551,354.492,196.289,0.000
1737551379.930,-341.309,259.277,354.492,-117.188,0.000
1737551379.934,-371.094,246.094,356.445,-543.945,0.000
1737551379.938,-338.379,259.277,369.629,-270.508,0.000
1737551379.942,-328.613,244.141,371.094,131.348,0.000
1737551379.946,-328.613,224.609,369.629,208.984,0.000
1737551379.950,-334.961,233.398,363.770,-61.523,0.000
1737551379.954,-384.766,214.844,338.867,-590.820,0.000
1737551379.958,-344.238,187.012,336.426,-436.035,0.000
1737551379.962,-268.066,183.105,341.797,-36.133,0.000
1737551379.965,-224.121,187.500,320.312,32.715,0.000
1737551379.969,-237.305,179.199,300.781,-179.199,0.000
1737551379.973,-286.133,159.668,284.668,-669.922,0.000
1737551379.977,-237.793,142.578,281.738,-588.379,0.000
1737551379.981,-206.543,132.812,272.949,-142.578,0.000
1737551379.985,-208.496,119.629,259.277,-24.902,0.000
1737551379.989,-197.266,102.539,252.441,-176.270,0.000
1737551379.993,-230.469,93.262,245.605,-593.750,0.000
1737551379.997,-228.516,99.609,235.840,-572.754,0.000
1737551380.001,-194.336,94.727,218.750,-80.078,0.000
1737551380.004,-139.160,61.035,210.938,153.809,0.000
1737551380.008,-122.070,42.969,213.867,14.648,0.000
1737551380.012,-146.484,33.691,198.730,-385.254,0.000
1737551380.016,-154.297,40.039,162.598,-346.680,0.000
1737551380.020,-125.977,35.645,160.645,154.297,0.000
1737551380.024,-54.688,10.742,158.691,410.645,0.000
1737551380.028,-18.555,2.441,146.973,354.492,0.000
1737551380.032,-33.203,-1.465,133.301,-101.074,0.000
1737551380.036,-25.879,-14.160,127.930,-235.352,0.000
1737551380.040,12.695,-17.090,133.301,244.141,0.000
1737551380.044,38.086,-11.719,117.676,529.785,0.000
1737551380.047,47.852,-14.648,108.887,524.414,0.000
1737551380.051,89.844,-44.922,105.469,152.832,0.000
1737551380.055,114.746,-64.941,90.332,-19.531,0.000
1737551380.059,115.234,-50.293,72.754,447.266,0.000
1737551380.063,205.078,-81.055,75.684,797.363,0.000
1737551380.067,234.863,-73.730,64.453,807.617,0.000
1737551380.071,195.312,-60.059,53.711,463.379,0.000
1737551380.075,217.285,-102.539,68.359,243.652,0.000
1737551380.079,261.230,-96.191,66.895,684.570,0.000
1737551380.083,281.738,-67.871,41.992,971.191,0.000
1737551380.086,254.395,-89.355,26.367,982.422,0.000
1737551380.090,280.273,-88.867,44.922,770.020,0.000
1737551380.094,277.832,-76.660,43.945,280.762,0.000
1737551380.098,211.426,-75.684,35.156,359.375,0.000
1737551380.102,206.055,-77.148,38.086,633.301,0.000
1737551380.106,195.801,-71.289,58.594,640.625,0.000
1737551380.110,93.750,-43.945,39.551,230.469,0.000
1737551380.114,53.223,-37.598,29.785,-326.172,0.000
1737551380.118,41.016,-20.020,46.875,-160.645,0.000
1737551380.122,-1.953,-6.836,55.664,176.758,0.000
1737551380.126,-32.227,-18.066,53.711,165.039,0.000
1737551380.129,-34.180,-24.902,57.617,-85.449,0.000
1737551380.133,-60.059,-9.766,54.688,-515.625,0.000
1737551380.137,-112.793,-13.184,52.734,-479.980,0.000
1737551380.141,-113.770,-16.113,47.852,-78.125,0.000
1737551380.145,-106.934,-7.812,40.039,56.641,0.000
1737551380.149,-90.820,-3.906,48.340,-189.453,0.000
1737551380.153,-106.445,-1.953,45.898,-668.457,0.000
1737551380.157,-147.461,-3.418,38.574,-655.273,0.000
1737551380.161,-172.852,4.395,36.621,-201.172,0.000
1737551380.165,-169.434,11.719,29.297,17.578,0.000
1737551380.169,-164.062,-3.418,33.203,-125.977,0.000
1737551380.172,-168.457,-1.465,25.391,-619.629,0.000
1737551380.176,-143.066,-2.930,28.320,-641.113,0.000
1737551380.180,-129.883,-16.602,37.109,-172.852,0.000
1737551380.184,-125.000,-19.531,32.227,5.859,0.000
1737551380.188,-108.887,-7.812,16.113,-98.145,0.000
1737551380.192,-97.168,-9.277,11.230,-497.070,0.000
1737551380.196,-79.102,-31.250,10.254,-621.582,0.000
1737551380.200,-45.898,-33.203,10.254,-165.527,0.000
1737551380.204,-24.414,-35.156,23.926,88.379,0.000
1737551380.208,34.180,-42.480,3.418,72.266,0.000
1737551380.211,54.688,-39.551,-19.531,-260.254,0.000
1737551380.215,40.039,-45.410,-15.625,-465.820,0.000
1737551380.219,83.496,-62.012,-8.301,-43.457,0.000
1737551380.223,120.117,-65.918,-11.230,280.273,0.000
1737551380.227,102.051,-66.895,-19.531,285.156,0.000
1737551380.231,83.984,-76.172,-24.902,-57.129,0.000
1737551380.235,156.738,-74.707,-28.320,-297.852,0.000
1737551380.239,194.824,-65.918,-24.902,93.262,0.000
1737551380.243,180.176,-48.340,-30.762,406.738,0.000
1737551380.247,186.523,-47.852,-33.691,447.754,0.000
1737551380.251,199.707,-73.242,-21.484,176.758,0.000
1737551380.254,206.055,-73.242,-23.926,-150.879,0.000
1737551380.258,201.172,-59.570,-24.414,194.336,0.000
1737551380.262,195.801,-44.434,-30.273,558.105,0.000
1737551380.266,192.871,-51.758,-15.137,569.824,0.000
1737551380.270,214.355,-64.453,-23.926,330.566,0.000
1737551380.274,192.871,-48.340,-11.719,-66.406,0.000
1737551380.278,150.879,-66.895,27.832,109.375,0.000
1737551380.282,186.035,-62.988,-24.902,574.219,0.000
1737551380.286,172.363,-52.734,-35.645,660.645,0.000
1737551380.290,108.398,-41.992,-16.113,394.531,0.000
1737551380.294,53.223,-49.805,-5.859,-47.852,0.000
1737551380.297,46.387,-40.527,22.461,23.438,0.000
1737551380.301,0.488,-17.090,8.301,312.012,0.000
1737551380.305,-44.434,-7.812,-10.254,326.660,0.000
1737551380.309,-62.988,-5.859,-7.812,63.477,0.000
1737551380.313,-105.957,5.371,-0.977,-494.141,0.000
1737551380.317,-165.527,11.719,16.113,-481.445,0.000
1737551380.321,-181.152,19.043,9.277,-6.348,0.000
1737551380.325,-136.719,30.273,9.766,173.340,0.000
1737551380.329,-194.336,31.250,8.301,-24.414,0.000
1737551380.333,-280.273,28.809,-9.766,-521.484,0.000
1737551380.336,-225.586,17.578,-5.859,-522.949,0.000
1737551380.340,-166.504,24.414,-3.906,-46.387,0.000
1737551380.344,-197.266,21.973,-0.488,139.160,0.000
1737551380.348,-229.980,18.555,5.859,30.273,0.000
1737551380.352,-218.262,21.973,-5.371,-397.461,0.000
1737551380.356,-225.586,8.301,-16.602,-537.109,0.000
1737551380.360,-215.332,1.465,-3.418,-99.121,0.000
1737551380.364,-183.105,1.465,3.906,144.531,0.000
1737551380.368,-177.734,-8.789,0.488,19.531,0.000
1737551380.372,-184.082,-19.531,-3.418,-429.688,0.000
1737551380.376,-159.668,-22.949,-14.648,-624.023,0.000
1737551380.379,-120.605,-17.578,-22.461,-195.312,0.000
1737551380.383,-108.398,-17.578,-23.926,89.844,0.000
1737551380.387,-69.824,-37.109,-24.414,43.945,0.000
1737551380.391,3.418,-47.852,-38.086,-311.523,0.000
1737551380.395,28.809,-48.828,-48.828,-496.582,0.000
1737551380.399,83.984,-44.922,-50.293,-91.797,0.000
1737551380.403,153.320,-54.199,-45.898,292.480,0.000
1737551380.407,127.441,-53.223,-40.527,264.648,0.000
1737551380.411,67.871,-56.152,-31.250,-172.363,0.000
1737551380.415,125.000,-72.266,-52.734,-419.922,0.000
1737551380.419,202.637,-68.848,-65.430,-9.766,0.000
1737551380.422,222.656,-67.383,-57.617,356.934,0.000
1737551380.426,201.172,-52.246,-48.828,377.930,0.000
1737551380.430,201.660,-58.594,-54.688,97.656,0.000
1737551380.434,195.312,-70.801,-64.453,-253.418,0.000
1737551380.438,176.270,-57.129,-55.664,0.488,0.000
1737551380.442,224.609,-56.641,-54.688,402.344,0.000
1737551380.446,243.164,-54.688,-40.039,520.020,0.000
1737551380.450,214.844,-55.176,-31.738,256.836,0.000
1737551380.454,160.645,-50.293,-36.621,-265.625,0.000
1737551380.458,146.484,-21.484,-28.320,-55.176,0.000
1737551380.461,203.125,-46.875,-43.457,455.566,0.000
1737551380.465,247.559,-46.875,-50.781,595.215,0.000
1737551380.469,213.867,-16.113,-35.645,359.375,0.000
1737551380.473,113.770,-16.602,-32.715,-133.301,0.000
1737551380.477,97.168,-8.789,-29.785,-10.254,0.000
1737551380.481,92.285,-0.488,-40.039,419.922,0.000
1737551380.485,50.781,10.742,-53.711,503.906,0.000
1737551380.489,-11.719,20.020,-34.668,301.758,0.000
1737551380.493,-84.473,27.344,-15.137,-167.969,0.000
1737551380.497,-132.324,16.602,-1.465,-221.680,0.000
1737551380.501,-167.480,20.508,-5.371,211.426,0.000
1737551380.504,-167.480,35.156,6.348,410.645,0.000
1737551380.508,-188.965,23.926,5.371,209.473,0.000
1737551380.512,-246.094,25.391,-4.883,-375.977,0.000
1737551380.516,-269.531,25.391,11.719,-561.035,0.000
1737551380.520,-248.535,30.762,-3.418,-92.285,0.000
1737551380.524,-296.387,31.738,-1.465,148.438,0.000
1737551380.528,-277.344,33.203,4.883,44.434,0.000
1737551380.532,-197.266,26.367,-5.859,-390.625,0.000
1737551380.536,-234.375,13.672,-1.465,-593.262,0.000
1737551380.540,-225.098,20.508,7.324,-169.434,0.000
1737551380.544,-162.598,13.672,-4.395,125.000,0.000
1737551380.547,-161.621,2.930,-6.836,-6.836,0.000
1737551380.551,-182.129,7.812,-6.836,-473.145,0.000
1737551380.555,-164.062,8.301,-19.531,-727.051,0.000
1737551380.559,-112.305,9.766,-19.531,-332.031,0.000
1737551380.563,-94.238,3.906,-12.695,12.695,0.000
1737551380.567,-89.355,-4.883,-8.789,29.785,0.000
1737551380.571,-83.496,-15.625,-14.648,-365.723,0.000
1737551380.575,-85.449,-20.996,-23.438,-702.148,0.000
1737551380.579,-69.336,-12.207,-27.344,-315.430,0.000
1737551380.583,-25.879,-11.230,-29.297,121.582,0.000
1737551380.586,3.418,-9.277,-32.227,202.148,0.000
1737551380.590,4.395,-12.207,-35.156,-88.379,0.000
1737551380.594,10.742,-26.855,-54.199,-473.633,0.000
1737551380.598,46.387,-34.180,-64.941,-199.707,0.000
1737551380.602,56.641,-38.086,-43.945,263.184,0.000
1737551380.606,88.867,-52.246,-24.902,365.723,0.000
1737551380.610,137.207,-49.805,-60.059,98.633,0.000
1737551380.614,108.887,-36.621,-76.660,-272.949,0.000
1737551380.618,98.145,-47.852,-52.246,-62.012,0.000
1737551380.622,173.340,-41.016,-66.406,371.094,0.000
1737551380.626,225.098,-52.734,-68.359,510.742,0.000
1737551380.629,199.707,-79.102,-49.316,310.059,0.000
1737551380.633,160.645,-58.594,-50.293,-95.703,0.000
1737551380.637,181.152,-54.688,-66.406,40.527,0.000
1737551380.641,205.078,-73.730,-61.035,493.652,0.000
1737551380.645,200.195,-63.965,-49.805,650.879,0.000
1737551380.649,156.738,-49.805,-48.828,462.402,0.000
1737551380.653,144.531,-62.500,-48.828,16.602,0.000
1737551380.657,173.828,-66.406,-53.223,69.824,0.000
1737551380.661,171.875,-55.176,-53.711,542.480,0.000
1737551380.665,156.250,-53.223,-41.016,738.770,0.000
1737551380.669,151.367,-58.105,-22.461,584.473,0.000
1737551380.672,136.230,-53.223,-48.828,171.387,0.000
1737551380.676,129.395,-50.781,-51.758,180.664,0.000
1737551380.680,137.695,-46.875,-38.086,623.047,0.000
1737551380.684,136.719,-44.922,-43.945,712.402,0.000
1737551380.688,104.004,-32.715,-36.133,461.914,0.000
1737551380.692,84.473,-38.574,-28.809,19.043,0.000
1737551380.696,27.344,-41.016,-34.668,-148.926,0.000
1737551380.700,62.012,-3.418,-46.875,198.730,0.000
1737551380.704,136.719,-8.301,-32.227,412.598,0.000
1737551380.708,107.422,-12.695,-26.855,292.480,0.000
1737551380.711,57.129,-0.977,-28.809,-180.176,0.000
1737551380.715,38.574,-8.301,-38.086,-481.934,0.000
1737551380.719,-17.090,38.086,-53.223,-180.664,0.000
1737551380.723,-74.707,77.637,-23.926,43.457,0.000
1737551380.727,-71.289,40.527,-16.113,-14.648,0.000
1737551380.731,-133.301,34.180,-21.973,-482.422,0.000
1737551380.735,-204.102,23.926,-9.277,-901.855,0.000
1737551380.739,-202.637,15.137,15.625,-587.402,0.000
1737551380.743,-209.961,26.855,38.086,-273.926,0.000
1737551380.747,-239.746,28.320,14.160,-291.016,0.000
1737551380.751,-285.156,25.391,2.441,-627.441,0.000
1737551380.754,-270.996,15.137,11.230,-984.863,0.000
1737551380.758,-273.438,7.324,10.254,-718.750,0.000
1737551380.762,-265.137,11.719,6.836,-285.645,0.000
1737551380.766,-242.676,15.625,6.348,-211.426,0.000
1737551380.770,-262.207,15.625,1.465,-507.324,0.000
1737551380.774,-269.531,16.113,4.395,-863.770,0.000
1737551380.778,-265.625,17.578,4.395,-631.348,0.000
1737551380.782,-254.883,13.184,2.930,-208.008,0.000
1737551380.786,-250.977,6.836,9.277,-89.844,0.000
1737551380.790,-244.629,1.465,5.859,-315.430,0.000
1737551380.793,-221.680,0.977,-3.418,-721.191,0.000
1737551380.797,-217.285,8.789,-5.371,-540.039,0.000
1737551380.801,-208.984,12.207,-6.348,-86.426,0.000
1737551380.805,-148.926,-0.977,-7.812,91.797,0.000
1737551380.809,-104.492,-8.789,-14.648,-35.156,0.000
1737551380.813,-117.676,-10.254,-18.555,-470.703,0.000
1737551380.817,-118.652,-13.184,-12.207,-399.902,0.000
1737551380.821,-56.152,-15.625,-17.578,119.141,0.000
1737551380.825,14.160,-19.531,-24.902,336.426,0.000
1737551380.829,9.277,-21.973,-41.504,174.316,0.000
1737551380.833,14.648,-33.691,-47.363,-272.949,0.000
1737551380.836,39.551,-42.969,-49.805,-278.320,0.000
1737551380.840,74.707,-41.992,-51.758,213.379,0.000
1737551380.844,104.004,-41.504,-45.898,458.496,0.000
1737551380.848,111.328,-48.340,-34.668,388.184,0.000
1737551380.852,142.578,-55.176,-47.852,-30.273,0.000
1737551380.856,147.461,-59.570,-54.199,-161.133,0.000
1737551380.860,139.160,-50.781,-46.387,274.902,0.000
1737551380.864,140.625,-55.664,-37.598,523.438,0.000
1737551380.868,158.691,-65.918,-21.973,485.840,0.000
1737551380.872,159.668,-66.406,-19.043,90.820,0.000
1737551380.876,171.387,-63.477,-45.898,-133.789,0.000
1737551380.879,172.852,-56.152,-55.176,275.391,0.000
1737551380.883,174.805,-56.641,-46.875,589.355,0.000
1737551380.887,187.500,-58.594,-31.250,624.023,0.000
1737551380.891,169.434,-57.617,-26.367,264.160,0.000
1737551380.895,137.695,-50.781,-38.574,-42.969,0.000
1737551380.899,151.367,-54.688,-29.297,297.852,0.000
1737551380.903,151.855,-57.129,-29.297,631.836,0.000
1737551380.907,134.277,-35.645,-34.180,686.035,0.000
1737551380.911,133.789,-35.156,-30.762,416.016,0.000
1737551380.915,106.445,-28.809,-20.996,67.383,0.000
1737551380.918,79.590,-12.695,-24.414,228.027,0.000
1737551380.922,67.383,-3.906,-37.598,442.383,0.000
1737551380.926,79.102,-22.949,-34.668,406.738,0.000
1737551380.930,48.340,-24.902,-15.625,63.965,0.000
1737551380.934,-34.668,-6.836,-16.113,-395.020,0.000
1737551380.938,-91.797,18.066,-22.461,-277.344,0.000
1737551380.942,-154.297,28.809,-3.418,46.875,0.000
1737551380.946,-166.992,18.066,21.484,105.469,0.000
1737551380.950,-147.949,19.043,8.789,-190.918,0.000
1737551380.954,-186.523,5.371,9.766,-659.668,0.000
1737551380.958,-206.543,-7.812,13.672,-545.898,0.000
1737551380.961,-209.961,23.438,15.625,-111.816,0.000
1737551380.965,-187.988,19.043,32.715,7.812,0.000
1737551380.969,-142.578,-13.672,17.090,-245.605,0.000
1737551380.973,-190.918,-16.113,6.348,-705.078,0.000
1737551380.977,-226.074,-7.324,11.719,-648.438,0.000
1737551380.981,-218.262,2.930,20.508,-221.680,0.000
1737551380.985,-204.590,11.230,20.020,-82.031,0.000
1737551380.989,-218.262,11.719,18.066,-218.262,0.000
1737551380.993,-255.371,17.090,21.973,-628.418,0.000
1737551380.997,-245.605,6.348,22.461,-687.988,0.000
1737551381.001,-213.379,5.859,19.531,-262.695,0.000
1737551381.004,-203.613,10.742,17.090,-5.371,0.000
1737551381.008,-166.992,9.277,19.531,-28.320,0.000
1737551381.012,-166.992,12.207,1.465,-482.910,0.000
1737551381.016,-209.961,8.301,-10.254,-657.227,0.000
1737551381.020,-207.031,2.930,1.465,-186.523,0.000
1737551381.024,-169.434,-2.930,5.859,84.473,0.000
1737551381.028,-121.582,-4.883,-0.977,49.805,0.000
1737551381.032,-114.258,-8.789,-6.348,-345.215,0.000
1737551381.036,-113.281,-13.184,-12.207,-517.578,0.000
1737551381.040,-86.426,-10.254,-24.414,-76.660,0.000
1737551381.043,-48.828,-8.301,-22.949,235.840,0.000
1737551381.047,-18.066,-13.184,-19.043,251.465,0.000
1737551381.051,-21.484,-26.855,-27.344,-139.160,0.000
1737551381.055,-27.344,-31.250,-27.832,-411.621,0.000
1737551381.059,17.578,-26.855,-29.297,-43.457,0.000
1737551381.063,76.172,-24.414,-40.039,308.105,0.000
1737551381.067,66.895,-29.297,-36.133,332.031,0.000
1737551381.071,74.219,-44.434,-37.598,-9.766,0.000
1737551381.075,114.258,-45.410,-48.340,-298.340,0.000
1737551381.079,93.750,-22.949,-60.059,47.363,0.000
1737551381.083,104.492,-38.574,-50.781,415.527,0.000
1737551381.086,187.500,-64.941,-32.715,486.328,0.000
1737551381.090,199.707,-50.293,-36.133,227.539,0.000
1737551381.094,152.832,-48.828,-35.645,-143.066,0.000
1737551381.098,160.156,-55.176,-41.016,83.496,0.000
1737551381.102,190.918,-50.781,-48.828,483.398,0.000
1737551381.106,181.152,-59.082,-36.621,513.672,0.000
1737551381.110,164.062,-62.012,-39.551,259.766,0.000
1737551381.114,155.273,-56.641,-61.523,-112.793,0.000
1737551381.118,151.855,-60.059,-54.199,64.941,0.000
1737551381.122,161.133,-41.016,-56.152,516.113,0.000
1737551381.126,158.203,-28.809,-49.316,633.301,0.000
1737551381.129,143.555,-42.480,-36.621,403.320,0.000
1737551381.133,141.602,-50.293,-38.574,2.930,0.000
1737551381.137,185.059,-40.527,-43.945,125.488,0.000
1737551381.141,199.219,-41.504,-36.133,595.703,0.000
1737551381.145,172.852,-40.527,-40.039,772.461,0.000
1737551381.149,142.090,-39.062,-40.039,646.973,0.000
1737551381.153,152.832,-40.527,-36.621,184.570,0.000
1737551381.157,132.324,-39.551,-40.527,78.613,0.000
1737551381.161,122.070,-36.133,-20.020,497.559,0.000
1737551381.165,179.199,-41.992,-35.645,667.969,0.000
1737551381.168,162.598,-58.594,-42.969,477.539,0.000
1737551381.172,86.426,-45.410,-44.434,-58.105,0.000
1737551381.176,101.074,-71.777,-31.738,-230.469,0.000
1737551381.180,155.762,-77.637,-16.113,179.199,0.000
1737551381.184,155.273,-45.898,-33.691,359.375,0.000
1737551381.188,161.133,-28.809,-39.062,244.141,0.000
1737551381.192,160.156,-47.852,-40.039,-188.477,0.000
1737551381.196,158.203,-56.152,-31.250,-324.219,0.000
1737551381.200,96.680,-11.230,2.441,38.574,0.000
1737551381.204,98.633,-8.789,-8.789,256.348,0.000
1737551381.208,174.316,-46.387,-57.129,270.996,0.000
1737551381.211,125.000,-29.297,-50.293,-141.113,0.000
1737551381.215,44.434,5.859,-26.367,-496.094,0.000
1737551381.219,32.227,-0.488,-20.508,-159.668,0.000
1737551381.223,30.762,-3.418,-31.738,153.809,0.000
1737551381.227,6.836,1.953,-13.184,97.656,0.000
1737551381.231,-38.574,14.648,-6.836,-322.754,0.000
1737551381.235,-69.824,10.742,-17.090,-677.246,0.000
1737551381.239,-87.402,16.602,-18.066,-367.676,0.000
1737551381.243,-126.953,22.461,13.184,6.348,0.000
1737551381.247,-148.926,29.785,17.578,13.672,0.000
1737551381.251,-208.984,33.203,19.043,-381.836,0.000
1737551381.254,-278.320,27.832,25.391,-734.375,0.000
1737551381.258,-282.227,16.113,36.133,-434.570,0.000
1737551381.262,-274.902,39.062,33.691,-24.902,0.000
1737551381.266,-236.328,46.387,14.160,90.820,0.000
1737551381.270,-215.332,18.555,20.020,-133.301,0.000
1737551381.274,-248.535,12.207,24.414,-527.832,0.000
1737551381.278,-269.531,41.992,34.180,-304.199,0.000
1737551381.282,-271.484,20.996,55.664,130.371,0.000
1737551381.286,-212.891,12.207,35.156,282.715,0.000
1737551381.290,-203.125,21.973,6.836,156.738,0.000
1737551381.293,-221.191,9.277,7.324,-283.203,0.000
1737551381.297,-208.008,-5.859,5.371,-239.258,0.000
1737551381.301,-186.035,-13.672,17.578,196.289,0.000
1737551381.305,-146.973,-5.371,10.742,409.668,0.000
1737551381.309,-125.488,-4.883,-2.930,301.758,0.000
1737551381.313,-144.043,4.395,-3.906,-136.230,0.000
1737551381.317,-130.859,-1.465,-2.441,-80.566,0.000
1737551381.321,-70.801,-28.320,5.859,426.758,0.000
1737551381.325,-26.367,-27.832,8.301,621.094,0.000
1737551381.329,-13.184,-12.695,-4.395,425.781,0.000
1737551381.333,8.789,-33.691,-29.785,-34.668,0.000
1737551381.336,44.922,-35.645,-34.668,-91.797,0.000
1737551381.340,64.453,-26.855,-27.832,302.734,0.000
1737551381.344,58.105,-32.715,-34.180,400.879,0.000
1737551381.348,75.195,-28.320,-46.875,271.484,0.000
1737551381.352,81.543,-44.922,-40.039,-140.625,0.000
1737551381.356,76.660,-53.711,-40.039,-291.992,0.000
1737551381.360,77.148,-41.992,-30.273,100.586,0.000
1737551381.364,131.348,-45.898,-41.504,357.422,0.000
1737551381.368,195.801,-48.340,-53.223,324.219,0.000
1737551381.372,162.109,-47.363,-38.086,-93.750,0.000
1737551381.376,111.816,-38.574,-35.156,-387.695,0.000
1737551381.379,108.398,-35.645,-41.016,-50.781,0.000
1737551381.383,124.512,-50.781,-30.762,328.125,0.000
1737551381.387,171.387,-56.152,-43.945,361.816,0.000
1737551381.391,142.578,-57.129,-51.270,-48.340,0.000
1737551381.395,105.957,-60.547,-43.457,-331.055,0.000
1737551381.399,123.535,-61.035,-41.992,34.180,0.000
1737551381.403,130.859,-49.316,-43.457,373.047,0.000
1737551381.407,111.816,-39.062,-37.598,396.484,0.000
1737551381.411,85.449,-40.039,-30.762,95.215,0.000
1737551381.415,66.895,-28.320,-38.086,-278.320,0.000
1737551381.418,67.871,-34.180,-36.133,16.113,0.000
1737551381.422,108.887,-48.340,-37.598,411.621,0.000
1737551381.426,99.609,-48.828,-35.645,371.582,0.000
1737551381.430,81.055,-49.805,-30.273,83.984,0.000
1737551381.434,67.383,-41.992,-33.691,-309.570,0.000
1737551381.438,57.129,-45.410,-34.668,-214.355,0.000
1737551381.442,70.801,-51.758,-30.762,150.391,0.000
1737551381.446,60.059,-44.922,-30.273,215.820,0.000
1737551381.450,52.734,-40.527,-20.020,-53.223,0.000
1737551381.454,25.391,-43.457,-11.719,-507.812,0.000
1737551381.458,-11.719,-35.156,-35.645,-419.434,0.000
1737551381.461,14.160,-17.090,-35.645,-20.996,0.000
1737551381.465,18.555,-14.160,-25.879,110.352,0.000
1737551381.469,33.691,-50.781,-20.020,-79.102,0.000
1737551381.473,37.598,-44.434,-25.391,-521.484,0.000
1737551381.477,7.324,-5.859,-21.973,-447.266,0.000
1737551381.481,68.359,-39.551,-35.156,41.016,0.000
1737551381.485,99.121,-47.363,-43.945,207.031,0.000
1737551381.489,78.125,-24.902,-24.414,41.992,0.000
1737551381.493,13.672,-24.414,-19.531,-417.480,0.000
1737551381.497,-3.418,-25.391,-19.043,-444.824,0.000
1737551381.500,58.105,-31.250,-10.254,34.668,0.000
1737551381.504,78.125,-28.809,-23.926,224.609,0.000
1737551381.508,49.805,-10.254,-19.531,90.332,0.000
1737551381.512,37.109,-7.324,-17.090,-338.379,0.000
1737551381.516,-52.246,-7.812,-26.367,-532.715,0.000
1737551381.520,-85.449,15.137,11.719,-133.301,0.000
1737551381.524,-26.367,10.254,0.977,122.070,0.000
1737551381.528,-62.988,13.672,-35.645,20.020,0.000
1737551381.532,-83.984,7.324,-9.766,-387.207,0.000
1737551381.536,-124.023,19.043,-6.836,-612.305,0.000
1737551381.540,-168.945,35.156,-2.930,-289.062,0.000
1737551381.543,-209.473,10.254,6.836,-44.922,0.000
1737551381.547,-256.836,44.922,13.184,-78.125,0.000
1737551381.551,-325.684,52.734,38.086,-504.883,0.000
1737551381.555,-320.312,26.855,-5.859,-745.605,0.000
1737551381.559,-269.043,22.949,0.977,-228.516,0.000
1737551381.563,-276.367,39.551,33.691,139.160,0.000
1737551381.567,-320.312,63.477,32.227,60.547,0.000
1737551381.571,-355.469,29.785,30.762,-300.293,0.000
1737551381.575,-293.945,15.137,12.695,-568.848,0.000
1737551381.579,-246.582,24.414,17.090,-244.141,0.000
1737551381.583,-236.816,23.926,13.672,122.070,0.000
1737551381.586,-248.535,29.297,7.812,176.270,0.000
1737551381.590,-256.348,14.160,14.160,-93.262,0.000
1737551381.594,-247.559,17.090,10.254,-453.613,0.000
1737551381.598,-263.184,37.598,15.625,-213.867,0.000
1737551381.602,-265.137,11.719,34.668,190.918,0.000
1737551381.606,-220.703,7.812,35.645,254.883,0.000
1737551381.610,-188.477,10.742,18.066,33.203,0.000
1737551381.614,-186.523,1.953,-0.977,-360.352,0.000
1737551381.618,-166.504,14.160,-1.465,-210.449,0.000
1737551381.622,-162.109,23.438,0.000,174.316,0.000
1737551381.625,-173.828,18.555,-3.906,216.797,0.000
1737551381.629,-177.246,13.184,6.836,-16.602,0.000
1737551381.633,-179.688,9.277,2.930,-444.824,0.000
1737551381.637,-172.852,13.672,3.418,-350.586,0.000
1737551381.641,-148.926,19.531,0.000,98.633,0.000
1737551381.645,-112.305,4.395,-13.672,299.316,0.000
1737551381.649,-95.703,2.930,-5.371,122.070,0.000
1737551381.653,-112.793,2.930,-8.789,-387.695,0.000
1737551381.657,-129.395,-1.953,-8.789,-377.441,0.000
1737551381.661,-117.676,-4.395,-6.836,105.957,0.000
1737551381.665,-97.656,-1.953,-12.207,296.387,0.000
1737551381.668,-68.848,-7.812,-7.812,140.625,0.000
1737551381.672,-104.492,-10.254,-16.602,-399.902,0.000
1737551381.676,-105.469,-13.184,-29.297,-515.137,0.000
1737551381.680,-43.945,-20.996,-17.090,-6.836,0.000
1737551381.684,-18.555,-23.438,-26.367,203.125,0.000
1737551381.688,-2.441,-26.855,-33.691,103.516,0.000
1737551381.692,-15.137,-22.461,-36.621,-281.738,0.000
1737551381.696,-21.484,-26.855,-41.992,-473.145,0.000
1737551381.700,39.551,-36.621,-44.922,-81.543,0.000
1737551381.704,96.680,-41.504,-41.992,176.270,0.000
1737551381.708,121.094,-38.574,-41.504,148.926,0.000
1737551381.711,113.281,-44.922,-37.598,-166.016,0.000
1737551381.715,101.074,-52.246,-43.945,-386.719,0.000
1737551381.719,89.844,-35.156,-50.293,-43.945,0.000
1737551381.723,133.789,-45.410,-49.805,304.199,0.000
1737551381.727,155.762,-52.734,-35.645,315.918,0.000
1737551381.731,139.648,-51.270,-41.016,-52.246,0.000
1737551381.735,157.715,-52.246,-59.082,-323.242,0.000
1737551381.739,157.227,-45.410,-53.711,25.879,0.000
1737551381.743,149.414,-53.223,-43.457,358.398,0.000
1737551381.747,177.734,-53.711,-41.016,376.953,0.000
1737551381.750,186.035,-48.340,-46.387,110.352,0.000
1737551381.754,143.066,-51.758,-49.316,-243.164,0.000
1737551381.758,137.695,-44.434,-42.969,6.348,0.000
1737551381.762,165.527,-34.668,-34.668,402.832,0.000
1737551381.766,147.461,-39.062,-14.160,423.340,0.000
1737551381.770,167.969,-50.293,-31.738,170.898,0.000
1737551381.774,175.781,-57.617,-51.758,-203.125,0.000
1737551381.778,140.625,-51.270,-40.527,-48.828,0.000
1737551381.782,139.648,-44.922,-39.551,369.629,0.000
1737551381.786,160.645,-49.805,-38.086,508.301,0.000
1737551381.790,151.367,-45.410,-32.715,291.992,0.000
1737551381.793,110.352,-43.457,-33.203,-150.391,0.000
1737551381.797,104.492,-46.387,-38.574,-71.777,0.000
1737551381.801,116.699,-43.945,-35.156,348.633,0.000
1737551381.805,115.234,-44.434,-30.762,509.766,0.000
1737551381.809,93.262,-48.340,-16.113,343.750,0.000
1737551381.813,78.613,-47.363,-2.441,-155.762,0.000
1737551381.817,104.492,-46.387,-33.203,-102.539,0.000
1737551381.821,125.488,-39.551,-52.734,412.109,0.000
1737551381.825,117.188,-41.992,-34.180,603.027,0.000
1737551381.829,84.473,-25.391,-35.156,480.469,0.000
1737551381.833,68.359,-0.977,-38.574,7.324,0.000
1737551381.836,88.867,-52.246,-20.508,-60.547,0.000
1737551381.840,123.535,-61.035,-14.648,418.945,0.000
1737551381.844,119.141,-39.551,-19.043,583.496,0.000
1737551381.848,109.863,-43.457,-21.484,393.066,0.000
1737551381.852,78.613,-33.691,-30.273,-78.125,0.000
1737551381.856,40.039,-30.762,-27.832,-250.977,0.000
1737551381.860,41.504,-29.297,-25.879,131.348,0.000
1737551381.864,49.316,-42.969,-26.367,337.402,0.000
1737551381.868,101.074,-42.969,-18.555,259.277,0.000
1737551381.872,124.512,-25.391,-33.691,-130.859,0.000
1737551381.875,88.379,-25.879,-36.621,-352.539,0.000
1737551381.879,67.383,-23.438,-20.508,-11.230,0.000
1737551381.883,77.637,-15.137,-16.602,226.562,0.000
1737551381.887,95.703,-21.484,-19.531,170.410,0.000
1737551381.891,59.082,-24.414,-18.555,-232.910,0.000
1737551381.895,20.996,-28.320,-18.555,-579.590,0.000
1737551381.899,22.949,-25.879,-12.207,-213.379,0.000
1737551381.903,26.855,-14.648,-19.531,126.465,0.000
1737551381.907,33.203,-12.695,-15.137,106.445,0.000
1737551381.911,28.809,-30.762,1.953,-169.922,0.000
1737551381.915,16.113,-27.344,-25.879,-524.414,0.000
1737551381.918,38.086,-26.367,-38.086,-256.836,0.000
1737551381.922,53.711,-29.297,-24.414,187.012,0.000
1737551381.926,45.898,-23.926,-15.137,285.156,0.000
1737551381.930,32.715,-17.578,-18.066,-8.789,0.000
1737551381.934,3.418,-19.043,-22.949,-469.238,0.000
1737551381.938,0.000,-27.344,-24.902,-288.086,0.000
1737551381.942,20.508,-20.508,-19.043,180.176,0.000
1737551381.946,11.230,-12.207,-13.672,341.309,0.000
1737551381.950,-29.785,-18.555,-14.648,96.680,0.000
1737551381.954,-5.859,-36.133,-24.414,-341.309,0.000
1737551381.958,21.484,-19.531,-38.086,-167.480,0.000
1737551381.961,11.719,-12.695,-13.184,313.965,0.000
1737551381.965,32.227,-32.715,-7.324,472.168,0.000
1737551381.969,35.156,-24.414,-34.180,255.859,0.000
1737551381.973,-2.930,-17.578,-33.203,-174.805,0.000
1737551381.977,7.324,-24.902,-27.344,-136.230,0.000
1737551381.981,30.273,-23.926,-25.879,240.723,0.000
1737551381.985,14.648,-19.531,-22.949,354.004,0.000
1737551381.989,-25.879,-25.879,-18.555,170.410,0.000
1737551381.993,-41.016,-23.926,-19.531,-256.348,0.000
1737551381.997,-10.742,-15.137,-20.020,-298.828,0.000
1737551382.000,22.949,-28.320,-8.789,145.020,0.000
1737551382.004,28.320,-20.996,-27.832,394.531,0.000
1737551382.008,14.648,-14.648,-32.715,273.438,0.000
1737551382.012,-10.742,-18.066,-26.855,-172.363,0.000
1737551382.016,-21.973,-19.531,-19.531,-309.570,0.000
1737551382.020,-0.488,-14.648,-11.719,113.770,0.000
1737551382.024,20.508,-5.859,-14.648,383.789,0.000
1737551382.028,12.207,-16.602,-19.043,290.527,0.000
1737551382.032,-31.738,-20.996,-20.996,-181.152,0.000
1737551382.036,-52.246,-24.902,-8.789,-424.316,0.000
1737551382.040,-40.527,-24.414,-5.859,25.391,0.000
1737551382.043,-17.578,-17.090,-27.832,328.125,0.000
1737551382.047,6.348,-18.066,-29.785,242.188,0.000
1737551382.051,-20.020,-23.438,-11.719,-167.480,0.000
1737551382.055,-37.598,-15.137,-9.277,-457.031,0.000
1737551382.059,-12.207,-20.996,-3.906,-129.883,0.000
1737551382.063,-18.555,6.348,-7.812,164.062,0.000
1737551382.067,-22.461,6.348,-10.254,145.020,0.000
1737551382.071,-30.762,-11.230,2.441,-202.148,0.000
1737551382.075,-92.285,6.836,14.648,-572.266,0.000
1737551382.079,-90.332,14.160,11.230,-324.707,0.000
1737551382.082,-107.910,31.250,-13.184,-27.344,0.000
1737551382.086,-117.676,58.594,-9.277,-33.203,0.000
1737551382.090,-111.816,40.039,13.184,-333.984,0.000
1737551382.094,-220.215,12.207,7.812,-849.609,0.000
1737551382.098,-277.832,22.461,6.836,-711.914,0.000
1737551382.102,-313.965,48.828,20.996,-325.195,0.000
1737551382.106,-343.750,54.199,36.133,-262.207,0.000
1737551382.110,-335.938,33.691,38.574,-509.766,0.000
1737551382.114,-353.027,45.898,21.484,-937.500,0.000
1737551382.118,-353.027,59.082,22.461,-787.598,0.000
1737551382.122,-319.336,52.734,30.273,-303.711,0.000
1737551382.125,-322.266,57.617,20.508,-131.836,0.000
1737551382.129,-346.680,58.105,20.020,-307.129,0.000
1737551382.133,-360.840,43.945,20.020,-731.445,0.000
1737551382.137,-370.605,51.758,17.090,-663.086,0.000
1737551382.141,-333.496,63.965,13.184,-206.543,0.000
1737551382.145,-293.457,43.457,10.742,-62.988,0.000
1737551382.149,-279.785,38.574,-0.977,-210.938,0.000
1737551382.153,-298.828,42.480,0.488,-629.395,0.000
1737551382.157,-283.691,11.719,4.883,-688.477,0.000
1737551382.161,-249.512,13.184,7.324,-205.566,0.000
1737551382.165,-221.191,27.832,19.043,56.152,0.000
1737551382.168,-204.102,17.090,10.742,-67.871,0.000
1737551382.172,-224.121,17.578,3.906,-498.047,0.000
1737551382.176,-248.047,30.762,-0.488,-598.145,0.000
1737551382.180,-209.473,29.785,2.930,-150.391,0.000
1737551382.184,-156.250,19.043,11.719,134.277,0.000
1737551382.188,-158.203,12.207,11.230,75.195,0.000
1737551382.192,-153.320,7.324,0.977,-306.152,0.000
1737551382.196,-154.785,14.160,-1.953,-460.449,0.000
1737551382.200,-162.598,14.160,-2.930,-63.965,0.000
1737551382.204,-88.867,3.418,-7.812,248.047,0.000
1737551382.207,-83.984,13.672,-18.555,232.910,0.000
1737551382.211,-79.102,-19.531,-15.137,-90.332,0.000
1737551382.215,-47.852,-31.250,-13.184,-313.965,0.000
1737551382.219,-34.668,-15.137,-21.484,70.801,0.000
1737551382.223,-13.672,-20.508,-13.184,432.617,0.000
1737551382.227,4.395,-22.949,-11.719,435.547,0.000
1737551382.231,14.648,-29.297,-35.156,91.309,0.000
1737551382.235,16.602,-34.668,-42.969,-236.328,0.000
1737551382.239,35.645,-34.180,-41.016,70.312,0.000
1737551382.243,52.246,-45.410,-35.645,419.922,0.000
1737551382.247,67.383,-53.711,-32.227,445.312,0.000
1737551382.250,83.008,-54.199,-34.668,173.340,0.000
1737551382.254,72.754,-49.805,-39.551,-201.660,0.000
1737551382.258,82.520,-51.758,-44.434,32.227,0.000
1737551382.262,88.379,-51.758,-40.527,387.207,0.000
1737551382.266,115.234,-56.641,-17.578,444.336,0.000
1737551382.270,152.832,-55.664,-40.039,232.422,0.000
1737551382.274,117.188,-50.293,-54.688,-149.414,0.000
1737551382.278,92.773,-50.293,-43.945,-8.789,0.000
1737551382.282,113.281,-38.086,-52.734,369.629,0.000
1737551382.286,149.414,-49.316,-51.758,514.648,0.000
1737551382.290,142.578,-49.316,-42.969,309.082,0.000
1737551382.293,111.328,-45.410,-45.898,-182.617,0.000
1737551382.297,145.996,-49.805,-43.457,-97.168,0.000
1737551382.301,182.617,-44.434,-39.551,373.535,0.000
1737551382.305,165.039,-41.504,-40.527,491.211,0.000
1737551382.309,170.410,-34.180,-39.551,356.445,0.000
1737551382.313,142.090,-34.180,-43.457,-116.211,0.000
1737551382.317,115.723,-40.527,-35.156,-195.312,0.000
1737551382.321,138.672,-43.457,-26.367,250.977,0.000
1737551382.325,145.020,-38.574,-41.504,453.125,0.000
1737551382.329,162.109,-39.062,-47.852,293.457,0.000
1737551382.332,111.328,-57.617,-35.156,-187.988,0.000
1737551382.336,108.887,-55.176,-33.203,-231.934,0.000
1737551382.340,159.180,-42.480,-41.016,239.258,0.000
1737551382.344,148.438,-35.645,-36.133,430.664,0.000
1737551382.348,162.109,-36.621,-27.344,331.543,0.000
1737551382.352,145.020,-47.852,-28.320,-98.145,0.000
1737551382.356,89.844,-46.875,-22.949,-313.965,0.000
1737551382.360,95.703,-42.480,-12.695,119.141,0.000
1737551382.364,116.699,-32.227,-30.762,379.395,0.000
1737551382.368,109.863,-40.527,-30.273,296.387,0.000
1737551382.372,82.031,-43.457,-33.203,-120.117,0.000
1737551382.375,76.172,-41.016,-35.156,-421.387,0.000
1737551382.379,82.520,-33.203,-34.180,-78.613,0.000
1737551382.383,85.938,-29.785,-35.156,187.012,0.000
1737551382.387,104.980,-47.363,-20.508,147.461,0.000
1737551382.391,93.262,-47.852,-23.438,-227.539,0.000
1737551382.395,8.789,-39.551,-24.414,-549.805,0.000
1737551382.399,-21.484,-30.273,-9.766,-262.207,0.000
1737551382.403,56.152,-32.715,-30.273,112.793,0.000
1737551382.407,66.895,-34.180,-29.297,165.039,0.000
1737551382.411,53.711,-28.809,-26.855,-178.223,0.000
1737551382.415,37.598,-29.297,-39.062,-523.438,0.000
1737551382.418,35.645,-29.785,-33.691,-249.512,0.000
1737551382.422,69.824,-28.320,-27.344,137.695,0.000
1737551382.426,81.543,-25.391,-26.855,187.988,0.000
1737551382.430,51.270,-33.203,-24.902,-87.402,0.000
1737551382.434,12.695,-31.250,-23.926,-483.887,0.000
1737551382.438,17.090,-30.273,-37.109,-268.555,0.000
1737551382.442,25.391,-31.738,-29.785,173.828,0.000
1737551382.446,45.410,-35.156,-20.508,298.340,0.000
1737551382.450,57.129,-31.250,-20.508,84.961,0.000
1737551382.454,31.250,-29.297,-18.066,-360.352,0.000
1737551382.457,13.672,-32.715,-25.879,-267.090,0.000
1737551382.461,26.367,-25.879,-27.344,210.449,0.000
1737551382.465,31.738,-23.438,-19.043,374.023,0.000
1737551382.469,38.574,-29.785,-22.461,172.363,0.000
1737551382.473,6.348,-27.344,-31.250,-256.836,0.000
1737551382.477,-20.508,-20.020,-29.297,-183.105,0.000
1737551382.481,-13.184,-25.879,-25.391,295.898,0.000
1737551382.485,9.766,-28.809,-20.020,502.441,0.000
1737551382.489,26.855,-23.438,-18.066,341.309,0.000
1737551382.493,-15.625,-22.949,-29.297,-148.926,0.000
1737551382.497,-23.926,-28.320,-21.484,-187.500,0.000
1737551382.500,30.762,-33.203,-6.836,284.180,0.000
1737551382.504,31.738,-26.855,-14.648,527.832,0.000
1737551382.508,30.762,-22.461,-5.371,479.492,0.000
1737551382.512,37.109,-22.949,-6.348,41.504,0.000
1737551382.516,-8.789,-22.949,-20.508,-147.949,0.000
1737551382.520,-3.906,-23.926,-12.695,279.785,0.000
1737551382.524,25.391,-21.484,-9.277,530.762,0.000
1737551382.528,24.414,-16.602,-11.230,456.055,0.000
1737551382.532,-9.277,-13.184,-9.766,17.578,0.000
1737551382.536,-15.625,-12.695,-16.113,-286.133,0.000
1737551382.540,11.719,-19.043,-22.949,35.156,0.000
1737551382.543,12.207,-23.926,-21.973,289.062,0.000
1737551382.547,3.906,-13.184,-11.719,258.301,0.000
1737551382.551,-5.371,-5.371,-20.020,-129.883,0.000
1737551382.555,-3.418,-20.508,-23.926,-437.988,0.000
1737551382.559,-3.418,-24.902,-15.137,-100.098,0.000
1737551382.563,-3.906,-21.973,-5.371,169.434,0.000
1737551382.567,-4.395,-19.043,-7.812,152.832,0.000
1737551382.571,-25.391,-20.508,-28.320,-135.742,0.000
1737551382.575,-45.898,-22.949,-24.902,-482.422,0.000
1737551382.579,-23.926,-19.531,-14.648,-187.500,0.000
1737551382.582,-3.418,-18.066,-7.812,223.145,0.000
1737551382.586,-2.441,-14.648,-9.766,270.020,0.000
1737551382.590,-15.625,-18.066,-13.184,-30.273,0.000
1737551382.594,-34.668,-18.555,-13.672,-427.246,0.000
1737551382.598,-13.672,-20.996,-20.996,-198.730,0.000
1737551382.602,-3.418,-23.926,-17.090,212.402,0.000
1737551382.606,-23.438,-21.484,5.371,293.945,0.000
1737551382.610,-48.828,-22.461,-11.230,42.969,0.000
1737551382.614,-33.691,-20.508,-31.738,-368.164,0.000
1737551382.618,2.930,-20.996,-23.926,-174.316,0.000
1737551382.622,-8.789,-6.836,-28.320,265.625,0.000
1737551382.625,-1.953,-15.625,-19.531,378.906,0.000
1737551382.629,34.180,-36.621,-12.695,257.324,0.000
1737551382.633,20.508,-33.691,-21.973,-157.227,0.000
1737551382.637,-29.785,-27.832,-22.461,-156.250,0.000
1737551382.641,-18.555,-31.250,-15.137,256.348,0.000
1737551382.645,0.000,-29.297,-11.230,422.363,0.000
1737551382.649,-10.742,-22.461,-12.695,251.465,0.000
1737551382.653,-36.621,-22.949,-9.766,-215.820,0.000
1737551382.657,-52.734,-19.531,-10.254,-260.742,0.000
1737551382.661,-6.348,-20.996,-9.277,176.758,0.000
1737551382.665,19.531,-22.461,-4.883,370.117,0.000
1737551382.668,-8.301,-21.484,-9.766,233.887,0.000
1737551382.672,-36.133,-27.832,-18.555,-238.281,0.000
1737551382.676,-53.223,-23.438,-18.066,-352.051,0.000
1737551382.680,-46.387,-20.508,-18.555,75.684,0.000
1737551382.684,-16.602,-21.973,-10.254,303.223,0.000
1737551382.688,8.789,-24.414,-10.742,260.742,0.000
1737551382.692,-8.789,-19.531,-21.973,-147.949,0.000
1737551382.696,-29.785,-16.602,-15.625,-392.578,0.000
1737551382.700,-44.922,-17.578,-6.836,-30.762,0.000
1737551382.704,-51.270,-15.137,-14.160,265.625,0.000
1737551382.707,-23.438,-13.672,-12.695,272.461,0.000
1737551382.711,-32.227,-5.859,-14.160,-145.508,0.000
1737551382.715,-41.992,-12.695,-22.461,-465.332,0.000
1737551382.719,-41.992,-17.578,-21.484,-126.953,0.000
1737551382.723,-32.715,-24.902,-4.883,215.332,0.000
1737551382.727,-3.418,-23.438,-4.883,239.746,0.000
1737551382.731,-22.461,-16.113,-7.812,-143.066,0.000
1737551382.735,-46.387,-31.738,-17.090,-509.277,0.000
1737551382.739,-28.320,-19.043,-23.438,-199.219,0.000
1737551382.743,-17.578,-15.137,-11.719,187.012,0.000
1737551382.747,-26.367,-28.320,-4.395,215.820,0.000
1737551382.750,-33.691,-22.461,-6.836,-90.332,0.000
1737551382.754,-31.738,-18.555,-16.602,-499.023,0.000
1737551382.758,-21.484,-16.113,-13.672,-278.809,0.000
1737551382.762,-19.043,-11.230,-8.301,117.188,0.000
1737551382.766,-14.648,-14.648,-13.672,177.734,0.000
1737551382.770,-13.184,-14.648,-11.230,-58.594,0.000
1737551382.774,-29.297,-11.230,-14.160,-533.691,0.000
1737551382.778,-0.488,-20.996,-20.020,-416.016,0.000
1737551382.782,6.348,-25.879,-10.742,15.137,0.000
1737551382.786,20.996,-18.066,-13.184,125.977,0.000
1737551382.789,10.742,-7.812,-14.648,-82.520,0.000
1737551382.793,-33.691,-15.625,-20.996,-541.504,0.000
1737551382.797,-24.902,-26.855,-20.508,-477.539,0.000
1737551382.801,-21.484,-15.625,-19.531,-41.992,0.000
1737551382.805,-13.672,-15.137,-22.949,125.488,0.000
1737551382.809,-9.277,-24.414,-17.578,1.465,0.000
1737551382.813,-33.203,-28.809,-23.926,-419.434,0.000
1737551382.817,-66.406,-12.207,-31.738,-478.516,0.000
1737551382.821,-40.527,-3.906,-23.438,-24.902,0.000
1737551382.825,19.531,-20.508,-21.973,255.859,0.000
1737551382.829,-8.301,-18.555,-19.531,121.094,0.000
1737551382.832,-37.109,-15.137,-19.531,-303.223,0.000
1737551382.836,-9.277,-21.484,-22.949,-342.285,0.000
1737551382.840,-2.441,-27.344,-21.973,73.730,0.000
1737551382.844,-3.418,-16.113,-26.855,269.043,0.000
1737551382.848,2.441,-6.348,-22.949,198.242,0.000
1737551382.852,-25.391,-15.137,-21.484,-227.051,0.000
1737551382.856,-41.504,-17.578,-23.438,-399.902,0.000
1737551382.860,-27.832,-19.043,-24.414,23.926,0.000
1737551382.864,-10.742,-17.090,-17.090,291.992,0.000
1737551382.868,-6.836,-7.812,-14.648,245.605,0.000
1737551382.872,-2.441,-7.324,-20.508,-78.125,0.000
1737551382.875,2.441,-13.672,-18.555,-278.320,0.000
1737551382.879,-22.461,-12.695,-2.441,82.031,0.000
1737551382.883,-57.129,-3.418,-2.441,405.273,0.000
1737551382.887,-24.902,2.441,-21.484,385.254,0.000
1737551382.891,35.645,-15.625,-21.973,22.949,0.000
1737551382.895,-2.930,-12.695,-20.020,-276.367,0.000
1737551382.899,-32.715,6.348,-26.855,58.594,0.000
1737551382.903,20.020,-19.043,-12.207,415.039,0.000
1737551382.907,4.883,-22.949,-8.789,442.383,0.000
1737551382.911,3.906,-20.020,-20.996,127.930,0.000
1737551382.914,-1.465,-25.879,-18.066,-217.285,0.000
1737551382.918,-21.973,-15.625,-19.043,47.852,0.000
1737551382.922,-32.227,-17.090,-20.508,409.668,0.000
1737551382.926,-1.465,-24.414,-13.672,485.840,0.000
1737551382.930,5.859,-16.602,-8.789,258.301,0.000
1737551382.934,-54.199,-15.137,-12.207,-146.973,0.000
1737551382.938,-62.500,-16.602,-17.578,-19.043,0.000
1737551382.942,-6.348,-21.484,-15.625,370.605,0.000
1737551382.946,-2.441,-24.414,-14.648,381.348,0.000
1737551382.950,-14.160,-22.949,-15.137,87.891,0.000
1737551382.954,-28.320,-24.414,-16.602,-336.914,0.000
1737551382.957,-36.133,-16.602,-17.090,-247.070,0.000
1737551382.961,-17.578,-16.602,-11.230,177.246,0.000
1737551382.965,2.441,-19.043,-7.324,326.172,0.000
1737551382.969,-6.836,-18.066,-8.789,153.320,0.000
1737551382.973,-46.387,-18.555,-16.113,-319.336,0.000
1737551382.977,-57.617,-9.766,-24.414,-311.523,0.000
1737551382.981,-9.277,-18.555,-21.973,147.949,0.000
1737551382.985,-27.832,-10.742,-15.625,260.742,0.000
1737551382.989,-42.480,-15.137,-23.926,100.586,0.000
1737551382.993,-9.277,-31.738,-24.902,-304.688,0.000
1737551382.997,1.465,-26.855,-12.207,-373.047,0.000
1737551383.000,-0.977,-12.695,-15.625,35.156,0.000
1737551383.004,-13.184,-9.277,-18.555,227.051,0.000
1737551383.008,3.418,-20.508,-15.625,129.395,0.000
1737551383.012,5.371,-23.438,-19.531,-301.270,0.000
1737551383.016,-8.301,-19.531,-20.508,-466.797,0.000
1737551383.020,-20.020,-12.207,-15.625,-42.969,0.000
1737551383.024,-10.742,-21.973,-11.230,240.723,0.000
1737551383.028,-7.324,-15.137,-17.090,171.387,0.000
1737551383.032,-65.430,2.441,-24.902,-273.438,0.000
1737551383.036,-59.570,-23.926,-19.531,-486.816,0.000
1737551383.039,-3.418,-25.879,-21.484,-104.492,0.000
1737551383.043,14.160,-21.973,-18.066,194.824,0.000
1737551383.047,-35.156,-15.137,-9.766,142.090,0.000
1737551383.051,-70.801,9.277,-13.672,-259.766,0.000
1737551383.055,-2.441,-21.973,-17.578,-491.211,0.000
1737551383.059,20.996,-39.551,-12.695,-159.180,0.000
1737551383.063,0.000,-19.531,-13.184,127.441,0.000
1737551383.067,8.789,-13.184,-10.742,129.883,0.000
1737551383.071,16.113,-20.508,-16.602,-122.559,0.000
1737551383.075,-24.414,-24.902,-18.066,-471.191,0.000
1737551383.079,-24.902,-23.438,-14.160,-236.328,0.000
1737551383.082,-22.461,-20.508,-14.160,171.387,0.000
1737551383.086,-49.805,-19.043,-13.672,213.867,0.000
1737551383.090,-27.344,-15.625,-17.090,-55.664,0.000
1737551383.094,-20.996,-5.859,-21.484,-452.637,0.000
1737551383.098,-15.625,-0.977,-18.066,-279.785,0.000
1737551383.102,31.250,-12.695,-7.812,154.297,0.000
1737551383.106,28.809,-27.832,-11.719,198.730,0.000
1737551383.110,-7.812,-22.461,-20.996,-34.668,0.000
1737551383.114,-20.996,-13.672,-26.367,-427.734,0.000
1737551383.118,-31.250,-28.320,-11.719,-333.496,0.000
1737551383.122,-17.578,-23.438,-29.785,138.184,0.000
1737551383.125,-12.207,-12.695,-39.062,257.812,0.000
1737551383.129,-4.883,-19.531,-24.902,48.828,0.000
1737551383.133,-24.414,-27.832,-25.879,-383.789,0.000
1737551383.137,-56.152,-22.949,-18.555,-354.980,0.000
1737551383.141,-17.090,-20.508,-24.414,77.637,0.000
1737551383.145,-13.672,-21.484,-20.508,254.883,0.000
1737551383.149,-27.344,-13.184,-11.719,127.930,0.000
1737551383.153,-33.691,-9.277,-20.996,-356.445,0.000
1737551383.157,-47.363,-21.973,-28.320,-451.172,0.000
1737551383.161,-40.527,-17.578,-27.344,26.367,0.000
1737551383.164,-46.387,-7.812,-13.184,294.922,0.000
1737551383.168,-0.977,-18.555,-10.254,246.094,0.000
1737551383.172,-4.395,-21.484,-20.020,-257.324,0.000
1737551383.176,-51.270,-19.043,-20.508,-448.730,0.000
1737551383.180,-34.668,-16.113,-23.926,10.254,0.000
1737551383.184,-20.996,-10.742,-20.996,256.348,0.000
1737551383.188,-35.156,-19.531,-10.254,136.230,0.000
1737551383.192,-51.270,-18.066,-14.648,-255.371,0.000
1737551383.196,-45.898,-8.789,-19.043,-441.895,0.000
1737551383.200,-3.906,-26.367,-14.160,-76.172,0.000
1737551383.204,3.418,-31.250,-15.137,221.191,0.000
1737551383.207,6.836,-20.996,-16.113,223.633,0.000
1737551383.211,-1.465,-16.113,-14.648,-81.055,0.000
1737551383.215,-23.438,-14.648,-18.066,-332.520,0.000
1737551383.219,-28.809,-15.137,-16.602,-59.570,0.000
1737551383.223,-34.180,-15.137,-9.766,219.727,0.000
1737551383.227,-12.695,-13.184,-2.930,253.418,0.000
1737551383.231,-21.484,-16.113,-4.883,-82.031,0.000
1737551383.235,-40.039,-15.137,-14.648,-381.348,0.000
1737551383.239,-21.484,-9.766,-13.184,-49.316,0.000
1737551383.243,-13.184,-5.859,-6.348,294.922,0.000
1737551383.247,-15.625,-5.859,-12.207,294.434,0.000
1737551383.250,-12.695,-6.348,-9.277,1.953,0.000
1737551383.254,-17.578,-8.789,-9.766,-364.746,0.000
1737551383.258,-0.977,-11.719,-10.254,-137.207,0.000
1737551383.262,11.719,-9.766,-6.836,252.441,0.000
1737551383.266,8.301,-9.277,-10.254,298.828,0.000
1737551383.270,5.371,-8.301,-15.137,63.477,0.000
1737551383.274,-21.973,-15.625,-15.625,-354.980,0.000
1737551383.278,-37.598,-20.508,-10.254,-190.918,0.000
1737551383.282,-27.832,-13.184,-7.812,248.535,0.000
1737551383.286,-18.555,-13.672,-9.766,333.008,0.000
1737551383.289,-14.160,-23.438,-8.789,119.141,0.000
1737551383.293,-28.320,-19.531,-10.254,-317.871,0.000
1737551383.297,-53.223,-17.578,-12.695,-266.113,0.000
1737551383.301,-39.062,-17.578,-12.695,162.109,0.000
1737551383.305,-2.930,-12.207,-8.301,320.312,0.000
1737551383.309,-10.742,-19.043,-3.418,154.785,0.000
1737551383.313,-42.480,-26.367,-11.719,-312.012,0.000
1737551383.317,-31.250,-20.020,-18.555,-306.152,0.000
1737551383.321,0.977,-14.160,-10.742,136.230,0.000
1737551383.325,-18.555,-11.719,-4.395,300.781,0.000
1737551383.329,-53.711,-7.812,-2.930,161.621,0.000
1737551383.332,-40.039,-14.648,1.953,-266.602,0.000
1737551383.336,-12.207,-20.020,-10.254,-337.402,0.000
1737551383.340,-27.344,-14.160,-14.160,62.012,0.000
1737551383.344,-27.344,-16.113,-10.254,248.535,0.000
1737551383.348,-14.648,-25.391,-15.137,157.715,0.000
1737551383.352,-36.133,-28.809,-16.113,-243.652,0.000
1737551383.356,-51.270,-20.996,-18.555,-417.480,0.000
1737551383.360,-41.992,-16.113,-20.996,-66.895,0.000
1737551383.364,-10.254,-19.531,-23.926,189.941,0.000
1737551383.368,-1.953,-16.602,-21.973,194.824,0.000
1737551383.371,-48.828,-13.672,-19.043,-187.012,0.000
1737551383.375,-68.359,-18.555,-13.672,-447.754,0.000
1737551383.379,-17.090,-14.160,-17.090,-62.012,0.000
1737551383.383,-11.719,-11.230,-7.812,242.188,0.000
1737551383.387,-27.344,-3.906,-3.418,272.461,0.000
1737551383.391,-25.391,-5.371,-14.160,-81.055,0.000
1737551383.395,-15.137,-18.555,-15.137,-403.320,0.000
1737551383.399,-9.277,-16.602,-13.184,-54.688,0.000
1737551383.403,-2.441,-13.672,-18.066,283.203,0.000
1737551383.407,-8.301,-20.020,-17.090,267.090,0.000
1737551383.411,-28.809,-23.926,-12.207,-46.387,0.000
1737551383.414,-52.734,-22.949,-15.625,-391.113,0.000
1737551383.418,-41.016,-14.160,-19.531,-133.789,0.000
1737551383.422,-19.531,-10.254,-13.672,300.293,0.000
1737551383.426,-17.578,-17.090,-5.371,389.648,0.000
1737551383.430,-9.766,-27.344,-2.441,104.004,0.000
1737551383.434,-35.156,-25.879,-13.184,-308.105,0.000
1737551383.438,-15.625,-8.301,-22.461,-135.742,0.000
1737551383.442,-20.020,-4.395,-5.371,315.918,0.000
1737551383.446,-54.688,0.977,0.000,487.793,0.000
1737551383.450,-40.527,-7.324,-4.883,269.531,0.000
1737551383.454,-4.883,-27.832,-9.277,-176.270,0.000
1737551383.457,11.719,-30.273,1.465,-5.859,0.000
1737551383.461,5.371,-11.230,-14.160,472.656,0.000
1737551383.465,-2.930,-5.859,-28.320,569.824,0.000
1737551383.469,1.465,-17.578,-19.531,322.754,0.000
1737551383.473,-11.719,-20.508,-19.043,-190.430,0.000
1737551383.477,-39.551,-17.578,-23.926,-214.355,0.000
1737551383.481,-24.414,-15.625,-23.438,188.477,0.000
1737551383.485,-11.719,-17.578,-16.602,344.238,0.000
1737551383.489,-16.602,-23.438,-20.020,204.590,0.000
1737551383.493,-40.039,-20.020,-24.414,-214.355,0.000
1737551383.496,-49.316,-22.949,-18.066,-311.523,0.000
1737551383.500,-19.531,-17.578,-18.555,94.727,0.000
1737551383.504,-30.273,-11.230,-22.461,265.137,0.000
1737551383.508,-35.645,-11.230,-18.555,166.016,0.000
1737551383.512,-47.852,-13.184,-13.184,-202.637,0.000
1737551383.516,-79.102,-16.113,-10.742,-412.598,0.000
1737551383.520,-71.777,-3.418,-17.090,-28.809,0.000
1737551383.524,-57.129,-2.930,-20.508,250.977,0.000
1737551383.528,-42.969,-8.301,-11.719,169.922,0.000
1737551383.532,-43.945,-11.230,-0.488,-236.328,0.000
1737551383.536,-52.734,-6.348,-20.996,-468.262,0.000
1737551383.539,-69.824,0.000,-25.879,-73.730,0.000
1737551383.543,-33.203,-12.207,-14.160,222.656,0.000
1737551383.547,-3.418,-19.531,-16.113,174.805,0.000
1737551383.551,-34.180,-23.926,-15.625,-195.801,0.000
1737551383.555,-59.082,-29.297,-19.043,-495.117,0.000
1737551383.559,-31.738,-24.414,-23.438,-134.277,0.000
1737551383.563,-15.625,-24.414,-15.625,176.270,0.000
1737551383.567,-22.461,-23.438,-10.742,156.738,0.000
1737551383.571,-73.730,-10.742,4.395,-176.758,0.000
1737551383.575,-64.453,-26.855,-4.883,-523.438,0.000
1737551383.579,-1.953,-33.203,-36.621,-235.840,0.000
1737551383.582,18.555,-21.484,-28.809,118.652,0.000
1737551383.586,11.230,-17.090,-22.949,162.598,0.000
1737551383.590,-14.160,-19.043,-32.715,-132.324,0.000
1737551383.594,-28.809,-26.855,-27.344,-537.598,0.000
1737551383.598,-5.859,-22.461,-13.672,-351.074,0.000
1737551383.602,-9.277,-11.719,-25.879,36.621,0.000
1737551383.606,-34.668,-6.836,-20.508,136.719,0.000
1737551383.610,-14.160,0.977,2.930,-32.227,0.000
1737551383.614,-26.367,-4.883,-5.859,-470.703,0.000
1737551383.618,-49.805,-15.625,-9.766,-377.441,0.000
1737551383.621,-53.711,2.441,-1.953,53.711,0.000
1737551383.625,-81.055,25.879,-0.977,150.391,0.000
1737551383.629,-78.125,27.344,11.230,-25.391,0.000
1737551383.633,-107.910,6.836,28.320,-498.047,0.000
1737551383.637,-137.207,1.465,1.953,-585.938,0.000
1737551383.641,-120.605,27.344,-0.977,-213.867,0.000
1737551383.645,-155.762,39.551,18.555,-63.965,0.000
1737551383.649,-213.379,33.691,13.184,-272.461,0.000
1737551383.653,-276.367,47.363,10.742,-750.488,0.000
1737551383.657,-329.590,45.898,21.484,-780.273,0.000
1737551383.661,-331.055,44.434,20.508,-323.730,0.000
1737551383.664,-307.617,51.270,25.879,-43.945,0.000
1737551383.668,-325.684,58.594,39.551,-75.684,0.000
1737551383.672,-372.070,71.289,29.297,-520.020,0.000
1737551383.676,-395.996,54.688,25.879,-650.391,0.000
1737551383.680,-376.465,62.988,39.551,-213.867,0.000
1737551383.684,-349.121,72.754,27.344,20.996,0.000
1737551383.688,-348.145,46.875,25.879,-76.660,0.000
1737551383.692,-354.492,32.227,28.809,-501.465,0.000
1737551383.696,-369.141,28.320,20.020,-730.957,0.000
1737551383.700,-386.230,33.691,24.902,-359.375,0.000
1737551383.704,-355.957,34.668,15.625,-63.477,0.000
1737551383.707,-329.102,46.875,10.254,-67.383,0.000
1737551383.711,-334.961,42.480,30.273,-358.398,0.000
1737551383.715,-318.848,36.133,20.996,-667.480,0.000
1737551383.719,-277.344,38.574,0.488,-371.094,0.000
1737551383.723,-256.348,40.039,4.883,3.906,0.000
1737551383.727,-238.770,31.738,21.484,54.688,0.000
1737551383.731,-233.887,37.598,20.020,-263.672,0.000
1737551383.735,-247.559,38.574,10.742,-653.809,0.000
1737551383.739,-238.281,33.691,5.859,-389.160,0.000
1737551383.743,-227.539,37.109,4.395,15.625,0.000
1737551383.746,-235.840,26.855,21.484,51.758,0.000
1737551383.750,-196.777,13.672,17.090,-223.145,0.000
1737551383.754,-170.410,16.113,-10.254,-565.918,0.000
1737551383.758,-203.613,19.531,-7.812,-347.168,0.000
1737551383.762,-183.594,25.391,-11.719,52.246,0.000
1737551383.766,-146.973,21.484,-15.137,118.164,0.000
1737551383.770,-133.789,15.137,-16.602,-139.160,0.000
1737551383.774,-141.113,19.043,-11.230,-517.090,0.000
1737551383.778,-157.715,18.555,-17.578,-306.641,0.000
1737551383.782,-96.191,13.184,-30.762,93.750,0.000
1737551383.786,-34.180,-4.883,-21.484,144.531,0.000
1737551383.789,-44.922,-7.324,-27.344,-47.363,0.000
1737551383.793,-81.055,-7.324,-31.738,-495.605,0.000
1737551383.797,-50.293,-25.879,-25.879,-402.344,0.000
1737551383.801,12.695,-20.020,-25.879,76.660,0.000
1737551383.805,19.531,-30.273,-20.508,203.613,0.000
1737551383.809,4.883,-40.039,-29.297,66.406,0.000
1737551383.813,14.648,-38.086,-57.129,-320.801,0.000
1737551383.817,26.367,-41.016,-53.711,-347.656,0.000
1737551383.821,71.777,-41.992,-29.297,116.699,0.000
1737551383.825,69.824,-41.016,-47.363,335.938,0.000
1737551383.829,46.387,-41.504,-63.965,228.027,0.000
1737551383.832,108.398,-60.059,-62.012,-134.766,0.000
1737551383.836,115.723,-69.824,-52.734,-219.238,0.000
1737551383.840,118.652,-64.941,-42.480,220.215,0.000
1737551383.844,174.316,-50.293,-59.570,495.605,0.000
1737551383.848,191.406,-42.480,-63.477,490.723,0.000
1737551383.852,150.391,-45.410,-57.129,113.770,0.000
1737551383.856,138.672,-53.711,-47.852,-94.238,0.000
1737551383.860,180.664,-63.477,-50.293,262.207,0.000
1737551383.864,218.262,-63.477,-50.293,517.090,0.000
1737551383.868,223.633,-59.570,-43.945,534.668,0.000
1737551383.871,182.617,-62.500,-49.316,115.723,0.000
1737551383.875,146.973,-73.242,-54.199,-225.098,0.000
1737551383.879,172.363,-70.801,-42.480,133.789,0.000
1737551383.883,169.922,-59.570,-30.273,488.281,0.000
1737551383.887,142.090,-38.086,-49.316,496.582,0.000
1737551383.891,187.500,-47.363,-61.523,168.945,0.000
1737551383.895,197.266,-66.895,-51.758,-151.367,0.000
1737551383.899,206.543,-61.035,-36.621,167.480,0.000
1737551383.903,205.566,-47.852,-36.621,550.293,0.000
1737551383.907,199.219,-45.898,-38.086,543.457,0.000
1737551383.911,205.566,-55.664,-34.668,230.469,0.000
1737551383.914,185.547,-52.734,-34.180,-110.840,0.000
1737551383.918,169.434,-45.410,-34.180,118.164,0.000
1737551383.922,168.945,-48.340,-45.898,448.730,0.000
1737551383.926,169.922,-47.363,-29.785,493.164,0.000
1737551383.930,124.512,-41.504,-21.973,207.520,0.000
1737551383.934,118.652,-39.551,-43.945,-224.121,0.000
1737551383.938,143.555,-50.293,-33.203,-20.996,0.000
1737551383.942,117.188,-50.293,-23.438,357.422,0.000
1737551383.946,115.723,-34.180,-35.645,411.133,0.000
1737551383.950,125.977,-46.875,-41.504,173.340,0.000
1737551383.954,89.355,-53.711,-40.527,-275.879,0.000
1737551383.957,100.586,-49.805,-31.250,-205.566,0.000
1737551383.961,85.938,-36.621,-42.480,241.699,0.000
1737551383.965,57.129,-34.180,-44.434,357.422,0.000
1737551383.969,103.027,-40.039,-37.598,131.836,0.000
1737551383.973,60.059,-40.527,-29.785,-351.562,0.000
1737551383.977,48.340,-40.527,-29.297,-342.285,0.000
1737551383.981,117.188,-15.625,-49.805,183.594,0.000
1737551383.985,104.004,-11.230,-50.781,340.820,0.000
1737551383.989,87.891,-45.410,-25.391,200.684,0.000
1737551383.993,76.660,-41.504,-32.227,-232.910,0.000
1737551383.996,70.312,-29.297,-35.645,-296.875,0.000
1737551384.000,96.680,-36.621,-23.926,122.559,0.000
1737551384.004,95.703,-30.762,-38.086,322.754,0.000
1737551384.008,97.168,-24.414,-36.621,239.746,0.000
1737551384.012,77.148,-25.391,-27.344,-170.898,0.000
1737551384.016,26.367,-34.180,-32.227,-397.461,0.000
1737551384.020,47.852,-34.668,-33.203,-12.207,0.000
1737551384.024,89.355,-33.203,-21.484,315.430,0.000
1737551384.028,89.844,-31.250,-24.902,302.246,0.000
1737551384.032,50.293,-27.344,-38.574,-124.023,0.000
1737551384.036,17.090,-34.180,-27.832,-421.875,0.000
1737551384.039,31.250,-32.227,-23.926,-55.176,0.000
1737551384.043,49.805,-15.137,-34.180,263.672,0.000
1737551384.047,37.109,-23.926,-29.297,233.887,0.000
1737551384.051,41.992,-32.715,-16.113,-106.934,0.000
1737551384.055,60.059,-30.762,-14.160,-355.957,0.000
1737551384.059,37.109,-29.297,-14.160,-76.172,0.000
1737551384.063,35.156,-23.438,-9.277,191.406,0.000
1737551384.067,42.480,-13.184,-29.297,216.309,0.000
1737551384.071,37.109,-10.254,-27.832,-77.637,0.000
1737551384.075,44.922,-38.086,-10.254,-398.438,0.000
1737551384.078,36.621,-35.156,-10.742,-128.906,0.000
1737551384.082,58.594,-22.949,-14.160,264.160,0.000
1737551384.086,47.852,-17.090,-12.207,358.398,0.000
1737551384.090,-18.066,-8.789,-8.301,81.055,0.000
1737551384.094,6.348,-25.391,-5.859,-281.250,0.000
1737551384.098,46.387,-26.855,-15.137,-17.090,0.000
1737551384.102,42.969,-12.207,-18.555,421.387,0.000
1737551384.106,38.086,-10.742,-14.160,509.277,0.000
1737551384.110,11.719,-14.160,-13.184,241.699,0.000
1737551384.114,-24.902,-16.113,-20.996,-210.938,0.000
1737551384.118,-46.387,-12.207,-12.695,-72.754,0.000
1737551384.121,-44.922,-4.883,0.977,368.652,0.000
1737551384.125,-22.461,7.324,-11.719,538.574,0.000
1737551384.129,-21.973,-9.766,-17.090,358.398,0.000
1737551384.133,-53.711,-10.254,-17.090,-119.141,0.000
1737551384.137,-71.777,15.625,-20.020,-83.008,0.000
1737551384.141,-70.312,29.785,-14.160,299.805,0.000
1737551384.145,-73.242,34.180,-11.230,344.727,0.000
1737551384.149,-99.121,42.969,-7.324,165.039,0.000
1737551384.153,-98.145,37.598,0.488,-270.508,0.000
1737551384.157,-91.309,35.156,-14.648,-408.691,0.000
1737551384.161,-110.840,41.992,-25.391,-34.180,0.000
1737551384.164,-93.750,43.457,-21.484,203.613,0.000
1737551384.168,-84.961,33.691,-22.461,111.328,0.000
1737551384.172,-103.027,19.531,-23.438,-314.941,0.000
1737551384.176,-111.816,12.207,-20.508,-455.566,0.000
1737551384.180,-81.055,10.254,-22.461,-28.320,0.000
1737551384.184,-40.527,-2.441,-16.602,247.559,0.000
1737551384.188,-40.527,-11.230,-13.672,187.012,0.000
1737551384.192,-68.848,-10.254,-18.066,-203.125,0.000
1737551384.196,-53.711,-25.391,-10.742,-399.414,0.000
1737551384.200,-23.438,-31.738,-16.113,-10.742,0.000
1737551384.203,-7.324,-30.273,-23.438,267.090,0.000
1737551384.207,4.883,-41.016,-17.090,227.539,0.000
1737551384.211,9.277,-40.039,-20.508,-135.742,0.000
1737551384.215,-16.602,-31.738,-24.902,-435.059,0.000
1737551384.219,16.602,-31.250,-14.648,-66.406,0.000
1737551384.223,59.570,-33.691,-11.230,280.273,0.000
1737551384.227,18.555,-32.227,-14.648,287.109,0.000
1737551384.231,-20.020,-32.227,-17.090,-12.695,0.000
1737551384.235,-31.738,-43.457,-14.160,-341.309,0.000
1737551384.239,22.949,-41.504,-9.766,-47.363,0.000
1737551384.243,35.645,-32.227,-12.695,320.312,0.000
1737551384.246,27.832,-33.203,-9.766,395.508,0.000
1737551384.250,19.043,-30.762,-21.484,110.352,0.000
1737551384.254,-29.785,-27.832,-29.785,-357.910,0.000
1737551384.258,-2.930,-41.016,-11.230,-171.387,0.000
1737551384.262,1.465,-42.969,5.371,222.656,0.000
1737551384.266,20.508,-40.039,-18.066,299.805,0.000
1737551384.270,33.691,-35.156,-29.785,60.547,0.000
1737551384.274,-2.441,-35.645,-24.902,-364.258,0.000
1737551384.278,-10.254,-33.203,-16.113,-212.891,0.000
1737551384.282,-15.625,-29.297,-8.301,185.059,0.000
1737551384.286,4.395,-41.992,-14.648,307.129,0.000
1737551384.289,16.602,-38.086,-17.090,174.805,0.000
1737551384.293,-18.555,-31.250,-26.367,-307.129,0.000
1737551384.297,-6.836,-35.156,-31.738,-335.449,0.000
1737551384.301,41.992,-33.691,-29.297,108.887,0.000
1737551384.305,43.457,-31.738,-25.391,255.859,0.000
1737551384.309,16.602,-22.949,-20.996,93.750,0.000
1737551384.313,-8.789,-14.160,-28.320,-347.168,0.000
1737551384.317,-20.996,-29.297,-21.973,-398.438,0.000
1737551384.321,-0.488,-37.109,-15.137,17.090,0.000
1737551384.325,9.277,-25.879,-18.555,206.543,0.000
1737551384.328,-14.160,-24.414,-18.555,71.289,0.000
1737551384.332,-20.020,-27.344,-5.859,-337.891,0.000
1737551384.336,0.977,-25.391,-7.812,-407.715,0.000
1737551384.340,17.578,-20.508,-22.461,45.898,0.000
1737551384.344,2.930,-8.789,-17.090,209.473,0.000
1737551384.348,-28.809,6.348,-22.949,88.379,0.000
1737551384.352,-37.598,-18.066,-24.414,-272.949,0.000
1737551384.356,-17.090,-30.762,-20.996,-427.734,0.000
1737551384.360,0.977,-21.484,-19.043,-1.465,0.000
1737551384.364,1.953,-25.391,-20.996,249.023,0.000
1737551384.368,7.324,-23.926,-13.184,239.258,0.000
1737551384.371,-9.766,-17.090,-14.648,-90.332,0.000
1737551384.375,-18.066,-15.625,-23.438,-403.809,0.000
1737551384.379,-11.719,-22.949,-16.602,-94.238,0.000
1737551384.383,-16.113,-23.926,-9.277,247.559,0.000
1737551384.387,-8.301,-18.555,-11.230,231.445,0.000
1737551384.391,-5.371,-20.508,-23.438,-131.836,0.000
1737551384.395,-34.180,-17.090,-23.438,-483.398,0.000
1737551384.399,-48.340,1.465,-20.508,-203.613,0.000
1737551384.403,2.441,-16.602,-12.695,175.293,0.000
1737551384.407,25.879,-29.785,-9.766,208.008,0.000
1737551384.411,7.324,-15.625,-22.461,-85.938,0.000
1737551384.414,-13.184,-18.066,-27.832,-488.281,0.000
1737551384.418,-33.203,-21.484,-10.254,-273.926,0.000
1737551384.422,-15.625,-14.648,-10.254,166.504,0.000
1737551384.426,5.859,0.000,-25.879,267.090,0.000
1737551384.430,35.156,-15.625,-13.672,69.824,0.000
1737551384.434,-14.160,-25.391,-20.020,-348.145,0.000
1737551384.438,-28.320,-21.973,-30.762,-273.926,0.000
1737551384.442,8.789,-30.762,-20.996,92.285,0.000
1737551384.446,-17.090,-28.809,-14.160,214.355,0.000
1737551384.450,-23.926,-25.391,-18.066,63.965,0.000
1737551384.453,-31.738,-27.344,-14.648,-380.371,0.000
1737551384.457,-31.738,-15.137,-13.672,-284.180,0.000
1737551384.461,-21.484,-16.602,-19.531,190.918,0.000
1737551384.465,-44.434,-22.461,-21.973,327.637,0.000
1737551384.469,-31.738,-27.344,-8.789,189.453,0.000
1737551384.473,-10.254,-24.902,-13.184,-217.773,0.000
1737551384.477,-15.625,-15.137,-17.578,-205.078,0.000
1737551384.481,-21.973,0.488,-15.137,188.965,0.000
1737551384.485,-14.160,0.000,-12.695,367.676,0.000
1737551384.489,4.883,-20.020,-10.254,266.602,0.000
1737551384.493,0.977,-27.344,-14.160,-192.383,0.000
1737551384.496,-11.230,-21.973,-16.113,-302.246,0.000
1737551384.500,-18.555,-14.160,-9.277,118.652,0.000
1737551384.504,-36.133,-2.441,-6.836,369.141,0.000
1737551384.508,-2.930,-17.578,-13.672,274.414,0.000
1737551384.512,-4.883,-27.832,-8.301,-139.160,0.000
1737551384.516,-44.434,-13.672,-6.836,-329.102,0.000
1737551384.520,-38.086,-7.812,-13.184,32.227,0.000
1737551384.524,-19.531,-18.066,-14.648,334.473,0.000
1737551384.528,-17.090,-22.949,-14.648,304.199,0.000
1737551384.532,-8.301,-22.949,-23.926,-130.371,0.000
1737551384.535,-11.230,-20.508,-24.414,-379.395,0.000
1737551384.539,-0.488,-15.625,-20.020,-8.789,0.000
1737551384.543,8.789,-10.254,-15.625,277.832,0.000
1737551384.547,-2.930,-15.625,-16.113,251.953,0.000
1737551384.551,-18.066,-12.695,-21.973,-87.891,0.000
1737551384.555,-44.434,-3.418,-6.836,-418.457,0.000
1737551384.559,-67.871,-5.859,-3.418,-128.418,0.000
1737551384.563,-61.035,0.000,-26.367,212.891,0.000
1737551384.567,-21.973,0.488,-40.039,259.277,0.000
1737551384.571,14.648,-22.461,-29.785,-8.789,0.000
1737551384.575,14.648,-26.855,-24.414,-400.391,0.000
1737551384.578,2.441,-20.020,-24.902,-205.566,0.000
1737551384.582,7.324,-15.625,-18.066,179.688,0.000
1737551384.586,15.137,-15.625,-18.555,240.723,0.000
1737551384.590,10.742,-18.555,-17.090,-43.945,0.000
1737551384.594,-26.855,-17.090,-17.578,-443.359,0.000
1737551384.598,-29.297,-17.090,-21.973,-255.859,0.000
1737551384.602,-44.922,-13.184,-14.160,122.559,0.000
1737551384.606,-76.660,1.465,-9.277,191.895,0.000
1737551384.610,3.906,-8.301,-20.508,35.156,0.000
1737551384.614,7.812,-23.926,-31.250,-395.020,0.000
1737551384.618,-44.434,-18.066,-21.973,-311.035,0.000
1737551384.621,0.000,-12.207,-13.672,139.160,0.000
1737551384.625,18.555,-4.395,-16.113,221.680,0.000
1737551384.629,0.977,-1.953,-8.301,52.246,0.000
1737551384.633,-0.977,-18.066,-1.953,-362.305,0.000
1737551384.637,-15.137,-19.531,-6.836,-349.121,0.000
1737551384.641,-12.695,-12.207,-8.789,133.301,0.000
1737551384.645,-15.625,-14.648,-5.859,301.758,0.000
1737551384.649,-31.738,-19.043,-12.695,148.438,0.000
1737551384.653,-75.195,-10.742,-27.832,-323.730,0.000
1737551384.657,-67.871,-11.230,-23.926,-409.180,0.000
1737551384.660,11.230,-29.297,-14.160,69.824,0.000
1737551384.664,34.180,-21.484,-13.184,310.547,0.000
1737551384.668,1.465,-8.301,-12.207,257.812,0.000
1737551384.672,-32.715,-17.578,-20.508,-249.023,0.000
1737551384.676,-29.297,-18.555,-22.461,-468.750,0.000
1737551384.680,-10.254,-20.508,-16.113,-1.465,0.000
1737551384.684,-5.859,-20.020,-17.090,287.598,0.000
1737551384.688,-25.391,-18.066,-16.113,238.770,0.000
1737551384.692,-43.945,-19.043,-10.742,-143.066,0.000
1737551384.696,-53.223,-6.348,-13.184,-366.211,0.000
1737551384.700,-74.707,-1.465,-15.137,-73.730,0.000
1737551384.703,-39.062,-16.602,-2.930,184.082,0.000
1737551384.707,17.578,-19.531,-12.695,220.215,0.000
1737551384.711,-5.371,-12.207,-19.043,-112.305,0.000
1737551384.715,-33.691,-6.348,-6.348,-412.109,0.000
1737551384.719,-30.273,-5.371,-9.277,-146.973,0.000
1737551384.723,-21.484,-19.531,-17.578,124.512,0.000
1737551384.727,-18.555,-23.438,-16.602,131.836,0.000
1737551384.731,-31.738,-17.090,-7.812,-194.824,0.000
1737551384.735,-61.035,-19.531,-13.672,-590.332,0.000
1737551384.739,-55.664,-23.438,-11.230,-349.121,0.000
1737551384.743,-18.555,-20.508,-13.672,31.250,0.000
1737551384.746,-12.695,-26.367,-19.043,67.383,0.000
1737551384.750,-51.758,-31.250,-12.695,-207.520,0.000
1737551384.754,-75.684,-20.996,-20.508,-572.266,0.000
1737551384.758,-22.949,-21.484,-22.461,-342.773,0.000
1737551384.762,-12.695,-24.414,-15.625,62.012,0.000
1737551384.766,-29.785,-22.461,-14.648,186.523,0.000
1737551384.770,-31.738,-21.973,-14.648,-25.391,0.000
1737551384.774,-35.645,-18.066,-18.555,-436.035,0.000
1737551384.778,-41.992,-20.020,-14.648,-252.930,0.000
1737551384.782,-18.555,-21.484,-15.625,174.805,0.000
1737551384.785,0.000,-15.137,-17.578,298.340,0.000
1737551384.789,-26.367,-19.531,-13.184,119.629,0.000
1737551384.793,-40.039,-28.809,-19.043,-347.656,0.000
1737551384.797,-27.832,-25.391,-27.832,-332.520,0.000
1737551384.801,-14.648,-24.902,-20.020,151.367,0.000
1737551384.805,-27.832,-21.973,-13.184,353.516,0.000
1737551384.809,-34.668,-15.137,-18.555,225.098,0.000
1737551384.813,-28.320,-20.508,-20.508,-189.941,0.000
1737551384.817,-19.531,-16.113,-23.438,-219.727,0.000
1737551384.821,-15.137,-4.883,-21.973,217.773,0.000
1737551384.825,-17.578,-10.254,-11.719,427.734,0.000
1737551384.828,-16.602,-17.090,-5.371,374.023,0.000
1737551384.832,-27.832,-17.090,-15.625,-4.395,0.000
1737551384.836,-26.855,-19.043,-22.949,-151.367,0.000
1737551384.840,-11.719,-15.625,-14.160,229.492,0.000
1737551384.844,-25.879,-21.973,-15.137,424.316,0.000
1737551384.848,-33.203,-19.043,-17.090,341.797,0.000
1737551384.852,-31.250,-12.207,-13.184,-39.551,0.000
1737551384.856,-47.852,-15.625,-11.230,-266.602,0.000
1737551384.860,-37.598,-11.230,-18.555,62.012,0.000
1737551384.864,-15.625,-15.625,-19.043,352.051,0.000
1737551384.868,-8.789,-20.996,-15.137,345.703,0.000
1737551384.871,-24.902,-24.414,-14.160,-61.523,0.000
1737551384.875,-69.824,-20.020,-24.902,-350.586,0.000
1737551384.879,-65.430,-19.043,-28.809,4.883,0.000
1737551384.883,-19.043,-20.508,-10.254,335.938,0.000
1737551384.887,-25.391,-15.625,-7.812,328.125,0.000
1737551384.891,-31.250,-14.648,-24.902,-16.602,0.000
1737551384.895,-18.555,-17.090,-24.902,-355.957,0.000
1737551384.899,-14.648,-11.230,-22.461,-58.594,0.000
1737551384.903,-23.438,-6.348,-24.902,298.828,0.000
1737551384.907,-18.066,-8.789,-18.066,306.152,0.000
1737551384.910,-5.859,-11.230,-15.137,29.297,0.000
1737551384.914,-19.531,-10.742,-19.531,-353.027,0.000
1737551384.918,-15.137,-13.184,-15.137,-175.781,0.000
1737551384.922,-6.836,-15.625,-10.742,187.988,0.000
1737551384.926,-6.348,-4.395,-22.949,264.648,0.000
1737551384.930,-16.113,-15.137,-22.461,20.508,0.000
1737551384.934,-29.297,-17.578,-16.602,-412.109,0.000
1737551384.938,-16.113,1.465,-23.438,-291.504,0.000
1737551384.942,4.395,-10.254,-16.602,132.812,0.000
1737551384.946,-11.719,-15.625,-12.207,285.156,0.000
1737551384.950,-37.109,-7.324,-18.066,75.195,0.000
1737551384.953,-29.785,-20.996,-21.484,-421.875,0.000
1737551384.957,-37.109,-30.762,-20.996,-386.230,0.000
1737551384.961,-23.438,-23.926,-12.695,51.758,0.000
1737551384.965,-0.488,-22.461,-14.648,216.797,0.000
1737551384.969,-10.254,-24.414,-19.043,69.824,0.000
1737551384.973,-32.227,-24.414,-13.184,-385.254,0.000
1737551384.977,-35.645,-23.926,-17.090,-388.184,0.000
1737551384.981,-20.020,-16.602,-18.555,92.773,0.000
1737551384.985,-15.625,-8.301,-19.043,261.230,0.000
1737551384.989,-9.277,-17.090,-22.949,129.395,0.000
1737551384.993,-19.043,-23.438,-24.414,-266.602,0.000
1737551384.996,-24.902,-13.672,-30.273,-382.324,0.000
1737551385.000,-21.973,-18.066,-14.648,5.371,0.000
1737551385.004,-19.043,-20.996,-11.719,234.863,0.000
1737551385.008,-13.672,-16.602,-24.902,150.879,0.000
1737551385.012,-27.344,-23.438,-29.785,-266.602,0.000
1737551385.016,-41.016,-22.461,-25.391,-459.473,0.000
1737551385.020,-15.625,-14.648,-21.973,-50.781,0.000
1737551385.024,13.672,-11.719,-14.648,231.934,0.000
1737551385.028,-1.953,-14.648,-8.301,160.156,0.000
1737551385.032,-45.898,-9.277,-8.789,-237.305,0.000
1737551385.035,-32.227,-11.230,-15.625,-448.730,0.000
1737551385.039,10.742,-13.672,-26.367,-41.016,0.000
1737551385.043,23.926,-11.230,-21.973,256.836,0.000
1737551385.047,16.602,-12.207,-17.090,217.773,0.000
1737551385.051,-20.996,-12.695,-13.184,-92.285,0.000
1737551385.055,-46.387,-12.207,-13.672,-379.883,0.000
1737551385.059,-15.625,-10.254,-15.137,-88.867,0.000
1737551385.063,-22.949,-5.859,-20.996,211.426,0.000
1737551385.067,-60.547,8.301,-23.438,204.590,0.000
1737551385.071,2.930,-17.090,-12.207,-43.945,0.000
1737551385.075,2.930,-33.203,-15.625,-388.672,0.000
1737551385.078,-26.367,-27.344,-19.043,-161.621,0.000
1737551385.082,-14.160,-20.508,-11.230,216.797,0.000
1737551385.086,-11.719,-8.301,-13.184,321.289,0.000
1737551385.090,-17.090,-12.695,-18.555,125.000,0.000
1737551385.094,-27.832,-18.066,-19.531,-326.660,0.000
1737551385.098,-30.273,-20.508,-19.043,-244.629,0.000
1737551385.102,-36.621,-18.555,-18.066,153.809,0.000
1737551385.106,-50.293,-8.301,-14.648,301.270,0.000
1737551385.110,-41.992,-20.996,-11.230,115.234,0.000
1737551385.114,-27.832,-25.879,-23.926,-319.336,0.000
1737551385.118,-23.438,-18.555,-30.273,-247.070,0.000
1737551385.121,-6.348,-20.020,-24.414,111.816,0.000
1737551385.125,-13.184,-19.531,-21.484,246.094,0.000
1737551385.129,-20.508,-22.949,-17.578,80.078,0.000
1737551385.133,-35.645,-23.438,-20.508,-326.172,0.000
1737551385.137,-42.969,-15.625,-24.902,-319.824,0.000
1737551385.141,-29.785,-1.465,-19.531,36.621,0.000
1737551385.145,-40.527,-2.930,-19.043,197.754,0.000
1737551385.149,-39.062,-22.949,-25.879,82.031,0.000
1737551385.153,-29.297,-23.926,-20.020,-360.840,0.000
1737551385.157,-38.086,-24.902,-16.113,-494.629,0.000
1737551385.160,-34.668,-24.902,-16.602,-99.609,0.000
1737551385.164,-6.836,-13.184,-21.484,166.992,0.000
1737551385.168,5.371,-12.207,-18.555,53.223,0.000
1737551385.172,-28.809,-16.113,-18.555,-381.348,0.000
1737551385.176,-42.480,-19.531,-22.949,-553.711,0.000
1737551385.180,-24.902,-18.555,-19.531,-186.035,0.000
1737551385.184,-19.531,-17.090,-20.996,72.266,0.000
1737551385.188,-42.480,-16.113,-21.484,-8.301,0.000
1737551385.192,-65.918,-15.625,-20.508,-406.738,0.000
1737551385.196,-73.730,-20.020,-12.695,-664.551,0.000
1737551385.200,-37.598,-30.273,10.742,-266.113,0.000
1737551385.203,8.301,-17.090,-24.902,72.754,0.000
1737551385.207,18.555,-10.254,-40.527,45.898,0.000
1737551385.211,-14.160,-20.508,-20.996,-265.625,0.000
1737551385.215,-38.574,-20.020,-18.066,-561.035,0.000
1737551385.219,-27.832,-8.301,-18.066,-219.238,0.000
1737551385.223,-19.531,-3.418,-19.043,172.363,0.000
1737551385.227,-22.949,-11.719,-14.648,245.117,0.000
1737551385.231,-36.621,-11.719,-17.090,-66.895,0.000
1737551385.235,-52.734,-12.207,-23.926,-450.684,0.000
1737551385.239,-41.504,-13.672,-23.438,-141.113,0.000
1737551385.242,-26.367,-13.672,-13.672,288.086,0.000
1737551385.246,-3.418,-14.648,-12.207,370.605,0.000
1737551385.250,12.207,-7.812,-22.461,144.043,0.000
1737551385.254,-24.414,-0.977,-15.625,-229.980,0.000
1737551385.258,-13.672,-12.695,-13.184,10.742,0.000
1737551385.262,11.230,-11.230,-19.043,471.680,0.000
1737551385.266,9.277,-6.836,-15.137,533.203,0.000
1737551385.270,-2.930,-7.324,-12.207,243.164,0.000
1737551385.274,-34.668,-10.254,-11.719,-163.574,0.000
1737551385.278,-31.250,-15.137,-7.324,-39.551,0.000
1737551385.282,15.137,-16.602,-6.348,282.715,0.000
1737551385.285,2.930,-16.602,-9.766,360.352,0.000
1737551385.289,-12.695,-15.625,-13.184,208.008,0.000
1737551385.293,-14.648,-20.508,-16.602,-244.629,0.000
1737551385.297,-49.805,-12.207,-17.578,-243.652,0.000
1737551385.301,-20.996,-17.090,-11.719,185.547,0.000
1737551385.305,17.090,-34.668,-11.230,367.676,0.000
1737551385.309,-16.602,-29.297,-16.113,230.957,0.000
1737551385.313,-53.223,-16.602,-23.438,-178.223,0.000
1737551385.317,-15.137,-24.414,-21.484,-231.445,0.000
1737551385.321,20.996,-21.484,-15.137,153.809,0.000
1737551385.325,15.137,-17.090,-10.742,365.723,0.000
1737551385.328,11.230,-32.227,-19.043,264.648,0.000
1737551385.332,-9.766,-30.762,-26.367,-187.012,0.000
1737551385.336,-36.621,-27.832,-25.879,-328.125,0.000
1737551385.340,-31.738,-27.344,-26.367,76.660,0.000
1737551385.344,-12.695,-25.391,-14.160,302.734,0.000
1737551385.348,-13.184,-23.926,-11.719,256.836,0.000
1737551385.352,-37.109,-21.973,-19.043,-161.133,0.000
1737551385.356,-41.992,-24.902,-20.508,-346.191,0.000
1737551385.360,-32.715,-24.902,-24.902,65.918,0.000
1737551385.364,-41.504,-22.461,-17.578,313.477,0.000
1737551385.367,-36.133,-18.066,-16.113,288.086,0.000
1737551385.371,-37.598,-14.648,-31.250,-93.262,0.000
1737551385.375,-42.969,-21.484,-32.715,-431.152,0.000
1737551385.379,-25.391,-29.297,-22.949,-89.844,0.000
1737551385.383,-20.996,-27.832,-17.090,272.461,0.000
1737551385.387,-15.137,-19.531,-25.391,273.926,0.000
1737551385.391,-10.742,-17.090,-27.344,-74.707,0.000
1737551385.395,-25.879,-22.461,-28.320,-439.453,0.000
1737551385.399,-16.113,-20.996,-26.855,-161.621,0.000
1737551385.403,2.441,-12.695,-15.625,206.055,0.000
1737551385.407,-2.441,-17.090,-17.090,227.051,0.000
1737551385.410,-11.719,-20.508,-19.043,-72.266,0.000
1737551385.414,-11.719,-15.625,-24.902,-458.008,0.000
1737551385.418,-17.090,-13.184,-26.855,-298.340,0.000
1737551385.422,-21.484,-12.207,-18.066,51.758,0.000
1737551385.426,-10.742,-7.324,-17.578,133.789,0.000
1737551385.430,-8.789,-13.184,-13.672,-121.582,0.000
1737551385.434,-11.230,-26.367,-11.230,-514.160,0.000
1737551385.438,-12.207,-17.578,-25.879,-382.324,0.000
1737551385.442,-23.438,-9.766,-29.785,-61.035,0.000
1737551385.446,-1.465,-21.484,-16.113,58.105,0.000
1737551385.450,-6.348,-21.484,-11.719,-78.125,0.000
1737551385.453,-24.902,-21.973,-14.160,-494.629,0.000
1737551385.457,-2.441,-14.648,-12.207,-414.551,0.000
1737551385.461,-18.066,1.953,-18.066,65.918,0.000
1737551385.465,-30.762,-13.184,-15.137,256.348,0.000
1737551385.469,3.418,-17.578,-20.996,93.262,0.000
1737551385.473,0.000,-17.578,-20.996,-322.754,0.000
1737551385.477,-28.320,-25.391,-13.184,-334.473,0.000
1737551385.481,-20.020,-17.578,-15.625,127.930,0.000
1737551385.485,9.277,-10.742,-10.742,353.027,0.000
1737551385.489,1.953,-9.277,-8.789,292.480,0.000
1737551385.492,-41.992,-9.277,-16.113,-86.914,0.000
1737551385.496,-44.922,-17.090,-2.930,-200.195,0.000
1737551385.500,-15.137,-20.020,-13.672,203.125,0.000
1737551385.504,-10.254,-11.230,-26.855,454.102,0.000
1737551385.508,-7.812,0.000,-9.277,450.684,0.000
1737551385.512,-39.551,3.418,-11.230,0.488,0.000
1737551385.516,-62.012,-5.371,-7.324,-281.738,0.000
1737551385.520,-15.625,3.418,5.371,105.469,0.000
1737551385.524,-13.184,11.719,17.578,323.242,0.000
1737551385.528,-54.199,22.949,24.414,224.121,0.000
1737551385.532,-97.168,3.906,-2.930,-182.129,0.000
1737551385.535,-164.551,-2.930,0.488,-500.000,0.000
1737551385.539,-165.527,26.855,9.766,-204.102,0.000
1737551385.543,-121.582,46.875,19.043,82.031,0.000
1737551385.547,-167.480,41.504,40.039,45.898,0.000
1737551385.551,-255.371,18.066,18.066,-392.578,0.000
1737551385.555,-282.715,20.508,5.859,-802.246,0.000
1737551385.559,-283.203,48.340,30.273,-559.570,0.000
1737551385.563,-296.875,54.199,59.082,-279.297,0.000
1737551385.567,-322.754,60.059,24.902,-307.617,0.000
1737551385.571,-341.309,55.176,22.461,-534.668,0.000
1737551385.575,-339.844,72.754,52.246,-794.434,0.000
1737551385.578,-391.113,86.914,26.367,-605.957,0.000
1737551385.582,-404.785,55.664,20.508,-253.906,0.000
1737551385.586,-353.516,60.059,54.199,-116.211,0.000
1737551385.590,-345.703,82.031,31.250,-332.520,0.000
1737551385.594,-375.488,74.707,8.301,-735.352,0.000
1737551385.598,-376.465,55.664,26.855,-562.012,0.000
1737551385.602,-326.172,58.105,45.410,-83.008,0.000
1737551385.606,-314.453,67.383,21.973,14.160,0.000
1737551385.610,-337.891,62.012,9.766,-193.848,0.000
1737551385.614,-337.891,48.828,10.742,-611.816,0.000
1737551385.617,-284.668,43.945,21.973,-510.254,0.000
1737551385.621,-229.980,58.105,21.973,-54.688,0.000
1737551385.625,-225.098,60.547,17.090,67.383,0.000
1737551385.629,-277.344,58.105,14.160,-87.891,0.000
1737551385.633,-302.246,44.922,10.742,-537.598,0.000
1737551385.637,-247.559,25.391,4.395,-549.316,0.000
1737551385.641,-196.289,32.227,3.418,-108.398,0.000
1737551385.645,-186.523,31.250,8.301,94.727,0.000
1737551385.649,-193.359,28.809,10.254,-20.996,0.000
1737551385.653,-217.773,32.715,9.766,-483.887,0.000
1737551385.657,-231.445,24.902,2.930,-633.301,0.000
1737551385.660,-216.309,16.113,-6.836,-241.211,0.000
1737551385.664,-173.828,10.254,-7.812,-8.789,0.000
1737551385.668,-166.016,6.348,-8.789,-99.609,0.000
1737551385.672,-178.711,12.695,-9.277,-484.375,0.000
1737551385.676,-156.738,15.137,-5.371,-622.070,0.000
1737551385.680,-145.508,10.742,-16.113,-271.484,0.000
1737551385.684,-135.742,12.207,-19.531,-3.906,0.000
1737551385.688,-111.816,7.324,-17.090,-6.348,0.000
1737551385.692,-101.562,0.488,-27.832,-363.281,0.000
1737551385.696,-111.328,-2.930,-33.691,-538.574,0.000
1737551385.700,-96.680,-1.465,-32.715,-132.812,0.000
1737551385.703,-76.172,-11.230,-20.508,171.387,0.000
1737551385.707,-27.832,-19.043,-26.855,186.035,0.000
1737551385.711,-22.949,-24.414,-43.457,-155.762,0.000
1737551385.715,-76.660,-28.809,-43.457,-484.375,0.000
1737551385.719,-4.883,-31.738,-45.410,-70.801,0.000
1737551385.723,53.223,-40.527,-45.410,347.168,0.000
1737551385.727,59.082,-44.922,-35.645,360.352,0.000
1737551385.731,31.738,-42.969,-31.250,63.477,0.000
1737551385.735,18.555,-39.062,-48.828,-277.344,0.000
1737551385.739,109.863,-49.805,-58.594,52.734,0.000
1737551385.742,147.461,-42.969,-56.152,453.613,0.000
1737551385.746,143.555,-45.410,-41.992,542.969,0.000
1737551385.750,161.133,-65.918,-45.898,320.312,0.000
1737551385.754,143.555,-62.988,-58.105,-80.566,0.000
1737551385.758,163.574,-65.430,-47.363,136.719,0.000
1737551385.762,206.543,-69.336,-46.875,577.637,0.000
1737551385.766,201.660,-60.547,-43.457,684.570,0.000
1737551385.770,187.500,-55.664,-54.199,529.785,0.000
1737551385.774,170.410,-56.152,-57.129,221.191,0.000
1737551385.778,169.434,-55.176,-49.805,344.727,0.000
1737551385.782,189.453,-62.012,-44.434,655.273,0.000
1737551385.785,222.168,-64.453,-32.715,702.637,0.000
1737551385.789,214.844,-54.199,-52.246,540.039,0.000
1737551385.793,174.316,-59.570,-60.547,70.312,0.000
1737551385.797,168.945,-51.270,-52.246,4.883,0.000
1737551385.801,210.938,-45.898,-48.340,458.496,0.000
1737551385.805,210.449,-57.129,-48.340,649.414,0.000
1737551385.809,193.848,-61.523,-42.969,488.281,0.000
1737551385.813,145.508,-54.688,-47.363,17.090,0.000
1737551385.817,106.445,-62.500,-48.828,-27.344,0.000
1737551385.821,149.414,-63.965,-34.668,421.875,0.000
1737551385.825,187.500,-46.875,-26.367,592.773,0.000
1737551385.828,207.520,-52.246,-17.090,498.047,0.000
1737551385.832,196.289,-47.852,-35.645,93.262,0.000
1737551385.836,162.109,-51.758,-42.480,-74.707,0.000
1737551385.840,164.062,-51.758,-31.250,303.711,0.000
1737551385.844,146.973,-41.504,-24.414,502.441,0.000
1737551385.848,161.621,-46.387,-31.250,411.621,0.000
1737551385.852,157.715,-44.922,-41.504,14.648,0.000
1737551385.856,106.934,-35.156,-42.480,-219.727,0.000
1737551385.860,96.680,-29.297,-33.203,135.742,0.000
1737551385.864,126.953,-42.480,-25.879,416.992,0.000
1737551385.867,144.531,-57.617,-23.438,348.633,0.000
1737551385.871,118.164,-56.152,-27.832,-37.109,0.000
1737551385.875,110.840,-48.828,-36.133,-316.895,0.000
1737551385.879,122.070,-42.480,-28.809,-8.789,0.000
1737551385.883,119.629,-35.156,-22.461,324.219,0.000
1737551385.887,73.730,-34.180,-19.531,314.941,0.000
1737551385.891,69.824,-43.457,-27.832,-86.914,0.000
1737551385.895,64.941,-53.223,-24.902,-434.082,0.000
1737551385.899,40.039,-41.504,-23.438,-174.316,0.000
1737551385.903,62.988,-26.855,-28.320,151.367,0.000
1737551385.907,73.730,-27.832,-26.367,164.551,0.000
1737551385.910,64.941,-36.621,-33.203,-143.066,0.000
1737551385.914,61.035,-38.086,-31.738,-575.684,0.000
1737551385.918,46.875,-31.738,-24.902,-377.441,0.000
1737551385.922,40.039,-31.250,-20.508,9.766,0.000
1737551385.926,73.730,-28.809,-24.902,54.199,0.000
1737551385.930,81.543,-31.738,-28.809,-142.090,0.000
1737551385.934,48.340,-27.832,-28.320,-532.227,0.000
1737551385.938,25.879,-18.555,-26.855,-414.551,0.000
1737551385.942,26.855,-20.020,2.441,0.000,0.000
1737551385.946,77.148,-32.715,1.953,185.059,0.000
1737551385.949,82.031,-21.484,-36.133,96.191,0.000
1737551385.953,25.879,-12.207,-30.273,-303.711,0.000
1737551385.957,12.207,-25.879,-12.695,-252.930,0.000
1737551385.961,37.109,-32.715,-11.230,178.711,0.000
1737551385.965,49.316,-25.391,-26.367,356.934,0.000
1737551385.969,21.973,-27.344,-23.438,237.305,0.000
1737551385.973,2.930,-26.367,-22.949,-136.719,0.000
1737551385.977,19.531,-18.066,-32.227,-85.938,0.000
1737551385.981,11.719,-20.508,-25.879,372.070,0.000
1737551385.985,7.324,-22.949,-13.184,581.543,0.000
1737551385.989,8.789,-8.301,-23.438,508.789,0.000
1737551385.992,-41.016,3.418,-25.879,87.891,0.000
1737551385.996,-61.523,-34.180,-5.859,-51.270,0.000
1737551386.000,30.273,-37.109,-20.508,336.914,0.000
1737551386.004,71.777,-13.672,-29.297,532.715,0.000
1737551386.008,22.461,-15.625,-14.648,423.828,0.000
1737551386.012,-5.859,-19.043,-10.742,-7.812,0.000
1737551386.016,-3.418,-21.484,-15.137,-251.953,0.000
1737551386.020,-8.789,-23.926,-11.230,86.426,0.000
1737551386.024,-9.766,-11.230,-18.066,342.285,0.000
1737551386.028,17.090,-14.648,-12.207,303.711,0.000
1737551386.032,17.578,-25.391,-10.254,-91.797,0.000
1737551386.035,-24.414,-26.367,-15.625,-398.438,0.000
1737551386.039,-11.230,-27.344,-12.207,-104.492,0.000
1737551386.043,22.949,-23.926,-5.859,163.574,0.000
1737551386.047,27.832,-16.602,-7.324,172.852,0.000
1737551386.051,5.859,-12.207,-27.344,-138.672,0.000
1737551386.055,-33.691,-15.137,-27.832,-462.402,0.000
1737551386.059,-33.203,-14.160,-18.066,-190.430,0.000
1737551386.063,2.930,-12.207,-28.320,155.273,0.000
1737551386.067,17.090,-20.508,-11.230,205.078,0.000
1737551386.071,-7.324,-14.160,-10.742,-85.938,0.000
1737551386.074,-31.738,-11.230,-38.086,-502.930,0.000
1737551386.078,-13.184,-22.461,-30.273,-332.520,0.000
1737551386.082,23.438,-20.508,-19.531,73.730,0.000
1737551386.086,14.160,-12.207,-20.508,160.645,0.000
1737551386.090,-1.465,-16.113,-20.996,-43.457,0.000
1737551386.094,-29.785,-21.484,-22.949,-438.477,0.000
1737551386.098,-28.320,-22.949,-15.137,-305.176,0.000
1737551386.102,10.254,-18.555,-20.508,114.746,0.000
1737551386.106,-10.742,-18.066,-7.324,275.879,0.000
1737551386.110,-12.207,-17.090,-4.883,86.426,0.000
1737551386.114,-17.090,-20.508,-31.738,-348.633,0.000
1737551386.117,-33.691,-20.996,-25.879,-207.520,0.000
1737551386.121,-22.949,-17.090,-20.996,216.309,0.000
1737551386.125,-25.391,-23.926,-21.973,362.793,0.000
1737551386.129,-0.977,-24.902,-16.602,265.625,0.000
1737551386.133,4.395,-22.461,-19.043,-206.055,0.000
1737551386.137,-8.789,-23.438,-17.578,-254.395,0.000
1737551386.141,-7.812,-20.508,-12.207,155.762,0.000
1737551386.145,-10.742,-12.695,-15.137,302.734,0.000
1737551386.149,-13.184,-11.719,-18.555,179.199,0.000
1737551386.153,-8.789,-22.461,-24.414,-279.785,0.000
1737551386.157,-20.508,-16.113,-30.762,-366.699,0.000
1737551386.160,-20.996,-16.113,-26.367,61.523,0.000
1737551386.164,10.254,-16.113,-18.066,259.277,0.000
1737551386.168,16.113,-16.113,-11.719,183.594,0.000
1737551386.172,-3.418,-28.809,-14.160,-271.484,0.000
1737551386.176,-16.602,-22.461,-23.926,-476.074,0.000
1737551386.180,-10.742,-14.160,-23.926,-43.945,0.000
1737551386.184,-1.953,-21.484,-13.184,231.934,0.000
1737551386.188,4.395,-22.949,-23.926,175.293,0.000
1737551386.192,-5.859,-18.555,-32.715,-201.172,0.000
1737551386.196,-23.438,-22.949,-23.438,-468.750,0.000
1737551386.199,-13.184,-20.996,-20.020,-100.586,0.000
1737551386.203,-5.859,-12.695,-25.879,226.074,0.000
1737551386.207,-6.348,-8.789,-20.020,205.566,0.000
1737551386.211,-24.414,-11.719,-24.414,-123.535,0.000
1737551386.215,-43.457,-18.066,-36.621,-465.332,0.000
1737551386.219,-27.344,-20.996,-30.762,-189.453,0.000
1737551386.223,-33.691,-8.789,-26.855,151.367,0.000
1737551386.227,-14.160,-14.648,-13.672,232.910,0.000
1737551386.231,-12.695,-20.996,-13.184,-18.066,0.000
1737551386.235,-46.387,-15.137,-24.414,-412.598,0.000
1737551386.239,-20.020,-18.555,-22.461,-148.438,0.000
1737551386.242,-7.812,-21.484,-19.531,227.051,0.000
1737551386.246,-15.625,-19.043,-15.625,277.832,0.000
1737551386.250,-23.926,-20.508,-15.625,13.672,0.000
1737551386.254,-56.152,-24.902,-18.066,-385.254,0.000
1737551386.258,-48.340,-19.043,-20.020,-188.477,0.000
1737551386.262,-32.227,-18.066,-19.531,210.938,0.000
1737551386.266,-30.273,-24.414,-14.648,291.504,0.000
1737551386.270,-22.461,-22.461,-9.766,82.520,0.000
1737551386.274,-39.062,-17.578,-18.555,-350.098,0.000
1737551386.278,-47.852,-11.230,-19.531,-281.250,0.000
1737551386.282,-17.578,-12.207,-13.184,147.461,0.000
1737551386.285,8.789,-13.672,-14.648,282.227,0.000
1737551386.289,1.953,-14.160,-15.625,86.426,0.000
1737551386.293,-48.340,-12.695,-16.602,-343.750,0.000
1737551386.297,-41.016,-9.766,-14.648,-343.262,0.000
1737551386.301,-4.395,-4.395,-14.648,76.172,0.000
1737551386.305,-1.953,-7.324,-12.207,275.879,0.000
1737551386.309,-6.348,-10.742,-18.066,120.605,0.000
1737551386.313,-31.250,-22.461,-28.809,-374.512,0.000
1737551386.317,-10.254,-28.809,-22.949,-446.777,0.000
1737551386.321,14.160,-13.672,-16.113,2.930,0.000
1737551386.324,10.742,-12.695,-19.043,211.426,0.000
1737551386.328,10.254,-14.160,-19.531,121.582,0.000
1737551386.332,-13.184,-16.113,-17.090,-280.762,0.000
1737551386.336,-34.668,-16.602,-21.973,-428.223,0.000
1737551386.340,-47.852,-11.719,-16.113,-0.488,0.000
1737551386.344,-41.016,-7.812,-17.578,259.766,0.000
1737551386.348,-1.953,-12.695,-13.184,209.473,0.000
1737551386.352,-20.996,-13.672,-1.953,-174.316,0.000
1737551386.356,-28.320,-16.113,-14.648,-393.066,0.000
1737551386.360,-20.508,-19.531,-20.508,-22.461,0.000
1737551386.364,-21.973,-18.066,-14.160,271.973,0.000
1737551386.367,-2.441,-15.137,-13.184,279.297,0.000
1737551386.371,-5.859,-17.090,-18.555,-58.105,0.000
1737551386.375,-19.043,-14.648,-22.949,-321.289,0.000
1737551386.379,-13.184,-7.812,-24.414,-21.973,0.000
1737551386.383,-22.461,-13.184,-19.043,263.184,0.000
1737551386.387,-28.809,-17.090,-17.090,301.758,0.000
1737551386.391,-25.391,-20.508,-19.043,16.113,0.000
1737551386.395,-26.367,-24.414,-18.555,-347.168,0.000
1737551386.399,-16.113,-19.043,-10.742,-74.707,0.000
1737551386.403,-4.395,-7.812,-16.113,295.898,0.000
1737551386.407,-6.348,-12.207,-24.902,292.480,0.000
1737551386.410,-13.184,-18.066,-24.902,7.324,0.000
1737551386.414,-16.602,-18.555,-20.996,-374.512,0.000
1737551386.418,-20.020,-15.137,-15.137,-189.453,0.000
1737551386.422,-15.137,-6.836,-19.043,211.426,0.000
1737551386.426,5.859,-10.254,-17.578,313.477,0.000
1737551386.430,-12.207,-12.695,-9.766,69.336,0.000
1737551386.434,-40.039,-12.695,-17.578,-331.055,0.000
1737551386.438,-14.648,-14.648,-22.949,-225.586,0.000
1737551386.442,8.789,-12.695,-17.578,164.062,0.000
1737551386.446,10.742,-8.301,-13.184,320.312,0.000
1737551386.449,-11.719,-8.301,-14.160,156.250,0.000
1737551386.453,-53.711,-16.602,-13.672,-323.242,0.000
1737551386.457,-49.316,-22.461,-9.766,-307.617,0.000
1737551386.461,-23.926,-13.672,-10.742,139.648,0.000
1737551386.465,-15.137,-8.301,-14.160,315.918,0.000
1737551386.469,-31.250,-20.020,-13.672,155.273,0.000
1737551386.473,-43.457,-25.879,-17.578,-271.973,0.000
1737551386.477,-39.551,-16.602,-20.508,-316.895,0.000
1737551386.481,-16.113,-9.766,-13.184,126.465,0.000
1737551386.485,12.695,-7.812,-15.625,351.074,0.000
1737551386.489,-1.465,-9.766,-20.996,234.375,0.000
1737551386.492,-24.414,-18.555,-22.461,-197.266,0.000
1737551386.496,-23.438,-21.973,-22.949,-345.215,0.000
1737551386.500,-36.133,-26.855,-19.531,28.320,0.000
1737551386.504,-33.691,-30.273,-6.348,253.906,0.000
1737551386.508,-12.207,-28.809,-12.695,208.496,0.000
1737551386.512,-23.926,-24.902,-24.414,-202.148,0.000
1737551386.516,-38.574,-23.438,-21.484,-429.199,0.000
1737551386.520,-28.320,-20.020,-12.695,2.930,0.000
1737551386.524,-21.484,-20.020,-7.324,287.109,0.000
1737551386.528,-15.625,-17.578,-9.766,270.996,0.000
1737551386.531,-26.367,-19.043,-16.602,-78.125,0.000
1737551386.535,-48.828,-26.367,-15.137,-392.578,0.000
1737551386.539,-33.203,-18.555,-22.461,-68.848,0.000
1737551386.543,-23.438,-9.766,-31.250,216.309,0.000
1737551386.547,-20.996,-14.160,-17.578,185.059,0.000
1737551386.551,-31.250,-16.602,-7.324,-137.207,0.000
1737551386.555,-54.199,-17.090,-9.766,-484.375,0.000
1737551386.559,-38.086,-22.461,-12.207,-168.945,0.000
1737551386.563,-19.531,-10.742,-14.648,197.266,0.000
1737551386.567,-20.020,1.953,-21.484,202.637,0.000
1737551386.571,-11.719,-5.371,-15.625,-74.707,0.000
1737551386.574,-27.344,-23.926,-11.719,-466.797,0.000
1737551386.578,-26.855,-26.855,-18.555,-262.695,0.000
1737551386.582,10.742,-16.113,-14.160,153.320,0.000
1737551386.586,10.254,-10.254,-5.859,254.395,0.000
1737551386.590,-26.367,-8.301,-9.277,7.324,0.000
1737551386.594,-44.434,-18.066,-13.184,-432.617,0.000
1737551386.598,-44.922,-20.020,-16.113,-290.527,0.000
1737551386.602,-14.160,-11.230,-13.184,166.504,0.000
1737551386.606,-2.441,-5.859,-8.789,309.082,0.000
1737551386.610,-21.484,-14.648,-10.742,106.934,0.000
1737551386.614,-25.879,-21.484,-14.648,-362.305,0.000
1737551386.617,-18.066,-16.113,-19.531,-310.547,0.000
1737551386.621,-12.695,-16.113,-15.625,140.137,0.000
1737551386.625,-32.227,-15.137,-15.625,297.363,0.000
1737551386.629,-33.691,-20.996,-16.113,175.293,0.000
1737551386.633,-26.855,-20.020,-10.254,-212.891,0.000
1737551386.637,-30.273,-16.113,-13.184,-273.438,0.000
1737551386.641,-24.902,-19.531,-14.648,124.512,0.000
1737551386.645,-14.160,-19.043,-11.719,333.008,0.000
1737551386.649,-10.742,-17.578,-13.672,201.660,0.000
1737551386.653,-10.742,-19.043,-8.301,-211.426,0.000
1737551386.656,-20.996,-18.555,-8.301,-278.320,0.000
1737551386.660,-36.621,-15.137,-19.043,119.629,0.000
1737551386.664,-21.973,-13.672,-17.578,331.055,0.000
1737551386.668,-26.367,-13.184,-19.043,185.547,0.000
1737551386.672,-52.246,-17.578,-15.625,-228.516,0.000
1737551386.676,-31.738,-25.391,-11.230,-316.895,0.000
1737551386.680,-13.672,-16.602,-16.113,87.402,0.000
1737551386.684,-25.391,-15.137,-15.137,309.082,0.000
1737551386.688,-40.039,-16.113,-17.578,229.980,0.000
1737551386.692,-57.617,-16.113,-15.137,-149.902,0.000
1737551386.696,-28.320,-34.180,0.977,-385.742,0.000
1737551386.699,0.977,-26.855,-9.277,-12.207,0.000
1737551386.703,0.000,-15.137,-20.508,298.340,0.000
1737551386.707,-14.160,-19.531,-13.672,281.738,0.000
1737551386.711,-39.551,-16.113,-17.578,-51.270,0.000
1737551386.715,-42.480,-19.043,-20.508,-339.844,0.000
1737551386.719,-21.973,-17.578,-19.043,-45.898,0.000
1737551386.723,-35.156,-14.648,-19.531,269.043,0.000
1737551386.727,-22.949,-17.090,-21.484,309.082,0.000
1737551386.731,-34.180,-24.902,-22.949,-45.410,0.000
1737551386.735,-65.430,-30.762,-24.414,-464.355,0.000
1737551386.739,-46.387,-29.785,-35.645,-233.398,0.000
1737551386.742,-18.066,-21.484,-26.855,169.922,0.000
1737551386.746,-5.859,-11.230,-17.090,262.207,0.000
1737551386.750,-18.066,-17.578,-20.020,-7.812,0.000
1737551386.754,-40.527,-25.391,-24.902,-439.453,0.000
1737551386.758,-28.809,-17.090,-25.391,-276.855,0.000
1737551386.762,-16.602,-11.230,-16.113,144.531,0.000
1737551386.766,2.441,-6.348,-7.324,260.254,0.000
1737551386.770,-4.883,-9.277,-11.719,50.781,0.000
1737551386.774,-39.551,-11.230,-17.090,-388.184,0.000
1737551386.778,-28.809,-6.348,-13.672,-314.941,0.000
1737551386.781,-19.531,-17.090,-15.625,92.285,0.000
1737551386.785,-29.297,-22.949,-12.207,208.008,0.000
1737551386.789,-16.602,-13.672,-15.137,52.734,0.000
1737551386.793,-23.438,-11.230,-18.066,-380.859,0.000
1737551386.797,-31.738,-14.648,-14.160,-389.648,0.000
1737551386.801,-12.695,-19.043,-11.230,60.059,0.000
1737551386.805,-16.602,-17.578,-13.672,218.750,0.000
1737551386.809,-29.785,-15.625,-16.113,78.125,0.000
1737551386.813,-40.527,-24.414,-14.648,-342.773,0.000
1737551386.817,-34.668,-21.973,-17.090,-444.824,0.000
1737551386.821,-7.324,-11.230,-11.719,9.277,0.000
1737551386.824,-27.344,-17.090,-5.859,210.938,0.000
1737551386.828,-62.500,-29.785,-5.371,39.062,0.000
1737551386.832,-46.875,-19.531,-9.766,-333.496,0.000
1737551386.836,-19.043,-18.555,-20.996,-436.035,0.000
1737551386.840,6.348,-20.996,-19.043,-42.969,0.000
1737551386.844,2.930,-13.672,-16.113,215.820,0.000
1737551386.848,-24.902,-12.695,-19.531,149.414,0.000
1737551386.852,-46.387,-13.672,-17.090,-250.977,0.000
1737551386.856,-45.898,-14.648,-16.602,-435.059,0.000
1737551386.860,-31.738,-20.020,-16.113,-34.180,0.000
1737551386.864,-29.785,-16.113,-13.672,246.582,0.000
1737551386.867,-24.902,-4.883,-11.719,260.742,0.000
1737551386.871,-27.832,-16.113,-13.672,-75.195,0.000
1737551386.875,-39.551,-27.832,-16.113,-399.902,0.000
1737551386.879,-25.391,-26.367,-13.672,-41.504,0.000
1737551386.883,-13.184,-22.949,-15.137,319.824,0.000
1737551386.887,2.930,-17.578,-9.766,340.332,0.000
1737551386.891,2.930,-13.184,-11.719,72.754,0.000
1737551386.895,-16.113,-12.695,-21.973,-272.461,0.000
1737551386.899,-3.906,-17.090,-22.949,-38.574,0.000
1737551386.903,-14.160,-19.531,-21.973,325.684,0.000
1737551386.906,-32.715,-20.996,-14.160,372.070,0.000
1737551386.910,-35.645,-19.531,-15.137,126.465,0.000
1737551386.914,-29.297,-11.230,-22.949,-203.613,0.000
1737551386.918,-18.555,-11.230,-23.438,1.465,0.000
1737551386.922,-6.348,-11.230,-21.973,343.750,0.000
1737551386.926,1.953,-4.883,-20.996,401.367,0.000
1737551386.930,-6.836,-12.695,-24.414,215.332,0.000
1737551386.934,-34.668,-19.531,-26.367,-215.820,0.000
1737551386.938,-53.711,-21.973,-25.879,-159.668,0.000
1737551386.942,-45.410,-14.648,-20.996,229.004,0.000
1737551386.946,-23.438,-12.695,-11.719,354.004,0.000
1737551386.949,-20.020,-20.508,-17.090,175.293,0.000
1737551386.953,-27.344,-24.902,-22.949,-270.508,0.000
1737551386.957,-28.320,-25.879,-16.602,-266.113,0.000
1737551386.961,-11.230,-11.230,-13.184,145.996,0.000
1737551386.965,5.859,-12.207,-18.066,318.359,0.000
1737551386.969,-10.742,-17.578,-17.090,157.715,0.000
1737551386.973,-26.367,-20.020,-21.973,-300.293,0.000
1737551386.977,-41.504,-20.508,-24.902,-365.234,0.000
1737551386.981,-16.113,-13.184,-16.113,71.777,0.000
1737551386.985,-5.371,-18.066,-12.207,272.949,0.000
1737551386.989,-14.160,-16.602,-20.020,150.391,0.000
1737551386.992,-32.715,-14.160,-24.902,-266.602,0.000
1737551386.996,-44.434,-19.531,-24.414,-407.715,0.000
1737551387.000,-22.949,-16.113,-15.137,1.953,0.000
1737551387.004,1.953,-10.742,-10.254,266.113,0.000
1737551387.008,1.465,-11.719,-19.531,223.633,0.000
1737551387.012,-29.297,-14.160,-20.020,-195.312,0.000
1737551387.016,-29.785,-17.090,-18.555,-435.547,0.000
1737551387.020,-24.902,-25.391,-13.672,-40.039,0.000
1737551387.024,-46.387,-27.344,-11.230,225.098,0.000
1737551387.028,-31.250,-20.508,-17.578,186.523,0.000
1737551387.031,-15.137,-19.531,-15.137,-119.141,0.000
1737551387.035,-27.344,-15.625,-19.531,-419.922,0.000
1737551387.039,-22.461,-14.648,-18.555,-147.461,0.000
1737551387.043,-8.789,-20.996,-15.137,176.758,0.000
1737551387.047,-14.160,-20.996,-17.090,200.195,0.000
1737551387.051,-45.898,-19.531,-21.973,-142.090,0.000
1737551387.055,-58.594,-22.461,-21.484,-485.840,0.000
1737551387.059,-43.457,-24.902,-18.555,-222.168,0.000
1737551387.063,-38.574,-19.043,-22.461,85.938,0.000
1737551387.067,-52.734,-16.602,-23.438,99.121,0.000
1737551387.071,-41.992,-20.020,-18.555,-191.406,0.000
1737551387.074,-30.762,-4.883,-18.555,-562.988,0.000
1737551387.078,-29.297,3.418,-8.789,-358.887,0.000
1737551387.082,-16.113,12.207,3.906,-13.672,0.000
1737551387.086,-53.711,20.020,12.695,35.156,0.000
1737551387.090,-108.887,22.461,16.602,-197.754,0.000
1737551387.094,-149.414,13.184,-13.184,-691.406,0.000
1737551387.098,-156.738,33.691,0.000,-655.762,0.000
1737551387.102,-145.996,62.012,25.879,-259.766,0.000
1737551387.106,-143.555,38.086,15.625,-125.000,0.000
1737551387.110,-189.941,20.020,14.648,-375.488,0.000
1737551387.114,-249.512,34.668,24.902,-844.238,0.000
1737551387.117,-298.340,47.363,20.996,-817.383,0.000
1737551387.121,-317.871,47.363,22.461,-416.016,0.000
1737551387.125,-300.781,51.270,33.691,-220.215,0.000
1737551387.129,-336.914,45.898,26.367,-350.586,0.000
1737551387.133,-329.590,42.969,9.277,-753.906,0.000
1737551387.137,-307.617,61.523,23.438,-725.586,0.000
1737551387.141,-337.891,61.035,25.391,-286.133,0.000
1737551387.145,-325.195,49.316,10.742,-84.961,0.000
1737551387.149,-315.430,54.199,28.320,-116.211,0.000
1737551387.153,-368.164,49.316,41.992,-515.137,0.000
1737551387.156,-368.652,43.945,20.508,-662.109,0.000
1737551387.160,-323.242,40.039,13.184,-237.793,0.000
1737551387.164,-306.641,36.133,18.066,22.949,0.000
1737551387.168,-315.918,44.434,10.742,0.977,0.000
1737551387.172,-318.848,36.133,5.859,-368.652,0.000
1737551387.176,-289.551,27.344,12.695,-500.488,0.000
1737551387.180,-259.766,32.715,23.438,-58.594,0.000
1737551387.184,-252.930,27.344,18.555,195.801,0.000
1737551387.188,-233.887,23.438,8.789,185.547,0.000
1737551387.192,-203.613,22.461,4.395,-101.074,0.000
1737551387.196,-202.637,21.973,1.465,-313.965,0.000
1737551387.199,-192.871,21.484,4.883,101.074,0.000
1737551387.203,-164.551,13.672,5.371,486.816,0.000
1737551387.207,-172.852,20.996,7.812,524.902,0.000
1737551387.211,-169.434,13.184,8.301,179.199,0.000
1737551387.215,-145.996,-3.906,-0.977,-193.848,0.000
1737551387.219,-135.254,0.977,0.977,64.453,0.000
1737551387.223,-129.395,-4.883,-2.930,349.121,0.000
1737551387.227,-114.746,-8.301,-16.113,321.289,0.000
1737551387.231,-87.402,-15.137,-21.973,64.453,0.000
1737551387.235,-83.008,-26.855,-23.438,-292.480,0.000
1737551387.238,-79.590,-24.414,-22.949,-63.477,0.000
1737551387.242,-52.246,-23.926,-22.949,359.863,0.000
1737551387.246,12.207,-30.273,-26.367,395.508,0.000
1737551387.250,38.086,-29.785,-32.227,139.648,0.000
1737551387.254,10.742,-37.109,-36.621,-249.023,0.000
1737551387.258,34.180,-40.039,-33.203,-104.980,0.000
1737551387.262,70.801,-34.180,-34.668,298.340,0.000
1737551387.266,71.289,-37.109,-38.086,386.719,0.000
1737551387.270,78.125,-41.504,-41.016,197.754,0.000
1737551387.274,69.824,-45.898,-45.898,-229.492,0.000
1737551387.278,70.801,-45.898,-42.969,-155.273,0.000
1737551387.281,104.980,-44.434,-42.480,238.281,0.000
1737551387.285,123.047,-44.922,-46.875,359.863,0.000
1737551387.289,121.582,-41.504,-45.898,244.629,0.000
1737551387.293,119.141,-44.922,-37.109,-165.039,0.000
1737551387.297,125.977,-47.363,-46.875,-202.637,0.000
1737551387.301,142.578,-40.039,-46.387,241.699,0.000
1737551387.305,166.016,-38.574,-38.086,454.590,0.000
1737551387.309,166.992,-41.016,-42.480,339.844,0.000
1737551387.313,134.766,-45.898,-43.457,-78.125,0.000
1737551387.317,137.207,-44.922,-45.898,-166.992,0.000
1737551387.321,155.762,-40.039,-42.969,256.836,0.000
1737551387.324,150.391,-40.039,-39.062,455.566,0.000
1737551387.328,143.555,-40.039,-38.574,364.258,0.000
1737551387.332,129.883,-44.434,-42.969,-32.227,0.000
1737551387.336,131.836,-44.434,-41.016,-148.926,0.000
1737551387.340,143.066,-40.039,-34.668,254.883,0.000
1737551387.344,118.164,-33.691,-36.621,437.988,0.000
1737551387.348,119.629,-38.574,-32.715,401.855,0.000
1737551387.352,135.254,-52.734,-26.855,66.406,0.000
1737551387.356,142.090,-53.223,-35.645,-207.031,0.000
1737551387.360,145.996,-42.969,-33.203,139.160,0.000
1737551387.363,143.066,-45.410,-31.250,438.477,0.000
1737551387.367,150.391,-46.875,-34.180,387.695,0.000
1737551387.371,126.953,-45.898,-29.785,45.898,0.000
1737551387.375,94.238,-44.922,-30.762,-238.281,0.000
1737551387.379,98.633,-43.457,-34.668,36.621,0.000
1737551387.383,101.562,-38.574,-32.227,353.516,0.000
1737551387.387,102.539,-38.574,-31.250,385.742,0.000
1737551387.391,92.773,-40.527,-32.715,76.660,0.000
1737551387.395,53.223,-38.574,-32.715,-333.008,0.000
1737551387.399,51.270,-36.621,-33.691,-106.445,0.000
1737551387.403,74.707,-38.574,-31.250,277.832,0.000
1737551387.406,80.566,-31.738,-28.320,352.539,0.000
1737551387.410,55.176,-30.762,-31.738,89.355,0.000
1737551387.414,33.203,-41.016,-29.297,-353.027,0.000
1737551387.418,38.086,-36.621,-20.508,-189.941,0.000
1737551387.422,63.477,-33.691,-33.691,192.871,0.000
1737551387.426,61.035,-26.367,-37.598,309.082,0.000
1737551387.430,59.570,-30.762,-26.855,137.695,0.000
1737551387.434,47.363,-41.504,-31.250,-309.082,0.000
1737551387.438,-2.930,-28.320,-30.762,-270.508,0.000
1737551387.442,23.438,-30.273,-18.555,137.695,0.000
1737551387.446,77.148,-45.898,-15.625,250.977,0.000
1737551387.449,68.848,-44.434,-35.156,76.172,0.000
1737551387.453,3.418,-34.180,-41.992,-380.371,0.000
1737551387.457,-39.062,-29.785,-25.391,-394.043,0.000
1737551387.461,36.621,-41.504,-13.184,-13.184,0.000
1737551387.465,68.359,-20.508,-22.461,104.004,0.000
1737551387.469,-62.012,21.484,-22.949,-67.383,0.000
1737551387.473,-88.867,2.441,-20.020,-422.363,0.000
1737551387.477,-131.348,33.203,-49.316,-442.383,0.000
1737551387.481,-32.227,-18.066,5.371,-95.215,0.000
1737551387.485,48.828,19.043,-25.879,30.762,0.000
1737551387.488,70.801,-53.711,5.859,10.742,0.000
1737551387.492,142.090,-141.113,75.195,-229.492,0.000
1737551387.496,27.832,0.977,-11.719,-377.441,0.000
1737551387.500,-109.863,104.492,-49.316,-157.227,0.000
1737551387.504,-110.352,42.480,51.758,3.418,0.000
1737551387.508,-3.906,-160.156,197.266,73.730,0.000
1737551387.512,192.871,-110.352,-74.707,-68.848,0.000
1737551387.516,300.781,-13.184,-165.039,-298.340,0.000
1737551387.520,296.875,-59.082,17.578,-13.672,0.000
1737551387.524,142.090,-35.645,42.969,53.711,0.000
1737551387.528,-17.090,7.812,-5.371,-119.141,0.000
1737551387.531,27.832,-26.855,-50.781,-242.676,0.000
1737551387.535,145.996,-78.613,-29.297,-529.785,0.000
1737551387.539,122.070,-102.539,20.508,-289.551,0.000
1737551387.543,167.480,-22.461,-55.176,102.051,0.000
1737551387.547,320.312,-41.504,-64.941,256.348,0.000
1737551387.551,366.699,-49.805,-115.723,312.500,0.000
1737551387.555,351.074,-58.594,-88.379,132.324,0.000
1737551387.559,239.258,-61.035,-35.645,105.957,0.000
1737551387.563,15.137,67.871,-55.176,213.379,0.000
1737551387.567,70.312,-31.738,-35.645,274.902,0.000
1737551387.571,193.848,-53.223,-79.590,160.156,0.000
1737551387.574,191.895,-112.305,-22.949,-112.793,0.000
1737551387.578,249.023,-130.371,-12.695,77.148,0.000
1737551387.582,248.535,-39.551,-94.727,396.973,0.000
1737551387.586,200.684,-38.086,-95.703,481.934,0.000
1737551387.590,71.289,-43.945,-59.082,369.629,0.000
1737551387.594,12.695,-39.062,-36.621,-128.906,0.000
1737551387.598,-53.223,25.879,-26.367,-212.891,0.000
1737551387.602,-27.344,-13.672,-1.953,193.848,0.000
1737551387.606,-70.312,-5.859,-74.219,457.520,0.000
1737551387.610,-69.824,31.250,-80.078,348.633,0.000
1737551387.613,81.543,-45.410,-10.254,-135.254,0.000
1737551387.617,-22.461,-25.879,3.418,-141.602,0.000
1737551387.621,-250.000,-68.848,101.074,-112.305,0.000
1737551387.625,-79.590,-81.055,6.348,111.816,0.000
1737551387.629,289.551,-29.785,-169.434,708.984,0.000
1737551387.633,132.812,-12.695,-107.422,336.426,0.000
1737551387.637,-94.727,15.137,-57.617,-21.484,0.000
1737551387.641,51.758,-28.320,-50.293,443.848,0.000
1737551387.645,115.234,-76.660,-18.555,747.070,0.000
1737551387.649,-11.230,-30.762,-9.277,536.133,0.000
1737551387.653,-127.930,65.918,-52.734,-18.555,0.000
1737551387.656,-34.668,-32.227,-15.625,-94.238,0.000
1737551387.660,20.020,-110.352,77.148,416.992,0.000
1737551387.664,52.246,-37.598,-25.391,709.473,0.000
1737551387.668,33.203,-0.977,-75.195,639.648,0.000
1737551387.672,-88.867,-29.297,-11.230,110.840,0.000
1737551387.676,-101.562,-34.668,-22.461,-175.781,0.000
1737551387.680,-156.738,25.391,1.953,60.059,0.000
1737551387.684,-295.410,1.465,98.145,116.699,0.000
1737551387.688,-81.543,-33.203,-3.418,52.734,0.000
1737551387.692,141.113,-6.836,-111.816,21.973,0.000
1737551387.696,48.340,-9.766,-53.223,-127.930,0.000
1737551387.699,-268.066,76.172,35.156,-401.855,0.000
1737551387.703,-73.730,-32.715,4.395,-3.906,0.000
1737551387.707,208.984,-101.074,-74.219,655.273,0.000
1737551387.711,94.727,-34.180,-46.875,351.562,0.000
1737551387.715,23.926,-32.715,-30.273,-219.727,0.000
1737551387.719,-19.531,-15.625,-36.133,-72.754,0.000
1737551387.723,-47.363,-5.859,2.441,264.648,0.000
1737551387.727,-46.875,0.000,15.137,271.973,0.000
1737551387.731,-61.035,-6.836,-24.902,-100.586,0.000
1737551387.735,-93.750,-1.465,-21.484,-564.453,0.000
1737551387.738,-135.254,17.090,-0.488,-414.062,0.000
1737551387.742,-138.184,19.531,8.301,-54.199,0.000
1737551387.746,-148.926,12.695,16.113,-31.250,0.000
1737551387.750,-168.945,34.668,9.766,-333.496,0.000
1737551387.754,-248.535,43.457,7.324,-875.977,0.000
1737551387.758,-330.078,37.109,34.668,-848.145,0.000
1737551387.762,-385.742,40.039,32.227,-566.406,0.000
1737551387.766,-426.758,52.246,26.855,-578.613,0.000
1737551387.770,-414.551,58.105,45.898,-721.191,0.000
1737551387.774,-464.844,71.777,42.969,-980.957,0.000
1737551387.778,-504.883,65.430,40.527,-982.422,0.000
1737551387.781,-471.191,63.965,39.062,-625.000,0.000
1737551387.785,-480.469,81.543,36.621,-460.449,0.000
1737551387.789,-506.836,82.031,40.527,-634.766,0.000
1737551387.793,-500.000,75.195,22.461,-961.426,0.000
1737551387.797,-507.324,77.148,18.066,-961.426,0.000
1737551387.801,-496.582,84.961,43.457,-547.852,0.000
1737551387.805,-505.859,91.797,50.781,-294.434,0.000
1737551387.809,-502.441,86.914,23.438,-393.555,0.000
1737551387.813,-527.344,74.707,40.039,-851.074,0.000
1737551387.817,-580.078,80.078,52.734,-1000.000,0.000
1737551387.820,-472.168,70.312,20.508,-492.188,0.000
1737551387.824,-402.344,56.152,18.555,-62.012,0.000
1737551387.828,-388.184,64.453,22.949,-166.504,0.000
1737551387.832,-417.969,78.613,12.695,-554.688,0.000
1737551387.836,-450.195,54.199,19.043,-636.719,0.000
1737551387.840,-344.238,52.734,28.320,-221.680,0.000
1737551387.844,-317.871,59.570,26.367,20.996,0.000
1737551387.848,-314.941,49.805,6.348,-93.750,0.000
1737551387.852,-284.180,59.570,-8.789,-459.473,0.000
1737551387.856,-383.789,55.176,2.930,-697.266,0.000
1737551387.860,-353.027,38.574,3.418,-375.977,0.000
1737551387.863,-211.426,42.969,0.977,-20.508,0.000
1737551387.867,-186.523,51.758,17.090,-22.461,0.000
1737551387.871,-211.426,49.805,20.508,-365.234,0.000
1737551387.875,-246.582,61.035,-2.930,-597.168,0.000
1737551387.879,-268.555,48.340,-0.488,-281.738,0.000
1737551387.883,-245.117,26.855,13.184,18.555,0.000
1737551387.887,-225.098,41.016,6.836,38.086,0.000
1737551387.891,-215.820,36.621,1.953,-264.648,0.000
1737551387.895,-199.707,36.133,-2.441,-626.953,0.000
1737551387.899,-176.758,49.316,-4.883,-333.496,0.000
1737551387.903,-160.645,42.969,-5.371,78.125,0.000
1737551387.906,-125.000,34.668,-9.766,116.211,0.000
1737551387.910,-131.348,28.320,-20.508,-163.086,0.000
1737551387.914,-170.898,20.020,-13.672,-570.801,0.000
1737551387.918,-155.762,29.297,-1.465,-338.867,0.000
1737551387.922,-130.371,20.020,-9.766,111.816,0.000
1737551387.926,-104.004,17.090,-16.602,215.820,0.000
1737551387.930,-107.422,17.578,-7.812,20.020,0.000
1737551387.934,-149.414,20.508,-16.113,-416.016,0.000
1737551387.938,-100.098,18.066,-19.043,-303.711,0.000
1737551387.942,-57.129,23.926,1.953,149.902,0.000
1737551387.945,-102.539,16.113,11.230,271.484,0.000
1737551387.949,-98.633,1.465,-13.672,131.348,0.000
1737551387.953,-80.566,-17.090,-22.461,-320.801,0.000
1737551387.957,-61.523,-19.043,-13.184,-328.125,0.000
1737551387.961,-21.484,-10.254,-9.277,139.648,0.000
1737551387.965,-30.273,-17.090,-13.184,307.617,0.000
1737551387.969,-45.898,-17.578,-18.555,142.090,0.000
1737551387.973,-17.578,-12.695,-19.043,-297.852,0.000
1737551387.977,-20.996,-7.812,-6.348,-384.277,0.000
1737551387.981,-47.363,-13.184,-5.371,16.602,0.000
1737551387.985,-41.016,-19.043,-12.207,209.961,0.000
1737551387.988,-33.691,-24.902,-10.254,118.164,0.000
1737551387.992,-62.012,-24.902,-12.207,-328.125,0.000
1737551387.996,-61.035,-19.043,-9.277,-539.062,0.000
1737551388.000,-39.062,-11.230,-14.160,-168.457,0.000
1737551388.004,-51.758,-16.602,-11.230,78.125,0.000
1737551388.008,-42.480,-20.020,-10.254,41.504,0.000
1737551388.012,-53.711,-17.578,-12.207,-327.637,0.000
1737551388.016,-59.570,-10.742,-15.625,-559.082,0.000
1737551388.020,-51.270,-17.090,-21.484,-145.020,0.000
1737551388.024,-61.523,-24.414,-14.160,168.945,0.000
1737551388.028,-55.664,-13.672,-16.113,155.762,0.000
1737551388.031,-71.777,-7.324,-25.391,-192.383,0.000
1737551388.035,-67.383,-17.090,-10.254,-470.215,0.000
1737551388.039,-66.406,-5.859,-7.812,-87.891,0.000
1737551388.043,-129.395,0.977,-2.930,254.395,0.000
1737551388.047,-110.352,-40.039,24.414,259.766,0.000
1737551388.051,-44.434,-39.551,-8.301,-41.016,0.000
1737551388.055,-45.898,-39.062,-9.766,-382.324,0.000
1737551388.059,-31.738,-44.434,-8.789,-101.562,0.000
1737551388.063,3.906,-28.320,-15.137,344.727,0.000
1737551388.067,5.859,-25.879,-5.371,413.086,0.000
1737551388.070,-19.531,-29.785,-3.418,110.352,0.000
1737551388.074,-21.484,-22.949,-13.184,-265.137,0.000
1737551388.078,-3.418,-6.836,-16.113,-67.871,0.000
1737551388.082,-20.508,4.395,-16.113,376.465,0.000
1737551388.086,11.719,-13.184,-7.324,584.961,0.000
1737551388.090,79.102,-42.480,3.906,328.613,0.000
1737551388.094,45.898,-43.945,0.977,-166.504,0.000
1737551388.098,33.691,-37.109,0.488,79.590,0.000
1737551388.102,51.758,-32.227,-12.207,598.633,0.000
1737551388.106,48.340,-25.879,-23.926,717.285,0.000
1737551388.110,60.547,-44.922,-16.602,529.785,0.000
1737551388.113,61.523,-68.848,2.930,85.938,0.000
1737551388.117,25.391,-58.105,1.465,75.684,0.000
1737551388.121,67.871,-41.992,-17.578,470.215,0.000
1737551388.125,164.551,-48.340,-25.391,629.883,0.000
1737551388.129,160.156,-37.598,-36.133,484.375,0.000
1737551388.133,72.754,-37.598,-29.785,28.320,0.000
1737551388.137,21.973,-42.969,1.953,-14.160,0.000
1737551388.141,47.852,-17.090,-10.254,406.250,0.000
1737551388.145,131.348,-63.477,-5.371,631.348,0.000
1737551388.149,150.391,-81.055,-18.066,547.852,0.000
1737551388.153,166.504,-90.332,-48.828,203.125,0.000
1737551388.156,185.547,-88.379,-15.137,74.219,0.000
1737551388.160,111.816,-23.926,23.438,226.074,0.000
1737551388.164,259.766,-94.727,-20.996,555.664,0.000
1737551388.168,320.312,-94.238,-81.543,685.547,0.000
1737551388.172,238.281,-77.148,-48.828,279.297,0.000
1737551388.176,176.270,-83.496,69.336,81.543,0.000
1737551388.180,210.449,-54.199,25.879,381.348,0.000
1737551388.184,275.391,-46.875,-64.453,475.098,0.000
1737551388.188,359.863,-89.844,-56.641,557.617,0.000
1737551388.192,445.801,-52.246,-156.250,524.902,0.000
1737551388.195,352.539,-48.340,-116.699,138.672,0.000
1737551388.199,262.207,-111.328,1.953,185.547,0.000
1737551388.203,377.441,-136.230,-18.555,475.098,0.000
1737551388.207,388.184,-66.895,-57.129,455.078,0.000
1737551388.211,268.066,-89.844,-19.043,117.188,0.000
1737551388.215,311.523,-83.496,-77.637,-285.156,0.000
1737551388.219,152.832,66.895,-75.195,-300.781,0.000
1737551388.223,8.301,-3.906,-51.758,20.996,0.000
1737551388.227,280.762,-115.723,-123.535,372.559,0.000
1737551388.231,496.582,-90.332,-85.449,141.113,0.000
1737551388.235,373.047,-90.820,-37.598,-532.227,0.000
1737551388.238,379.883,-135.742,-53.711,-387.695,0.000
1737551388.242,487.305,-102.539,-112.305,500.977,0.000
1737551388.246,365.234,-31.250,-112.793,703.613,0.000
1737551388.250,296.387,-57.129,-84.961,252.441,0.000
1737551388.254,248.047,-5.371,-137.695,-202.148,0.000
1737551388.258,56.152,18.555,-75.195,-183.594,0.000
1737551388.262,166.016,-117.676,-15.137,292.480,0.000
1737551388.266,348.633,-73.730,-80.566,574.707,0.000
1737551388.270,354.004,-68.359,-90.820,396.484,0.000
1737551388.274,320.801,-85.938,-103.516,-65.430,0.000
1737551388.278,219.238,-49.805,-88.867,-52.246,0.000
1737551388.281,190.918,-47.852,-76.660,377.441,0.000
1737551388.285,203.613,-62.012,-41.016,598.633,0.000
1737551388.289,137.695,-38.086,-52.734,477.539,0.000
1737551388.293,70.312,-4.395,-81.055,-66.895,0.000
1737551388.297,16.602,-23.438,-1.953,-144.531,0.000
1737551388.301,76.172,-50.293,-24.902,402.344,0.000
1737551388.305,149.902,-45.410,-77.637,670.898,0.000
1737551388.309,169.434,-61.523,-38.086,592.773,0.000
1737551388.313,168.945,-59.082,-16.602,114.746,0.000
1737551388.317,161.621,-44.434,-43.457,-70.312,0.000
1737551388.320,147.949,-33.203,-43.945,361.816,0.000
1737551388.324,75.684,-20.020,-22.949,554.688,0.000
1737551388.328,20.996,-21.973,-37.109,411.133,0.000
1737551388.332,-4.395,-23.926,-27.832,-46.387,0.000
1737551388.336,9.277,-38.574,3.906,-347.656,0.000
1737551388.340,60.547,-49.805,-16.113,68.848,0.000
1737551388.344,87.891,-30.762,-55.664,492.676,0.000
1737551388.348,70.312,-25.879,-43.945,544.922,0.000
1737551388.352,-1.465,-31.738,-33.691,126.465,0.000
1737551388.356,-23.438,-39.062,-29.297,-196.777,0.000
1737551388.360,-9.277,-37.109,-20.996,83.984,0.000
1737551388.363,-16.602,-14.648,-27.344,336.426,0.000
1737551388.367,-14.160,0.977,-22.949,359.863,0.000
1737551388.371,-56.641,0.977,-21.484,-2.930,0.000
1737551388.375,-102.051,-12.695,3.418,-439.453,0.000
1737551388.379,-105.957,1.465,13.672,-155.273,0.000
1737551388.383,-71.289,-11.719,-17.578,223.145,0.000
1737551388.387,-94.727,32.227,-6.836,135.742,0.000
1737551388.391,-220.703,61.035,31.250,-240.234,0.000
1737551388.395,-262.695,21.484,73.242,-750.488,0.000
1737551388.399,-269.043,38.086,-51.270,-562.500,0.000
1737551388.402,-229.004,60.059,-0.488,-125.488,0.000
1737551388.406,-121.582,-8.301,103.516,-65.430,0.000
1737551388.410,-145.996,-31.250,31.250,-345.215,0.000
1737551388.414,-323.242,53.711,1.953,-916.504,0.000
1737551388.418,-497.070,133.301,15.625,-893.555,0.000
1737551388.422,-421.387,37.109,60.547,-462.891,0.000
1737551388.426,-383.789,-21.973,105.469,-498.535,0.000
1737551388.430,-375.488,40.039,20.020,-583.008,0.000
1737551388.434,-298.828,37.598,38.574,-701.172,0.000
1737551388.438,-256.348,30.762,-23.438,-573.242,0.000
1737551388.442,-234.863,41.016,-64.453,-119.629,0.000
1737551388.445,-325.684,49.316,59.570,-145.020,0.000
1737551388.449,-464.355,88.379,25.391,-518.555,0.000
1737551388.453,-451.660,96.680,-24.902,-852.051,0.000
1737551388.457,-294.922,44.922,-45.898,-593.262,0.000
1737551388.461,-213.379,14.160,-40.527,-84.473,0.000
1737551388.465,-162.109,39.062,-12.207,66.406,0.000
1737551388.469,-190.918,61.035,-33.691,-180.664,0.000
1737551388.473,-270.996,81.055,-38.574,-706.543,0.000
1737551388.477,-350.098,104.980,0.488,-844.727,0.000
1737551388.481,-292.969,58.594,31.250,-382.812,0.000
1737551388.485,-262.695,46.875,9.277,-132.812,0.000
1737551388.488,-284.180,55.664,3.906,-237.793,0.000
1737551388.492,-207.520,73.242,-21.973,-655.273,0.000
1737551388.496,-136.230,42.969,-51.758,-651.367,0.000
1737551388.500,-178.223,23.926,-34.180,-164.551,0.000
1737551388.504,-154.785,44.922,-11.719,52.734,0.000
