timestamps,TP9,AF7,AF8,TP10,Right AUX
1737566951.745,0.000,-31.250,0.488,29.297,0.000
1737566951.749,0.000,-40.039,-23.926,-1.953,0.000
1737566951.753,0.000,-37.598,0.000,107.910,0.000
1737566951.757,0.000,-29.785,28.809,176.270,0.000
1737566951.760,0.000,-17.090,14.648,122.070,0.000
1737566951.764,0.000,-17.578,-13.184,22.949,0.000
1737566951.768,0.000,-38.086,-19.531,-47.363,0.000
1737566951.772,0.000,-44.434,-17.578,44.434,0.000
1737566951.776,0.000,-32.715,-9.277,148.926,0.000
1737566951.780,0.000,-9.766,-2.441,151.855,0.000
1737566951.784,0.000,-11.719,6.836,57.129,0.000
1737566951.788,0.000,-40.527,-2.441,-29.297,0.000
1737566951.792,-53.711,-61.035,0.000,47.852,0.000
1737566951.796,8.301,-64.453,0.000,173.340,0.000
1737566951.800,-3.418,-48.828,0.000,139.648,0.000
1737566951.804,-48.340,-22.461,0.000,28.809,0.000
1737566951.807,-62.988,-12.207,0.000,-17.090,0.000
1737566951.811,-71.289,-17.578,0.000,11.230,0.000
1737566951.815,-41.992,-15.625,0.000,130.371,0.000
1737566951.819,3.906,-10.254,0.000,191.895,0.000
1737566951.823,-22.461,-1.953,0.000,135.742,0.000
1737566951.827,-52.734,-3.906,0.000,42.969,0.000
1737566951.831,-42.969,-17.090,0.000,49.805,0.000
1737566951.835,0.000,-18.066,0.000,143.555,0.000
1737566951.839,57.129,-9.277,-14.160,205.566,0.000
1737566951.843,-23.438,-20.508,10.254,87.891,0.000
1737566951.847,-113.281,-46.387,44.922,-51.270,0.000
1737566951.850,-62.500,-62.988,44.434,26.855,0.000
1737566951.854,39.062,-31.250,11.719,146.973,0.000
1737566951.858,31.738,10.254,-20.996,186.523,0.000
1737566951.862,-26.855,-1.953,-2.441,112.793,0.000
1737566951.866,2.441,-8.789,43.945,52.246,0.000
1737566951.870,-63.965,-14.160,45.898,42.480,0.000
1737566951.874,-71.289,-24.414,34.180,91.797,0.000
1737566951.878,41.504,-14.648,6.348,176.758,0.000
1737566951.881,-21.484,-33.691,-20.020,103.027,0.000
1737566951.886,-119.629,-56.152,-4.883,15.137,0.000
1737566951.890,-88.379,-41.992,14.648,36.621,0.000
1737566951.893,38.086,-19.531,-10.254,124.512,0.000
1737566951.897,64.453,-1.465,-6.348,194.336,0.000
1737566951.901,-64.453,-14.160,5.859,135.254,0.000
1737566951.905,-113.281,-28.809,-12.695,32.227,0.000
1737566951.909,-41.992,-44.922,16.602,40.527,0.000
1737566951.913,38.086,-41.016,30.762,140.625,0.000
1737566951.917,28.809,-22.949,8.301,188.477,0.000
1737566951.921,-51.758,-33.203,2.930,107.422,0.000
1737566951.924,-100.586,-38.574,-9.766,-2.930,0.000
1737566951.928,-82.520,-42.480,-14.648,-14.648,0.000
1737566951.933,-1.953,-15.137,0.977,85.449,0.000
1737566951.936,14.648,-19.531,12.207,152.344,0.000
1737566951.940,-44.922,-47.363,13.672,110.840,0.000
1737566951.944,-77.148,-32.227,0.000,23.926,0.000
1737566951.948,-71.289,-24.414,-28.320,-37.109,0.000
1737566951.952,-16.113,-14.160,-38.574,47.852,0.000
1737566951.956,30.762,-6.836,-20.020,157.227,0.000
1737566951.960,-25.879,-30.273,-14.648,144.531,0.000
1737566951.964,-94.727,-44.434,14.160,32.227,0.000
1737566951.967,-100.098,-44.434,34.668,-63.477,0.000
1737566951.971,-37.598,-41.504,15.625,10.254,0.000
1737566951.975,35.645,-35.645,8.789,144.531,0.000
1737566951.980,21.484,-25.879,1.953,153.809,0.000
1737566951.983,0.977,-27.344,10.742,60.547,0.000
1737566951.987,-45.898,-42.480,1.953,9.277,0.000
1737566951.991,-98.633,-51.758,-25.879,14.648,0.000
1737566951.995,0.977,-51.758,-35.645,103.516,0.000
1737566951.999,63.477,-16.602,-59.082,166.992,0.000
1737566952.003,-20.020,-7.812,-41.992,69.824,0.000
1737566952.007,-89.355,-32.227,12.207,-44.434,0.000
1737566952.011,-43.945,-17.090,31.250,-2.930,0.000
1737566952.014,44.434,-11.719,16.113,99.121,0.000
1737566952.018,18.066,-26.367,0.488,136.230,0.000
1737566952.022,-72.754,-30.762,8.301,83.984,0.000
1737566952.026,-92.773,-41.016,0.000,-15.137,0.000
1737566952.030,-85.449,-53.711,0.000,-37.109,0.000
1737566952.034,-23.926,-35.645,0.000,30.273,0.000
1737566952.038,47.363,-12.207,0.000,118.164,0.000
1737566952.042,-5.859,-27.344,0.000,56.641,0.000
1737566952.046,-85.938,-41.992,0.000,-58.105,0.000
1737566952.050,-69.824,-44.434,0.000,-50.781,0.000
1737566952.054,-26.367,-55.176,0.000,32.715,0.000
1737566952.057,5.371,-43.945,0.000,87.402,0.000
1737566952.061,12.695,-22.461,0.000,59.570,0.000
1737566952.065,-68.848,-29.785,0.000,-20.020,0.000
1737566952.069,-115.234,-27.832,0.000,-18.066,0.000
1737566952.073,-1.465,-20.508,-2.930,69.336,0.000
1737566952.077,89.355,-26.855,-3.418,129.395,0.000
1737566952.081,52.246,-34.180,-17.090,109.375,0.000
1737566952.085,-38.574,-32.227,-56.152,-22.461,0.000
1737566952.089,-77.637,-37.598,-53.711,-76.172,0.000
1737566952.093,-30.762,-32.227,-15.625,35.156,0.000
1737566952.096,7.324,-33.203,0.000,113.281,0.000
1737566952.100,-16.113,-40.527,-23.438,64.941,0.000
1737566952.104,-62.500,-37.598,-5.371,-41.016,0.000
1737566952.108,-87.402,-38.574,14.160,-88.379,0.000
1737566952.112,-43.945,-32.715,4.883,5.859,0.000
1737566952.116,53.711,-35.156,-10.254,114.746,0.000
1737566952.120,63.477,-44.922,-31.250,108.887,0.000
1737566952.124,-9.277,-43.457,-36.133,0.000,0.000
1737566952.128,-70.801,-41.992,-20.508,-75.195,0.000
1737566952.132,-78.125,-37.109,3.906,-24.414,0.000
1737566952.136,-25.391,-28.320,10.254,62.500,0.000
1737566952.139,17.090,-20.996,11.230,76.660,0.000
1737566952.143,-46.387,-15.625,-18.066,5.859,0.000
1737566952.147,-51.270,-12.695,-34.668,-36.621,0.000
1737566952.151,9.766,-25.879,-7.324,4.883,0.000
1737566952.155,67.383,-26.855,-7.324,69.824,0.000
1737566952.159,67.871,-23.926,-33.203,66.406,0.000
1737566952.163,-44.922,-33.203,-29.297,-13.184,0.000
1737566952.167,-118.164,-35.645,0.488,-87.402,0.000
1737566952.171,-65.430,-34.180,0.488,-57.617,0.000
1737566952.175,36.621,-28.809,4.883,55.664,0.000
1737566952.179,69.824,-29.297,4.395,117.676,0.000
1737566952.183,-14.648,-41.992,-16.113,40.039,0.000
1737566952.186,-68.848,-41.016,-30.273,-75.684,0.000
1737566952.190,-57.129,-25.391,-38.574,-56.641,0.000
1737566952.194,-9.766,-23.438,-38.086,46.875,0.000
1737566952.198,50.293,-34.668,-19.531,76.172,0.000
1737566952.202,3.906,-46.387,0.488,-1.953,0.000
1737566952.206,-72.754,-47.363,-5.859,-62.988,0.000
1737566952.210,-61.523,-46.875,-17.578,-38.086,0.000
1737566952.214,10.742,-36.133,-7.324,39.062,0.000
1737566952.218,66.406,-21.973,3.906,104.492,0.000
1737566952.222,38.086,-8.301,2.930,71.289,0.000
1737566952.226,-39.551,-24.902,-23.438,-10.254,0.000
1737566952.229,-45.898,-38.086,-47.363,-27.344,0.000
1737566952.233,-9.277,-35.645,-42.480,23.438,0.000
1737566952.237,8.789,-44.434,-41.992,84.473,0.000
1737566952.241,-16.113,-37.598,-33.691,35.156,0.000
1737566952.245,-72.754,-35.156,-37.109,-78.613,0.000
1737566952.249,-73.242,-30.762,-32.715,-96.680,0.000
1737566952.253,9.766,-5.859,0.000,29.297,0.000
1737566952.256,57.129,-19.043,2.441,94.727,0.000
1737566952.261,0.000,-58.105,-19.531,13.672,0.000
1737566952.265,0.000,-57.129,-27.344,-48.340,0.000
1737566952.269,0.000,-35.645,-23.926,-47.852,0.000
1737566952.272,0.000,-39.551,-24.414,2.930,0.000
1737566952.276,0.000,-50.781,-25.879,67.383,0.000
1737566952.280,0.000,-28.320,-31.250,52.734,0.000
1737566952.284,0.000,-15.625,-53.223,-27.344,0.000
1737566952.288,0.000,-33.203,-69.336,-91.309,0.000
1737566952.292,0.000,-38.086,-45.898,-33.691,0.000
1737566952.296,0.000,-24.902,-5.371,71.777,0.000
1737566952.299,0.000,-23.438,-7.812,66.895,0.000
1737566952.303,0.000,-41.504,-5.859,5.859,0.000
1737566952.308,-49.805,-47.852,21.973,-50.781,0.000
1737566952.312,-90.332,-48.340,-1.953,-28.320,0.000
1737566952.315,-7.812,-26.367,-28.320,78.613,0.000
1737566952.319,-10.742,-6.836,-26.367,83.496,0.000
1737566952.323,-66.406,-31.250,-31.250,-15.625,0.000
1737566952.327,-72.266,-35.156,-16.113,-65.430,0.000
1737566952.331,-37.109,-20.508,-23.438,-22.949,0.000
1737566952.335,36.133,-25.879,-17.578,103.516,0.000
1737566952.339,46.387,-39.062,9.766,123.047,0.000
1737566952.343,-23.438,-35.645,2.930,26.367,0.000
1737566952.346,-37.598,-21.973,-22.949,-3.906,0.000
1737566952.350,-9.277,-19.043,-34.180,33.203,0.000
1737566952.355,0.000,-23.438,-10.742,79.590,0.000
1737566952.358,0.000,-31.738,-9.766,115.234,0.000
1737566952.362,0.000,-55.664,-21.973,63.965,0.000
1737566952.366,0.000,-56.641,-16.113,-13.184,0.000
1737566952.370,0.000,-39.062,-24.414,2.441,0.000
1737566952.374,0.000,-21.484,-33.691,108.887,0.000
1737566952.378,0.000,-10.254,-6.836,165.527,0.000
1737566952.382,0.000,-16.602,6.836,86.914,0.000
1737566952.386,0.000,-21.484,-20.996,14.648,0.000
1737566952.389,0.000,-16.602,-33.691,19.531,0.000
1737566952.393,0.000,-19.531,-15.137,87.402,0.000
1737566952.397,0.000,-29.785,7.324,173.828,0.000
1737566952.401,-30.273,-23.438,-9.766,130.859,0.000
1737566952.405,-74.219,-44.434,-24.414,8.301,0.000
1737566952.409,-65.918,-66.895,1.953,6.348,0.000
1737566952.413,-11.719,-41.504,0.000,80.566,0.000
1737566952.417,46.387,-21.973,-16.602,152.832,0.000
1737566952.421,-2.441,-22.461,-27.344,133.789,0.000
1737566952.425,-102.539,-33.203,-23.926,31.250,0.000
1737566952.429,-84.473,-54.688,-12.207,-24.902,0.000
1737566952.432,-0.488,-47.852,-26.367,18.555,0.000
1737566952.436,15.625,-18.555,-23.926,127.441,0.000
1737566952.440,0.977,-12.695,-15.625,142.090,0.000
1737566952.444,-60.059,-32.227,-25.879,36.621,0.000
1737566952.448,-96.680,-31.738,-29.785,1.465,0.000
1737566952.452,-55.664,-32.715,-23.438,82.031,0.000
1737566952.456,24.902,-43.457,-42.480,161.621,0.000
1737566952.460,36.621,-42.480,-31.250,145.020,0.000
1737566952.464,-56.641,-41.504,-0.977,17.578,0.000
1737566952.468,-112.793,-40.039,-12.207,-51.758,0.000
1737566952.471,-49.316,-32.715,-37.109,28.320,0.000
1737566952.475,34.180,-12.695,-49.805,119.141,0.000
1737566952.479,0.977,-15.137,-24.414,130.859,0.000
1737566952.483,-89.355,-28.320,2.930,73.730,0.000
1737566952.487,-100.586,-30.762,-4.395,-8.301,0.000
1737566952.491,-51.758,-38.086,-13.672,-6.836,0.000
1737566952.495,12.207,-51.758,-30.762,87.402,0.000
1737566952.499,25.879,-42.480,-31.738,131.348,0.000
1737566952.503,-43.945,-36.133,-20.996,36.133,0.000
1737566952.507,-114.258,-23.926,-48.828,-42.480,0.000
1737566952.511,-68.848,-10.254,-57.129,0.977,0.000
1737566952.514,33.691,-10.254,-15.625,101.562,0.000
1737566952.518,41.992,-20.508,10.254,128.418,0.000
1737566952.522,-45.410,-30.762,10.742,30.273,0.000
1737566952.526,-74.219,-28.320,2.930,-48.828,0.000
1737566952.530,-30.273,-24.902,-15.625,-26.855,0.000
1737566952.534,19.531,-15.137,-41.504,65.430,0.000
1737566952.538,27.832,-13.672,-53.711,145.020,0.000
1737566952.542,-41.016,-22.461,-23.926,100.098,0.000
1737566952.546,-99.609,-39.062,6.836,-18.066,0.000
1737566952.550,-82.031,-34.180,7.812,-49.316,0.000
1737566952.554,-28.320,-13.672,12.207,69.824,0.000
1737566952.558,9.766,-7.812,6.348,125.000,0.000
1737566952.561,2.930,-1.953,-0.977,61.035,0.000
1737566952.565,-56.152,-15.625,-8.789,-41.016,0.000
1737566952.569,-79.102,-33.691,-17.090,-41.016,0.000
1737566952.573,-50.781,-27.344,-18.066,82.031,0.000
1737566952.577,7.324,-13.672,-25.391,164.062,0.000
1737566952.581,-2.441,-33.203,-22.949,145.996,0.000
1737566952.585,-55.176,-35.156,-6.348,16.602,0.000
1737566952.589,-44.434,-7.812,2.441,-26.367,0.000
1737566952.593,-1.953,-11.719,-9.277,62.012,0.000
1737566952.597,24.902,-10.742,-22.461,120.117,0.000
1737566952.601,-38.574,-25.391,-23.926,97.168,0.000
1737566952.604,-107.422,-37.598,-11.719,18.066,0.000
1737566952.608,-69.824,-25.391,0.488,-3.906,0.000
1737566952.612,-11.230,-25.879,-9.277,80.566,0.000
1737566952.616,49.316,-0.977,-14.160,157.227,0.000
1737566952.620,31.250,2.441,-11.719,141.113,0.000
1737566952.624,-68.848,-42.969,-8.789,62.500,0.000
1737566952.628,-86.914,-50.293,-17.578,-19.043,0.000
1737566952.631,-34.180,-14.648,-10.742,4.395,0.000
1737566952.636,0.000,-7.324,13.184,84.961,0.000
1737566952.640,0.000,-17.090,2.930,87.402,0.000
1737566952.644,0.000,-30.762,-10.742,40.039,0.000
1737566952.647,0.000,-41.992,-6.836,-42.480,0.000
1737566952.651,0.000,-20.508,2.930,0.977,0.000
1737566952.655,0.000,-7.812,-0.488,122.559,0.000
1737566952.659,0.000,-16.113,-14.648,125.488,0.000
1737566952.663,0.000,-30.273,-16.113,6.836,0.000
1737566952.667,0.000,-38.086,-26.855,-80.078,0.000
1737566952.671,0.000,-30.273,-28.809,-11.230,0.000
1737566952.674,0.000,-28.320,-8.301,88.379,0.000
1737566952.678,0.000,-44.434,-0.977,96.680,0.000
1737566952.683,-30.762,-47.852,-0.488,31.738,0.000
1737566952.687,-89.355,-30.273,-7.324,-74.219,0.000
1737566952.690,-93.262,-25.391,0.488,-59.570,0.000
1737566952.694,-4.395,-28.809,-4.883,37.109,0.000
1737566952.698,28.320,-39.062,-16.113,82.520,0.000
1737566952.702,-52.734,-32.715,-11.230,19.043,0.000
1737566952.706,-129.883,-24.902,-24.414,-87.402,0.000
1737566952.710,-92.773,-24.414,-29.785,-73.730,0.000
1737566952.714,-5.371,-20.508,5.371,26.367,0.000
1737566952.718,49.805,-29.785,20.508,87.891,0.000
1737566952.721,-5.859,-35.645,-4.395,9.277,0.000
1737566952.725,-108.887,-36.133,-8.789,-86.426,0.000
1737566952.730,0.000,-25.879,3.418,-77.637,0.000
1737566952.734,0.000,-8.301,-0.977,26.855,0.000
1737566952.737,0.000,-5.859,-15.137,104.004,0.000
1737566952.741,0.000,-34.668,-6.348,50.781,0.000
1737566952.745,0.000,-46.875,3.418,-59.570,0.000
1737566952.749,0.000,-26.855,-26.367,-103.516,0.000
1737566952.753,0.000,-17.090,-33.203,-15.137,0.000
1737566952.757,0.000,-15.137,-5.371,101.074,0.000
1737566952.761,0.000,-13.184,7.812,63.965,0.000
1737566952.765,0.000,-21.973,-0.977,-41.504,0.000
1737566952.768,0.000,-25.391,-7.324,-63.477,0.000
1737566952.772,0.000,-13.672,-3.906,-36.621,0.000
1737566952.777,19.531,-14.160,-16.113,16.602,0.000
1737566952.780,9.277,-19.043,-15.625,4.883,0.000
1737566952.784,-60.059,-37.109,-4.883,-57.617,0.000
1737566952.788,-99.609,-48.340,-14.648,-79.102,0.000
1737566952.792,-28.320,-26.367,-13.672,-10.254,0.000
1737566952.796,29.785,-12.207,-14.160,88.867,0.000
1737566952.800,-11.719,-20.996,-32.715,56.152,0.000
1737566952.804,-72.754,-30.273,-38.086,-90.820,0.000
1737566952.807,-111.816,-34.180,-24.414,-141.602,0.000
1737566952.811,-62.012,-28.809,-32.227,-30.762,0.000
1737566952.815,53.223,-23.438,-41.504,89.844,0.000
1737566952.819,56.641,-16.602,-12.695,61.523,0.000
1737566952.823,-49.805,-22.461,-21.484,-57.129,0.000
1737566952.827,-74.219,-30.273,-22.461,-110.840,0.000
1737566952.831,-21.973,-15.137,-14.648,-42.480,0.000
1737566952.835,-21.484,-16.602,-26.855,33.203,0.000
1737566952.839,-34.180,-20.020,-9.277,46.387,0.000
1737566952.843,-68.359,-23.926,-3.418,-10.742,0.000
1737566952.847,-88.379,-51.758,-16.113,-83.984,0.000
1737566952.851,-44.922,-51.758,-24.414,-67.871,0.000
1737566952.854,28.320,-33.691,-23.926,23.926,0.000
1737566952.858,86.914,-16.602,-25.391,67.871,0.000
1737566952.862,9.766,1.953,-30.273,36.133,0.000
1737566952.866,-109.863,-18.066,-14.160,-48.340,0.000
1737566952.870,-94.727,-45.410,11.719,-62.500,0.000
1737566952.874,-5.859,-44.922,-5.859,66.895,0.000
1737566952.878,24.414,-19.043,-26.855,78.613,0.000
1737566952.882,-36.621,-22.949,-15.137,-10.742,0.000
1737566952.886,-78.125,-28.320,-15.625,-67.383,0.000
1737566952.890,-50.293,-15.625,-34.180,-70.312,0.000
1737566952.894,21.484,-24.414,-28.809,54.688,0.000
1737566952.897,52.246,-31.250,-48.828,136.230,0.000
1737566952.901,-52.734,-28.320,-48.340,37.109,0.000
1737566952.905,-120.117,-30.762,-4.395,-89.355,0.000
1737566952.909,-83.984,-34.668,2.441,-107.910,0.000
1737566952.913,5.371,-38.086,4.395,1.465,0.000
1737566952.917,0.000,-34.668,0.000,95.703,0.000
1737566952.921,0.000,-35.645,0.000,37.598,0.000
1737566952.925,0.000,-31.250,0.000,-79.102,0.000
1737566952.929,0.000,-15.137,0.000,-96.680,0.000
1737566952.933,0.000,-38.574,0.000,2.441,0.000
1737566952.937,0.000,-61.523,0.000,87.402,0.000
1737566952.940,0.000,-55.176,0.000,74.219,0.000
1737566952.944,0.000,-42.969,0.000,-39.551,0.000
1737566952.948,0.000,-25.879,0.000,-103.516,0.000
1737566952.952,0.000,-32.715,0.000,-33.203,0.000
1737566952.956,0.000,-32.715,0.000,47.363,0.000
1737566952.960,0.000,-42.480,0.000,45.898,0.000
1737566952.964,-86.426,-43.457,-19.531,-26.855,0.000
1737566952.968,-101.562,-28.809,-23.438,-83.496,0.000
1737566952.972,-81.055,-33.203,-25.391,-50.293,0.000
1737566952.976,-9.277,-26.367,-20.996,59.570,0.000
1737566952.980,-3.418,-24.902,-24.414,70.312,0.000
1737566952.983,-56.641,-21.973,-29.785,-46.387,0.000
1737566952.987,-91.309,-27.832,-29.297,-107.422,0.000
1737566952.991,-33.203,-33.203,-31.250,-24.902,0.000
1737566952.995,60.059,-20.020,-55.176,83.008,0.000
1737566952.999,-2.441,-28.809,-62.012,43.945,0.000
1737566953.003,-101.074,-46.387,-35.156,-62.012,0.000
1737566953.007,-137.207,-49.316,-37.109,-112.793,0.000
1737566953.011,-30.273,-43.945,-41.992,-62.500,0.000
1737566953.015,11.719,-40.039,-27.344,60.059,0.000
1737566953.019,3.906,-26.855,-5.859,105.957,0.000
1737566953.023,-30.273,-10.254,-25.879,-14.648,0.000
1737566953.027,-100.098,-31.250,-49.316,-134.277,0.000
1737566953.030,-43.457,-45.898,-22.949,-77.637,0.000
1737566953.034,0.000,-31.738,0.000,41.016,0.000
1737566953.038,-20.508,-22.949,10.742,87.402,0.000
1737566953.042,-56.152,-27.832,3.418,8.301,0.000
1737566953.046,-82.031,-33.203,-13.672,-100.098,0.000
1737566953.050,-80.566,-38.086,-29.785,-86.914,0.000
1737566953.054,1.465,-37.598,-31.250,53.711,0.000
1737566953.058,25.879,-34.180,-9.766,108.398,0.000
1737566953.062,-50.293,-39.551,-3.906,0.488,0.000
1737566953.066,-110.352,-50.781,-23.438,-128.906,0.000
1737566953.070,-108.887,-34.668,-22.461,-115.723,0.000
1737566953.073,-25.879,-0.977,-5.859,41.992,0.000
1737566953.077,62.500,26.855,15.137,126.465,0.000
1737566953.081,67.871,41.504,58.105,89.844,0.000
1737566953.085,0.977,32.227,84.961,17.578,0.000
1737566953.089,10.742,48.828,67.383,-15.625,0.000
1737566953.093,134.766,76.172,59.570,73.730,0.000
1737566953.097,140.625,45.898,54.688,155.273,0.000
1737566953.100,9.766,7.324,23.438,97.168,0.000
1737566953.105,-55.176,-1.953,0.000,-36.133,0.000
1737566953.109,-55.664,-6.348,0.000,-83.984,0.000
1737566953.113,-15.625,-21.973,0.000,-17.578,0.000
1737566953.116,34.180,-19.531,0.000,96.680,0.000
1737566953.120,0.488,-11.230,0.000,35.645,0.000
1737566953.124,-73.242,-29.297,0.000,-119.629,0.000
1737566953.128,-83.496,-40.039,0.000,-137.695,0.000
1737566953.132,-41.016,-47.852,0.000,-46.387,0.000
1737566953.136,23.926,-35.645,0.000,63.965,0.000
1737566953.140,24.902,-28.320,0.000,59.570,0.000
1737566953.143,-49.316,-39.551,0.000,-64.941,0.000
1737566953.147,-110.352,-46.875,0.000,-139.160,0.000
1737566953.152,-78.125,-52.734,-24.902,-63.965,0.000
1737566953.155,7.324,-47.363,-39.062,46.387,0.000
1737566953.159,-25.391,-36.621,-47.363,57.617,0.000
1737566953.163,-84.473,-30.762,-38.086,-18.555,0.000
1737566953.167,-89.844,-32.715,-30.273,-135.254,0.000
1737566953.171,-87.891,-37.598,-37.598,-138.184,0.000
1737566953.175,-34.668,-37.598,-46.875,-9.766,0.000
1737566953.179,-18.066,-62.988,-54.199,24.902,0.000
1737566953.183,-72.754,-73.730,-62.500,-44.434,0.000
1737566953.186,-110.840,-52.246,-66.895,-123.535,0.000
1737566953.190,-85.449,-44.922,-39.551,-105.469,0.000
1737566953.194,-28.809,-40.527,-23.438,13.672,0.000
1737566953.198,0.000,-44.922,-40.039,45.898,0.000
1737566953.202,-55.664,-66.895,-41.992,-49.316,0.000
1737566953.206,-123.047,-74.219,-28.320,-119.629,0.000
1737566953.210,-72.754,-56.152,-39.062,-117.188,0.000
1737566953.214,57.617,-44.434,-48.828,-17.090,0.000
1737566953.218,-1.465,-32.715,-63.477,50.781,0.000
1737566953.222,-130.859,-42.480,-55.664,-50.781,0.000
1737566953.226,-119.629,-62.012,-20.508,-153.809,0.000
1737566953.229,-76.660,-50.781,-1.465,-114.746,0.000
1737566953.233,-29.297,-39.062,-5.859,26.855,0.000
1737566953.237,4.395,-34.668,-28.809,109.375,0.000
1737566953.241,-30.762,-43.457,-62.988,-2.441,0.000
1737566953.245,-108.398,-40.039,-60.547,-125.977,0.000
1737566953.249,-107.422,-35.156,-37.598,-115.723,0.000
1737566953.253,-38.086,-35.156,-37.598,-29.785,0.000
1737566953.257,17.090,-28.809,-26.367,59.082,0.000
1737566953.261,-6.836,-31.250,-14.648,13.672,0.000
1737566953.265,-71.777,-37.109,-20.996,-99.121,0.000
1737566953.269,-102.539,-37.598,-27.832,-126.953,0.000
1737566953.272,-46.387,-32.227,-25.879,-41.016,0.000
1737566953.276,-8.301,-44.922,-22.949,51.758,0.000
1737566953.280,-28.809,-56.152,-33.203,28.809,0.000
1737566953.284,-91.797,-41.504,-47.363,-119.629,0.000
1737566953.288,-113.281,-31.738,-43.457,-144.043,0.000
1737566953.292,-29.297,-33.203,-29.785,-4.395,0.000
1737566953.296,-3.906,-27.832,-56.641,47.363,0.000
1737566953.300,-39.062,-20.508,-70.801,2.441,0.000
1737566953.304,-84.473,-34.180,-38.086,-98.633,0.000
1737566953.308,-109.375,-37.598,-35.645,-142.090,0.000
1737566953.312,-50.781,-23.438,-41.504,-47.363,0.000
1737566953.315,26.855,-26.855,-27.832,72.754,0.000
1737566953.319,-0.488,-37.598,-23.926,43.945,0.000
1737566953.323,-84.473,-38.574,-40.039,-65.918,0.000
1737566953.327,-126.465,-32.715,-48.340,-109.863,0.000
1737566953.331,-76.172,-25.879,-41.992,-41.992,0.000
1737566953.335,-8.301,-24.414,-35.645,72.266,0.000
1737566953.339,-18.555,-24.902,0.000,59.082,0.000
1737566953.343,-50.293,-33.203,0.000,-31.250,0.000
1737566953.347,-48.340,-37.109,0.000,-82.031,0.000
1737566953.351,-17.578,-28.809,0.000,-43.945,0.000
1737566953.355,16.602,-22.949,0.000,54.688,0.000
1737566953.358,17.090,-14.160,0.000,76.660,0.000
1737566953.362,-16.602,-17.090,0.000,14.648,0.000
1737566953.366,-102.539,-23.926,0.000,-56.152,0.000
1737566953.370,-97.168,-37.109,0.000,-50.781,0.000
1737566953.374,15.625,-39.062,0.000,38.086,0.000
1737566953.378,48.340,-16.113,0.000,83.496,0.000
1737566953.382,-24.414,-15.137,0.000,37.598,0.000
1737566953.386,-72.266,-19.531,-41.992,-55.176,0.000
1737566953.390,-51.758,-17.578,-60.059,-53.223,0.000
1737566953.394,-15.137,-12.695,-37.109,54.199,0.000
1737566953.398,10.254,-14.160,-21.484,68.359,0.000
1737566953.402,-37.598,-20.020,-24.902,-2.930,0.000
1737566953.405,-85.938,-20.020,-11.230,-53.711,0.000
1737566953.409,-48.828,-20.508,-18.066,-65.430,0.000
1737566953.413,14.160,-23.438,-35.645,22.461,0.000
1737566953.417,28.809,-34.668,-46.387,110.840,0.000
1737566953.421,-34.180,-33.203,-29.297,63.477,0.000
1737566953.425,-110.840,-26.855,-20.996,-38.086,0.000
1737566953.429,-126.953,-33.691,-37.598,-68.359,0.000
1737566953.433,-37.109,-26.855,-39.551,0.000,0.000
1737566953.437,30.762,-15.137,-53.711,0.000,0.000
1737566953.441,-14.648,-20.508,-53.223,0.000,0.000
1737566953.445,-82.031,-37.109,-30.762,0.000,0.000
1737566953.448,-86.426,-48.340,-24.414,0.000,0.000
1737566953.452,-18.555,-31.738,-29.297,0.000,0.000
1737566953.456,13.672,-15.137,-39.551,0.000,0.000
1737566953.460,-14.160,-25.879,-47.852,0.000,0.000
1737566953.464,-41.504,-34.668,-56.641,0.000,0.000
1737566953.468,-83.984,-31.738,-42.969,0.000,0.000
1737566953.472,-82.031,-34.668,-22.949,0.000,0.000
1737566953.475,-5.371,-30.273,-16.602,0.000,0.000
1737566953.480,-25.879,-21.484,-9.766,93.262,0.000
1737566953.484,-78.125,-28.320,-14.160,1.465,0.000
1737566953.488,-69.824,-38.574,-31.250,-62.988,0.000
1737566953.491,-5.371,-35.645,-46.387,-33.691,0.000
1737566953.495,32.227,-29.297,-50.293,69.336,0.000
1737566953.499,20.508,-23.438,-42.969,93.750,0.000
1737566953.503,-63.965,-28.809,-27.344,-8.789,0.000
1737566953.507,-127.441,-38.574,-17.090,-106.934,0.000
1737566953.511,-70.801,-41.992,-33.203,-46.875,0.000
1737566953.515,18.066,-29.785,-53.223,81.543,0.000
1737566953.518,47.852,-23.438,-43.457,94.727,0.000
1737566953.522,-27.832,-28.320,-14.648,-8.789,0.000
1737566953.527,-73.242,-24.902,-3.418,-124.023,0.000
1737566953.531,-42.969,-36.133,-15.625,-84.473,0.000
1737566953.534,8.301,-34.668,-24.902,49.316,0.000
1737566953.538,32.715,-16.113,-26.367,105.469,0.000
1737566953.542,-37.598,-25.391,-26.855,22.949,0.000
1737566953.546,-124.512,-30.273,-17.578,-74.219,0.000
1737566953.550,-69.824,-21.484,-13.184,-52.734,0.000
1737566953.554,32.715,-18.555,-21.484,15.137,0.000
1737566953.558,62.988,-13.672,-27.344,58.594,0.000
1737566953.561,-23.438,-21.973,-27.832,-17.090,0.000
1737566953.565,-113.281,-41.992,-32.227,-106.934,0.000
1737566953.569,-77.637,-36.621,-35.645,-81.055,0.000
1737566953.574,0.000,-15.137,-30.273,1.953,0.000
1737566953.577,0.000,-17.578,-24.902,60.059,0.000
1737566953.581,0.000,-21.973,-27.832,20.996,0.000
1737566953.585,0.000,-26.367,-31.738,-67.383,0.000
1737566953.589,0.000,-23.438,-23.438,-85.449,0.000
1737566953.593,0.000,-7.324,-9.277,14.160,0.000
1737566953.597,0.000,-17.578,-19.531,87.402,0.000
1737566953.601,0.000,-32.715,-22.461,39.062,0.000
1737566953.604,0.000,-24.902,-16.602,-59.082,0.000
1737566953.608,0.000,-20.508,-28.809,-83.984,0.000
1737566953.612,0.000,-15.625,-34.668,11.230,0.000
1737566953.616,0.000,-9.766,-25.391,79.590,0.000
1737566953.620,3.906,-20.508,-26.855,35.156,0.000
1737566953.624,-73.242,-34.180,-35.156,-69.336,0.000
1737566953.628,-98.633,-37.598,-45.410,-114.258,0.000
1737566953.632,-47.852,-27.344,-45.410,-51.270,0.000
1737566953.636,-15.625,-18.066,-28.320,29.297,0.000
1737566953.640,-19.531,-16.602,-22.461,42.969,0.000
1737566953.644,-64.453,-20.996,-33.691,-31.250,0.000
1737566953.647,-84.961,-30.273,-43.457,-95.703,0.000
1737566953.651,-15.137,-23.438,-44.922,-35.156,0.000
1737566953.655,-9.766,-18.555,-39.062,48.340,0.000
1737566953.659,-55.664,-23.926,-41.992,21.484,0.000
1737566953.663,-56.641,-18.555,-49.316,-59.570,0.000
1737566953.667,-62.012,-16.113,-49.316,-122.559,0.000
1737566953.671,-50.293,-25.391,-42.969,-92.773,0.000
1737566953.675,39.062,-18.555,-24.414,29.785,0.000
1737566953.679,74.219,-10.742,-15.625,41.016,0.000
1737566953.683,-31.250,-27.344,-5.859,-59.082,0.000
1737566953.687,-79.590,-22.949,-3.418,-108.398,0.000
1737566953.690,-13.672,-18.555,-19.043,-68.848,0.000
1737566953.694,68.848,-15.625,-27.344,13.672,0.000
1737566953.698,46.875,-7.324,-22.461,41.504,0.000
1737566953.702,-25.391,-22.949,-12.207,-10.254,0.000
1737566953.706,-65.918,-26.855,-24.414,-116.211,0.000
1737566953.710,-17.090,-22.949,-42.969,-129.395,0.000
1737566953.714,0.000,-16.602,-27.832,-3.418,0.000
1737566953.718,0.000,-20.020,-2.441,64.453,0.000
1737566953.722,0.000,-35.156,0.000,-14.648,0.000
1737566953.726,0.000,-40.527,-9.277,-118.164,0.000
1737566953.730,0.000,-35.156,-15.137,-127.441,0.000
1737566953.733,0.000,-16.602,-13.184,-34.668,0.000
1737566953.737,0.000,-3.906,-11.719,-0.977,0.000
1737566953.741,0.000,-11.719,-18.555,-88.379,0.000
1737566953.745,0.000,-21.484,-15.137,-163.574,0.000
1737566953.749,0.000,-30.273,-25.391,-143.555,0.000
1737566953.753,0.000,-27.344,-33.691,-38.574,0.000
1737566953.757,0.000,-25.879,-23.926,49.805,0.000
1737566953.761,-40.039,-25.879,-16.113,-0.977,0.000
1737566953.765,-105.957,-23.438,-10.254,-138.184,0.000
1737566953.769,-113.770,-32.715,-11.230,-171.875,0.000
1737566953.773,-53.711,-33.691,-1.465,-62.012,0.000
1737566953.777,-17.090,-29.785,13.672,25.879,0.000
1737566953.780,-64.941,-33.691,-2.441,-25.879,0.000
1737566953.784,-141.602,-43.457,-26.855,-131.836,0.000
1737566953.788,-121.094,-58.594,-28.809,-152.832,0.000
1737566953.792,-29.297,-50.293,-31.250,-52.734,0.000
1737566953.796,5.371,-33.691,-41.504,44.922,0.000
1737566953.800,-16.602,-30.273,-46.387,17.090,0.000
1737566953.804,-79.102,-27.344,-38.086,-60.547,0.000
1737566953.808,-109.375,-32.227,-35.645,0.000,0.000
1737566953.812,-50.781,-34.668,-37.109,0.000,0.000
1737566953.816,0.000,-30.273,-29.785,0.000,0.000
1737566953.820,1.953,-24.902,-33.203,0.000,0.000
1737566953.823,-55.176,-24.414,-41.016,0.000,0.000
1737566953.827,-98.145,-34.668,-43.457,0.000,0.000
1737566953.831,-55.664,-41.016,-47.852,0.000,0.000
1737566953.835,-4.395,-35.156,-41.992,0.000,0.000
1737566953.839,15.137,-29.785,-29.785,0.000,0.000
1737566953.843,-10.742,-25.879,-28.809,0.000,0.000
1737566953.847,-66.895,-39.062,-25.391,0.000,0.000
1737566953.851,-32.227,-46.387,-22.461,0.000,0.000
1737566953.855,0.000,-40.527,-15.625,156.250,0.000
1737566953.859,0.000,-39.551,-20.508,171.875,0.000
1737566953.863,0.000,-41.504,-26.855,68.359,0.000
1737566953.866,0.000,-53.223,-21.973,-51.758,0.000
1737566953.870,0.000,-59.082,-33.691,-18.066,0.000
1737566953.874,0.000,-52.734,-26.855,129.883,0.000
1737566953.878,0.000,-46.875,-23.438,176.758,0.000
1737566953.882,0.000,-54.688,-45.410,86.426,0.000
1737566953.886,0.000,-63.965,-40.039,-2.441,0.000
1737566953.890,0.000,-62.012,-40.039,20.996,0.000
1737566953.894,0.000,-50.293,-67.871,125.000,0.000
1737566953.897,0.000,-43.945,-47.852,168.457,0.000
1737566953.902,-35.645,-52.734,-18.066,99.121,0.000
1737566953.906,-101.074,-51.758,-22.949,20.020,0.000
1737566953.909,-76.660,-48.828,-33.691,24.414,0.000
1737566953.913,17.578,-46.387,-45.898,94.238,0.000
1737566953.917,29.297,-38.574,-54.688,161.621,0.000
1737566953.921,-16.602,-37.109,-55.176,131.348,0.000
1737566953.925,-63.965,-48.340,-63.965,2.930,0.000
1737566953.929,-35.156,-54.688,-60.059,-28.320,0.000
1737566953.933,22.949,-53.711,-49.316,89.355,0.000
1737566953.936,34.180,-43.457,-45.898,175.293,0.000
1737566953.940,2.441,-37.598,-54.688,139.160,0.000
1737566953.944,-45.410,-43.945,-63.477,28.320,0.000
1737566953.949,-68.359,-45.410,-46.387,-29.297,0.000
1737566953.952,-49.316,-44.434,-34.668,34.668,0.000
1737566953.956,19.531,-42.480,-34.668,121.094,0.000
1737566953.960,13.184,-42.480,-27.344,120.605,0.000
1737566953.964,-69.824,-47.852,-28.809,21.484,0.000
1737566953.968,-85.449,-42.969,-37.109,-48.340,0.000
1737566953.972,-28.809,-37.598,-41.016,16.113,0.000
1737566953.976,62.012,-37.598,-38.574,112.793,0.000
1737566953.979,20.508,-38.574,-28.809,104.004,0.000
1737566953.983,-72.754,-45.898,-28.320,-3.906,0.000
1737566953.987,-72.754,-46.387,-41.992,-73.242,0.000
1737566953.991,4.883,-41.992,-55.664,19.043,0.000
1737566953.995,0.000,-29.785,-52.246,139.160,0.000
1737566953.999,0.000,-33.691,-48.340,112.305,0.000
1737566954.003,0.000,-52.734,-49.805,-7.324,0.000
1737566954.007,0.000,-57.129,-54.199,-76.660,0.000
1737566954.011,0.000,-54.199,-53.711,9.766,0.000
1737566954.015,0.000,-37.109,-48.340,122.559,0.000
1737566954.019,0.000,-31.250,-43.945,85.938,0.000
1737566954.022,0.000,-44.434,-42.969,-36.621,0.000
1737566954.026,0.000,-50.781,-43.945,-98.145,0.000
1737566954.030,0.000,-54.688,-41.992,-39.062,0.000
1737566954.034,0.000,-41.504,-44.922,59.570,0.000
1737566954.038,0.000,-26.367,-54.199,84.961,0.000
1737566954.042,-11.230,-38.086,-62.500,5.371,0.000
1737566954.046,-127.930,-47.852,-64.941,-84.473,0.000
1737566954.050,-70.801,-38.574,-61.035,-73.242,0.000
1737566954.054,15.137,-33.203,-57.617,44.434,0.000
1737566954.058,62.500,-32.227,-58.594,95.215,0.000
1737566954.062,-26.855,-35.156,-62.500,9.766,0.000
1737566954.065,-80.566,-50.293,-69.824,-86.426,0.000
1737566954.069,-42.969,-54.199,-72.266,-71.289,0.000
1737566954.073,-12.207,-41.016,-61.523,26.855,0.000
1737566954.077,16.602,-27.832,-58.594,71.289,0.000
1737566954.081,0.977,-26.855,-61.035,12.207,0.000
1737566954.085,-55.664,-34.180,-62.500,-74.707,0.000
1737566954.089,-67.383,-38.574,-66.895,-92.773,0.000
1737566954.093,3.418,-33.691,-66.406,3.906,0.000
1737566954.097,36.133,-27.832,-67.383,79.590,0.000
1737566954.101,-6.348,-30.762,-78.613,26.855,0.000
1737566954.105,-53.223,-41.504,-82.031,-73.730,0.000
1737566954.109,-69.336,-47.363,-74.707,-113.281,0.000
1737566954.112,-3.906,-37.598,-67.871,-18.066,0.000
1737566954.116,46.875,-42.480,-67.383,83.984,0.000
1737566954.120,-19.531,-54.688,-71.777,35.645,0.000
1737566954.124,-79.590,-55.664,-74.707,-88.867,0.000
1737566954.128,-71.289,-47.363,-82.031,-128.906,0.000
1737566954.132,-8.789,-46.387,-75.684,-40.039,0.000
1737566954.136,24.902,-48.828,-68.359,55.664,0.000
1737566954.140,-18.555,-37.109,-62.988,24.902,0.000
1737566954.144,-100.586,-36.621,-54.199,-80.566,0.000
1737566954.148,-104.004,-31.250,-61.035,-133.301,0.000
1737566954.152,-38.086,-25.391,-62.012,-44.922,0.000
1737566954.155,60.059,-23.438,-62.988,85.449,0.000
1737566954.159,17.578,-23.926,-67.871,21.484,0.000
1737566954.163,-100.098,-36.621,-65.918,-103.027,0.000
1737566954.167,-79.590,-36.133,-58.594,-139.648,0.000
1737566954.171,-51.270,-29.785,-51.270,-70.801,0.000
1737566954.175,0.488,-24.414,-49.316,13.184,0.000
1737566954.179,7.812,-20.996,-51.270,17.090,0.000
1737566954.183,-78.613,-27.344,-57.617,-60.547,0.000
1737566954.187,-88.379,-33.691,-53.223,-149.414,0.000
1737566954.191,-23.926,-28.809,-55.176,-119.629,0.000
1737566954.195,11.719,-17.090,-55.664,6.836,0.000
1737566954.198,-10.254,-14.648,-47.852,36.621,0.000
1737566954.202,-69.824,-19.043,-48.340,-73.242,0.000
1737566954.206,-93.262,-23.438,-56.152,-173.340,0.000
1737566954.210,-63.477,-23.438,-71.289,-122.070,0.000
1737566954.214,15.625,-18.066,-71.289,18.555,0.000
1737566954.218,55.176,-10.254,-52.246,9.766,0.000
1737566954.222,-21.973,-20.508,-33.691,-54.688,0.000
1737566954.225,-67.871,-27.344,-34.180,-100.586,0.000
1737566954.230,0.000,-18.555,0.000,0.000,0.000
1737566954.234,0.000,-9.766,0.000,0.000,0.000
1737566954.238,0.000,-4.883,0.000,0.000,0.000
1737566954.241,0.000,-15.625,0.000,0.000,0.000
1737566954.245,0.000,-32.227,0.000,0.000,0.000
1737566954.249,0.000,-19.531,0.000,0.000,0.000
1737566954.253,0.000,-3.906,0.000,0.000,0.000
1737566954.257,0.000,-14.160,0.000,0.000,0.000
1737566954.261,0.000,-22.461,0.000,0.000,0.000
1737566954.265,0.000,-22.949,0.000,0.000,0.000
1737566954.268,0.000,-28.809,0.000,0.000,0.000
1737566954.272,0.000,-19.043,0.000,0.000,0.000
1737566954.277,40.527,-14.160,-52.734,36.133,0.000
1737566954.281,-42.969,-23.926,-59.570,-55.664,0.000
1737566954.284,-84.473,-24.414,-69.336,-178.223,0.000
1737566954.288,-107.422,-25.879,-56.152,-178.711,0.000
1737566954.292,-44.922,-21.484,-34.180,-114.258,0.000
1737566954.296,25.879,-11.719,-30.273,-43.457,0.000
1737566954.300,6.348,-15.625,-31.738,-57.617,0.000
1737566954.304,-58.105,-24.902,-38.086,-196.289,0.000
1737566954.308,-90.820,-24.902,-51.270,-252.441,0.000
1737566954.311,-56.152,-24.414,-51.270,-151.367,0.000
1737566954.315,-1.465,-21.484,-43.457,-64.941,0.000
1737566954.319,-3.906,-20.020,-47.852,-63.965,0.000
1737566954.324,-62.500,-26.367,-46.387,-146.973,0.000
1737566954.327,-116.211,-32.227,-34.180,-220.215,0.000
1737566954.331,-57.617,-34.668,-30.762,-163.574,0.000
1737566954.335,0.977,-34.668,-21.484,-66.895,0.000
1737566954.339,-42.480,-37.598,-19.043,-41.016,0.000
1737566954.343,-88.379,-30.273,-28.320,-171.387,0.000
1737566954.347,-121.094,-40.527,-23.926,-266.602,0.000
1737566954.351,-93.750,-50.293,-27.344,-169.922,0.000
1737566954.354,-29.785,-36.133,-25.879,-54.688,0.000
1737566954.358,-5.371,-30.762,-13.184,-43.945,0.000
1737566954.362,-68.359,-38.086,-12.207,-170.410,0.000
1737566954.366,-137.695,-42.480,-14.648,-257.812,0.000
1737566954.370,-114.746,-44.434,-5.371,-201.172,0.000
1737566954.374,-24.902,-41.016,2.441,-84.473,0.000
1737566954.378,-9.766,-41.504,1.465,-27.832,0.000
1737566954.382,-45.898,-42.480,-6.348,-121.094,0.000
1737566954.386,-99.609,-39.062,-9.277,-217.285,0.000
1737566954.390,-69.824,-38.086,-3.906,-184.570,0.000
1737566954.394,-14.160,-37.109,-3.906,-53.223,0.000
1737566954.397,-17.090,-29.785,-4.395,-9.766,0.000
1737566954.401,-20.020,-26.367,-7.324,-113.281,0.000
1737566954.405,-43.457,-34.180,-11.230,-190.918,0.000
1737566954.409,-36.621,-33.203,-7.324,-180.664,0.000
1737566954.413,21.484,-26.367,0.977,-65.430,0.000
1737566954.417,46.875,-20.508,1.465,2.441,0.000
1737566954.421,-16.113,-22.461,0.000,-69.824,0.000
1737566954.425,-70.312,-29.297,-5.371,-194.336,0.000
1737566954.429,-73.730,-32.227,-7.812,-198.730,0.000
1737566954.433,-22.949,-25.879,-4.883,-60.059,0.000
1737566954.437,31.738,-13.672,-1.465,20.508,0.000
1737566954.441,1.953,-18.555,-0.977,-26.855,0.000
1737566954.444,-92.773,-29.297,-8.301,-136.719,0.000
1737566954.448,-112.793,-35.156,-16.113,-161.133,0.000
1737566954.452,-21.484,-33.203,-15.625,-63.477,0.000
1737566954.456,28.809,-22.461,-7.812,24.414,0.000
1737566954.460,20.020,-19.043,-10.254,-9.766,0.000
1737566954.464,-22.949,-24.414,-21.484,-119.629,0.000
1737566954.468,-118.164,-29.297,-35.156,-147.461,0.000
1737566954.472,-61.523,-25.391,-37.109,-50.293,0.000
1737566954.476,42.969,-25.391,-31.250,29.785,0.000
1737566954.480,11.230,-28.320,-36.621,17.090,0.000
1737566954.484,-66.895,-21.973,-41.992,-67.383,0.000
1737566954.487,-83.496,-22.461,-39.062,-115.234,0.000
1737566954.491,-30.273,-28.809,-38.574,-20.020,0.000
1737566954.495,31.738,-21.973,-36.621,95.215,0.000
1737566954.499,61.523,-14.160,-30.273,83.008,0.000
1737566954.503,-42.480,-20.020,-29.785,-68.848,0.000
1737566954.507,-116.699,-27.832,-30.273,-146.973,0.000
1737566954.511,0.000,-21.973,-23.438,-56.152,0.000
1737566954.515,0.000,-21.973,-10.254,50.781,0.000
1737566954.519,0.000,-27.344,-20.508,74.707,0.000
1737566954.523,0.000,-35.645,-31.250,-38.574,0.000
1737566954.527,0.000,-38.086,-9.766,-114.746,0.000
1737566954.530,0.000,-23.926,9.766,-41.504,0.000
1737566954.534,0.000,-17.090,14.160,62.012,0.000
1737566954.538,0.000,-25.879,5.371,61.523,0.000
1737566954.542,0.000,-23.926,0.000,-20.996,0.000
1737566954.546,0.000,-28.809,-1.465,-112.305,0.000
1737566954.550,0.000,-30.273,-2.441,-75.684,0.000
1737566954.554,0.000,-20.996,1.465,53.223,0.000
1737566954.558,11.719,-18.066,7.324,87.891,0.000
1737566954.562,-41.992,-20.996,13.184,5.371,0.000
1737566954.566,-85.449,-23.926,12.695,-107.422,0.000
1737566954.570,-95.703,-20.020,8.789,-111.816,0.000
1737566954.573,-39.551,-27.344,7.324,21.973,0.000
1737566954.577,35.645,-24.902,14.160,95.215,0.000
1737566954.581,2.441,-14.160,11.719,10.254,0.000
1737566954.585,-104.004,-24.414,1.465,-93.750,0.000
1737566954.589,-104.004,-35.156,4.395,-87.891,0.000
1737566954.593,-39.062,-26.367,6.348,18.066,0.000
1737566954.597,20.996,-9.277,7.324,83.496,0.000
1737566954.601,-5.371,-5.371,8.301,12.207,0.000
1737566954.605,-84.473,-21.484,2.930,0.000,0.000
1737566954.609,-104.980,-33.203,-4.395,0.000,0.000
1737566954.613,21.973,-17.578,-1.465,0.000,0.000
1737566954.616,86.914,-5.859,5.371,0.000,0.000
1737566954.620,-39.062,-32.715,0.000,0.000,0.000
1737566954.624,-78.613,-45.410,-3.418,0.000,0.000
1737566954.628,-85.938,-28.320,-5.859,0.000,0.000
1737566954.632,-46.875,-23.438,-16.113,0.000,0.000
1737566954.636,44.922,-4.395,-15.625,0.000,0.000
1737566954.640,-4.395,-0.488,-3.418,0.000,0.000
1737566954.644,-97.168,-26.367,-8.301,0.000,0.000
1737566954.647,-103.027,-34.180,-18.555,0.000,0.000
1737566954.652,-44.922,-25.879,-15.137,-58.594,0.000
1737566954.656,15.625,-14.160,-15.625,56.152,0.000
1737566954.659,18.555,-17.090,-21.484,41.504,0.000
1737566954.663,-51.270,-31.250,-24.902,-70.312,0.000
1737566954.667,-79.590,-28.320,-34.180,-125.000,0.000
1737566954.671,-22.949,-6.836,-27.344,-38.574,0.000
1737566954.675,23.926,-10.254,-7.812,59.570,0.000
1737566954.679,15.625,-29.785,-2.930,42.969,0.000
1737566954.683,-55.664,-24.902,-17.578,-61.523,0.000
1737566954.687,-103.027,-20.996,-26.855,-124.512,0.000
1737566954.690,-66.406,-18.066,-26.855,-55.664,0.000
1737566954.694,31.738,-10.742,-29.297,44.922,0.000
1737566954.699,31.738,-14.160,-24.902,50.293,0.000
1737566954.702,-69.336,-16.602,-18.066,-62.012,0.000
1737566954.706,-114.746,-27.832,-15.625,-145.508,0.000
1737566954.710,-72.754,-33.203,-10.254,-104.980,0.000
1737566954.714,-3.906,-14.648,-5.859,17.578,0.000
1737566954.718,8.301,-11.719,-16.113,92.285,0.000
1737566954.722,-73.730,-35.156,-26.367,-36.133,0.000
1737566954.726,-105.957,-45.898,-25.391,-148.926,0.000
1737566954.730,-63.965,-32.715,-26.855,-113.281,0.000
1737566954.733,-20.508,-17.578,-23.438,-8.789,0.000
1737566954.737,10.742,-12.207,-11.719,47.852,0.000
1737566954.741,-35.645,-21.973,-20.508,-35.645,0.000
1737566954.745,-116.699,-30.762,-39.062,-146.973,0.000
1737566954.749,-85.449,-26.855,-42.480,-119.629,0.000
1737566954.753,2.930,-24.414,-52.734,6.348,0.000
1737566954.757,19.043,-20.996,-57.129,66.406,0.000
1737566954.761,-35.645,-21.484,-29.785,-13.672,0.000
1737566954.765,-106.445,-25.391,-13.184,-125.977,0.000
1737566954.769,-99.609,-28.320,-15.137,-125.000,0.000
1737566954.773,1.953,-23.926,-17.578,-17.578,0.000
1737566954.776,52.734,-14.160,-28.809,82.031,0.000
1737566954.780,-33.203,-14.160,-42.480,30.273,0.000
1737566954.784,-105.957,-11.719,-39.062,-102.051,0.000
1737566954.788,-93.262,-20.996,-28.320,-125.977,0.000
1737566954.792,6.348,-29.297,0.000,-60.547,0.000
1737566954.796,79.102,-9.277,0.000,53.223,0.000
1737566954.800,12.207,0.488,0.000,43.945,0.000
1737566954.804,-72.754,-8.789,0.000,-93.262,0.000
1737566954.808,-91.309,-15.137,0.000,-146.973,0.000
1737566954.812,-47.363,-9.277,0.000,-54.688,0.000
1737566954.816,21.484,-9.277,0.000,80.566,0.000
1737566954.819,15.137,-16.602,0.000,38.086,0.000
1737566954.823,-73.730,-25.391,0.000,-84.473,0.000
1737566954.827,-98.633,-32.227,0.000,-116.211,0.000
1737566954.831,-20.020,-17.578,0.000,-56.152,0.000
1737566954.835,-3.906,-11.230,0.000,14.160,0.000
1737566954.839,-11.230,-15.137,-29.297,17.090,0.000
1737566954.843,-57.129,-15.625,-39.551,-73.242,0.000
1737566954.847,-86.426,-22.461,-48.340,-136.230,0.000
1737566954.851,-27.344,-19.531,-34.668,-63.965,0.000
1737566954.855,26.855,-11.230,-29.785,63.965,0.000
1737566954.859,21.484,-14.648,-25.879,76.172,0.000
1737566954.862,-69.824,-27.832,-23.438,-51.758,0.000
1737566954.866,-116.211,-33.203,-31.738,-156.738,0.000
1737566954.870,-47.852,-31.250,-34.668,-100.098,0.000
1737566954.874,10.254,-16.602,-39.551,16.113,0.000
1737566954.878,13.672,-0.488,-31.250,45.898,0.000
1737566954.882,-37.109,-8.789,-15.625,-25.391,0.000
1737566954.886,-78.613,-22.461,-12.207,-105.957,0.000
1737566954.890,-38.086,-17.578,-6.348,-71.289,0.000
1737566954.894,47.852,-6.836,-7.812,31.738,0.000
1737566954.898,32.227,-7.812,-12.207,72.754,0.000
1737566954.902,-25.391,-11.719,-11.230,-9.766,0.000
1737566954.905,-83.008,-8.789,-17.578,-94.238,0.000
1737566954.909,-76.172,-8.301,-22.461,-74.219,0.000
1737566954.913,15.625,-7.324,-21.973,20.996,0.000
1737566954.917,20.020,-3.418,-14.160,63.965,0.000
1737566954.921,-24.414,-7.812,-9.766,-20.020,0.000
1737566954.925,-56.641,-5.859,-7.324,-92.773,0.000
1737566954.929,-45.410,-2.930,-8.301,-80.078,0.000
1737566954.933,31.738,1.953,-11.230,25.391,0.000
1737566954.937,66.895,7.812,-16.113,77.148,0.000
1737566954.941,16.602,2.441,-22.461,4.883,0.000
1737566954.945,-70.312,-11.230,-19.531,-88.379,0.000
1737566954.948,-105.957,-18.555,-20.020,-117.188,0.000
1737566954.952,-8.301,-5.371,-16.113,-2.441,0.000
1737566954.956,42.480,-2.930,-13.184,106.445,0.000
1737566954.960,-13.672,-10.254,-15.137,46.875,0.000
1737566954.964,-84.961,-13.184,-16.113,-65.918,0.000
1737566954.968,-92.773,-12.695,-19.531,-92.285,0.000
1737566954.972,-17.578,-3.906,-17.090,-3.906,0.000
1737566954.976,13.184,-3.906,-9.766,74.219,0.000
1737566954.980,2.441,-5.859,0.000,0.000,0.000
1737566954.984,-48.828,-8.789,0.000,0.000,0.000
1737566954.988,-94.727,-18.555,0.000,0.000,0.000
1737566954.991,-35.156,-10.254,0.000,0.000,0.000
1737566954.995,55.176,3.418,0.000,0.000,0.000
1737566954.999,23.438,5.859,0.000,0.000,0.000
1737566955.003,-61.035,-8.789,0.000,0.000,0.000
1737566955.007,-87.891,-15.137,0.000,0.000,0.000
1737566955.011,-46.387,-8.789,0.000,0.000,0.000
1737566955.015,18.555,-14.160,0.000,0.000,0.000
1737566955.019,4.395,-12.207,0.000,0.000,0.000
1737566955.022,-48.340,-7.324,0.000,0.000,0.000
1737566955.027,-77.148,-6.836,-23.438,-54.688,0.000
1737566955.031,-32.227,-5.859,-34.668,-48.340,0.000
1737566955.034,75.195,0.977,-30.762,32.715,0.000
1737566955.038,3.906,-2.930,-33.691,44.434,0.000
1737566955.042,-112.793,-13.184,-41.992,-28.320,0.000
1737566955.046,-70.801,-3.906,-23.926,-108.887,0.000
1737566955.050,-62.988,-0.488,-15.137,-95.215,0.000
1737566955.054,32.715,0.488,-25.391,35.645,0.000
1737566955.058,46.387,0.977,-32.227,80.078,0.000
1737566955.062,-83.984,-12.695,-30.273,-37.109,0.000
1737566955.065,-160.156,-19.043,-25.391,-132.812,0.000
1737566955.069,-102.051,-10.742,-22.949,-99.609,0.000
1737566955.074,71.777,1.953,-35.156,28.320,0.000
1737566955.077,29.785,8.789,-49.316,48.828,0.000
1737566955.081,-97.656,-0.977,-45.410,-53.223,0.000
1737566955.085,-85.449,-19.043,-43.457,-90.332,0.000
1737566955.089,-64.453,-29.297,-49.316,-127.930,0.000
1737566955.093,-15.625,-15.137,-38.086,-4.883,0.000
1737566955.097,29.785,-8.789,-29.297,131.348,0.000
1737566955.101,-27.832,-21.484,-30.762,29.785,0.000
1737566955.105,-87.891,-24.902,-24.414,-89.355,0.000
1737566955.108,-51.270,-24.414,-22.461,-92.773,0.000
1737566955.112,0.488,-20.020,-28.809,1.465,0.000
1737566955.116,50.293,-10.254,-32.227,75.684,0.000
1737566955.120,5.371,-19.043,-34.668,28.320,0.000
1737566955.124,-96.191,-33.203,-43.945,-86.426,0.000
1737566955.128,-78.613,-24.414,-41.992,-103.027,0.000
1737566955.132,-0.488,-15.137,-41.504,15.625,0.000
1737566955.136,23.438,-8.789,-47.363,86.426,0.000
1737566955.140,-6.836,-6.348,-37.109,24.414,0.000
1737566955.144,-54.688,-11.719,-27.832,-73.242,0.000
1737566955.148,-74.707,-22.461,-32.227,-106.934,0.000
1737566955.151,-15.137,-19.531,-35.645,-27.344,0.000
1737566955.155,30.762,-2.930,-35.156,51.758,0.000
1737566955.159,-18.066,-1.465,-33.691,23.438,0.000
1737566955.163,-86.914,-15.625,-38.574,-79.102,0.000
1737566955.167,-108.887,-18.066,-47.363,-123.535,0.000
1737566955.171,-73.730,-20.020,-45.898,-19.531,0.000
1737566955.175,16.113,-27.344,-52.246,117.188,0.000
1737566955.179,-27.832,-31.738,-53.711,66.895,0.000
1737566955.183,-123.535,-25.879,-36.133,-37.109,0.000
1737566955.187,-111.816,-8.789,-29.297,-101.562,0.000
1737566955.191,-60.059,-9.277,-52.246,-72.754,0.000
1737566955.194,-6.348,-13.184,-67.383,60.059,0.000
1737566955.198,5.859,-6.348,-44.922,92.285,0.000
1737566955.202,-68.848,-21.973,-24.902,10.254,0.000
1737566955.206,-108.398,-27.832,-21.484,-53.223,0.000
1737566955.210,-36.621,-14.160,-25.879,9.277,0.000
1737566955.214,27.344,-4.883,-25.879,124.023,0.000
1737566955.218,33.203,-1.953,-23.926,160.645,0.000
1737566955.222,-8.789,-16.113,-29.785,72.754,0.000
1737566955.226,-70.801,-15.625,-27.832,-26.367,0.000
1737566955.230,-43.945,-7.324,-21.484,6.348,0.000
1737566955.234,43.945,-2.930,-23.438,125.000,0.000
1737566955.237,47.363,2.930,-25.391,196.289,0.000
1737566955.241,-44.922,-4.395,-22.949,80.078,0.000
1737566955.245,-129.395,-15.137,-38.086,-58.105,0.000
1737566955.249,-72.754,-14.648,-37.109,-2.441,0.000
1737566955.253,74.707,-2.930,-23.926,137.695,0.000
1737566955.257,62.500,0.000,-23.438,199.219,0.000
1737566955.261,-39.551,-4.883,-22.949,115.234,0.000
1737566955.265,-62.988,-10.254,-27.832,6.348,0.000
1737566955.269,-13.672,-11.719,-28.320,18.066,0.000
1737566955.273,33.203,-8.301,-26.855,145.020,0.000
1737566955.277,27.832,-4.395,-28.809,199.707,0.000
1737566955.280,-9.766,1.465,-36.621,104.492,0.000
1737566955.284,-53.223,-5.859,-30.762,19.531,0.000
1737566955.288,-51.758,-20.020,-15.137,30.762,0.000
1737566955.292,-4.883,-14.648,-21.973,99.121,0.000
1737566955.296,48.828,-3.418,-21.484,170.410,0.000
1737566955.300,6.348,-16.602,-18.066,134.766,0.000
1737566955.304,-55.664,-23.926,-25.879,36.621,0.000
1737566955.308,-32.227,-19.531,-28.320,-11.230,0.000
1737566955.312,11.719,-14.648,-26.855,60.059,0.000
1737566955.316,59.082,-5.859,-20.020,173.340,0.000
1737566955.320,12.207,-11.230,-20.020,136.719,0.000
1737566955.324,-71.777,-25.879,-28.809,9.277,0.000
1737566955.327,-58.594,-18.066,-36.133,-40.039,0.000
1737566955.331,16.113,-8.301,-35.156,43.945,0.000
1737566955.335,53.711,-14.160,-26.855,162.109,0.000
1737566955.339,31.738,-20.996,-17.578,160.156,0.000
1737566955.343,-31.250,-18.066,-21.973,47.363,0.000
1737566955.347,-57.617,-12.207,-36.133,-27.832,0.000
1737566955.351,-33.691,-7.324,-38.086,19.043,0.000
1737566955.355,0.000,0.977,-30.273,110.352,0.000
1737566955.359,0.000,2.930,-20.020,116.699,0.000
1737566955.363,0.000,0.000,-17.090,23.438,0.000
1737566955.367,0.000,-9.277,-19.043,-33.691,0.000
1737566955.370,0.000,-12.695,-18.066,17.090,0.000
1737566955.374,0.000,0.000,-16.602,108.398,0.000
1737566955.378,0.000,6.348,-23.438,115.234,0.000
1737566955.382,0.000,-8.789,-31.250,3.906,0.000
1737566955.386,0.000,-19.531,-24.414,-91.797,0.000
1737566955.390,0.000,-14.648,-12.207,-41.992,0.000
1737566955.394,0.000,-0.977,-3.906,86.914,0.000
1737566955.398,0.000,-7.324,-6.348,107.422,0.000
1737566955.402,-32.227,-16.113,-8.301,-9.277,0.000
1737566955.406,-90.820,-10.254,-9.766,-103.516,0.000
1737566955.410,-57.617,-1.465,-20.996,-67.871,0.000
1737566955.413,10.254,30.273,12.207,22.461,0.000
1737566955.417,46.875,60.059,44.922,52.734,0.000
1737566955.421,5.859,62.500,31.738,-8.789,0.000
1737566955.425,-87.402,113.281,21.484,-113.281,0.000
1737566955.429,-80.078,99.121,33.691,-105.469,0.000
1737566955.433,-27.832,5.859,13.184,-5.371,0.000
1737566955.437,2.930,-174.316,-98.633,75.195,0.000
1737566955.441,-30.762,-269.043,-211.426,14.160,0.000
1737566955.444,-188.965,-253.906,-298.828,-217.773,0.000
1737566955.449,-220.703,-61.523,-232.910,-272.949,0.000
1737566955.453,-113.281,190.430,-202.637,-154.297,0.000
1737566955.456,-157.227,590.820,-356.445,-159.180,0.000
1737566955.460,-264.160,994.629,-355.469,-267.578,0.000
1737566955.464,-308.594,961.914,-318.359,-438.965,0.000
1737566955.468,-291.016,964.355,-311.035,-479.980,0.000
1737566955.472,-200.684,972.656,-311.523,-318.359,0.000
1737566955.476,-252.441,970.703,-304.688,-407.715,0.000
1737566955.480,-351.074,970.703,-236.816,-696.289,0.000
1737566955.484,-455.566,974.121,-147.461,-907.227,0.000
1737566955.487,-487.793,961.914,-109.863,-1000.000,0.000
1737566955.491,-395.996,947.266,-114.258,-980.957,0.000
1737566955.496,-445.801,984.375,11.719,-976.074,0.000
1737566955.499,-495.605,331.543,65.430,-1000.000,0.000
1737566955.503,-515.625,-785.645,52.246,-1000.000,0.000
1737566955.507,-531.250,-839.355,48.340,-999.512,0.000
1737566955.511,-504.883,-458.008,-13.672,-1000.000,0.000
1737566955.515,-552.734,-1000.000,-6.348,-1000.000,0.000
1737566955.519,-536.133,-189.453,17.578,-1000.000,0.000
1737566955.523,-535.645,999.512,-31.738,-981.934,0.000
1737566955.527,-512.207,937.988,-7.812,-1000.000,0.000
1737566955.530,-500.488,949.219,66.406,-796.387,0.000
1737566955.534,-436.523,975.586,124.512,-133.301,0.000
1737566955.538,-435.059,970.703,103.516,-13.184,0.000
1737566955.542,-560.059,970.703,108.398,-600.098,0.000
1737566955.546,-533.691,970.703,158.691,-970.215,0.000
1737566955.550,-385.742,971.191,173.340,-844.238,0.000
1737566955.554,-290.527,971.191,193.848,-592.773,0.000
1737566955.558,-330.078,970.703,216.797,-564.453,0.000
1737566955.562,-360.352,970.703,218.750,-576.660,0.000
1737566955.566,-410.645,970.703,243.652,-520.996,0.000
1737566955.570,-395.996,970.703,291.504,-397.949,0.000
1737566955.573,-237.793,970.703,341.309,-167.480,0.000
1737566955.577,-152.832,970.703,367.188,-10.254,0.000
1737566955.581,-208.008,970.703,399.414,-24.902,0.000
1737566955.585,-302.734,970.703,436.523,-43.457,0.000
1737566955.589,0.000,970.703,467.773,68.848,0.000
1737566955.593,0.000,970.703,498.047,227.051,0.000
1737566955.597,0.000,974.121,502.441,298.828,0.000
1737566955.601,0.000,950.684,525.391,270.508,0.000
1737566955.605,0.000,999.512,570.801,163.574,0.000
1737566955.609,0.000,871.094,599.609,178.711,0.000
1737566955.613,0.000,509.766,614.746,360.352,0.000
1737566955.616,0.000,783.203,604.980,490.723,0.000
1737566955.620,0.000,999.512,589.355,474.609,0.000
1737566955.624,0.000,823.730,562.012,379.395,0.000
1737566955.628,0.000,613.770,537.598,414.551,0.000
1737566955.632,0.000,316.895,520.020,555.176,0.000
1737566955.636,234.863,520.020,491.211,624.023,0.000
1737566955.640,195.801,998.047,473.633,614.746,0.000
1737566955.644,112.305,966.797,446.289,518.066,0.000
1737566955.648,49.316,959.961,397.949,443.359,0.000
1737566955.652,141.602,973.633,390.625,543.457,0.000
1737566955.656,231.445,970.703,382.324,673.828,0.000
1737566955.659,132.324,970.703,345.703,646.973,0.000
1737566955.663,90.820,970.703,313.965,507.324,0.000
1737566955.667,87.402,970.703,298.828,442.871,0.000
1737566955.671,121.094,970.703,302.734,559.570,0.000
1737566955.675,170.410,970.703,288.574,640.137,0.000
1737566955.679,129.395,970.703,267.090,644.043,0.000
1737566955.683,0.000,970.703,248.535,585.938,0.000
1737566955.687,0.000,971.191,210.449,436.523,0.000
1737566955.691,0.000,970.703,189.453,466.797,0.000
1737566955.695,0.000,961.426,197.266,604.004,0.000
1737566955.699,0.000,981.445,204.590,609.375,0.000
1737566955.702,0.000,845.703,207.031,508.789,0.000
1737566955.706,0.000,525.879,191.406,430.176,0.000
1737566955.710,0.000,191.895,164.551,500.977,0.000
1737566955.714,0.000,-78.613,162.109,646.484,0.000
1737566955.718,0.000,-260.742,171.875,655.762,0.000
1737566955.722,0.000,-416.504,171.387,518.555,0.000
1737566955.726,0.000,-476.074,163.574,437.500,0.000
1737566955.730,-2.930,-482.422,155.273,474.609,0.000
1737566955.734,79.590,-428.711,141.113,606.445,0.000
1737566955.738,86.426,-354.492,119.629,643.066,0.000
1737566955.742,18.555,-325.684,114.746,517.578,0.000
1737566955.745,-64.453,-262.207,119.141,416.016,0.000
1737566955.749,-11.230,-133.789,128.906,453.125,0.000
1737566955.753,100.098,-40.039,135.742,589.844,0.000
1737566955.757,84.473,-36.621,119.629,659.180,0.000
1737566955.761,14.648,-84.473,118.164,538.086,0.000
1737566955.765,-40.527,-157.715,122.559,390.625,0.000
1737566955.769,-15.625,-138.672,109.863,432.617,0.000
1737566955.773,49.805,-72.754,100.586,564.941,0.000
1737566955.777,82.520,-62.500,98.145,633.789,0.000
1737566955.781,34.180,-68.359,98.633,549.316,0.000
1737566955.785,-62.500,-58.594,92.285,390.137,0.000
1737566955.788,-80.078,-38.574,84.473,386.230,0.000
1737566955.792,24.902,0.488,85.938,506.348,0.000
1737566955.796,90.820,54.199,79.590,573.242,0.000
1737566955.800,-12.207,34.668,66.406,528.809,0.000
1737566955.804,-57.129,-5.859,72.266,445.312,0.000
1737566955.808,2.930,25.391,90.332,400.391,0.000
1737566955.812,-8.301,55.664,102.051,472.168,0.000
1737566955.816,-28.320,91.309,86.914,581.543,0.000
1737566955.819,18.066,112.305,55.176,574.707,0.000
1737566955.824,0.000,65.430,47.852,488.770,0.000
1737566955.828,0.000,73.730,52.734,416.504,0.000
1737566955.831,0.000,109.863,56.641,479.980,0.000
1737566955.835,0.000,112.305,66.406,568.359,0.000
1737566955.839,0.000,106.934,64.941,510.742,0.000
1737566955.843,0.000,99.609,63.477,399.414,0.000
1737566955.847,0.000,67.871,51.270,323.242,0.000
1737566955.851,0.000,43.945,22.461,375.977,0.000
1737566955.855,0.000,83.984,33.203,485.352,0.000
1737566955.859,0.000,97.168,65.430,474.609,0.000
1737566955.862,0.000,62.500,57.617,286.621,0.000
1737566955.866,0.000,10.742,44.434,165.039,0.000
1737566955.871,-49.805,-3.418,58.105,258.301,0.000
1737566955.874,28.320,18.066,59.082,392.578,0.000
1737566955.878,-0.977,1.465,47.363,396.484,0.000
1737566955.882,-49.805,-12.695,51.270,277.832,0.000
1737566955.886,-55.176,-7.324,59.082,204.590,0.000
1737566955.890,-33.691,-11.719,57.617,270.508,0.000
1737566955.894,5.859,-20.996,47.363,361.816,0.000
1737566955.898,14.160,-34.668,39.062,374.023,0.000
1737566955.902,-25.391,-47.852,27.832,312.988,0.000
1737566955.905,-61.523,-80.078,13.672,212.891,0.000
1737566955.909,-48.828,-85.938,26.367,262.695,0.000
1737566955.913,13.184,-61.523,40.039,437.500,0.000
1737566955.917,41.504,-68.848,26.855,478.516,0.000
1737566955.921,-65.918,-101.074,17.578,369.141,0.000
1737566955.925,-76.172,-107.910,19.043,265.625,0.000
1737566955.929,-1.465,-90.820,19.043,297.363,0.000
1737566955.933,-2.930,-83.984,26.367,458.496,0.000
1737566955.937,-7.812,-68.359,32.227,530.762,0.000
1737566955.941,-19.043,-78.125,27.832,417.480,0.000
1737566955.945,-63.477,-120.117,21.484,312.012,0.000
1737566955.948,-52.246,-126.953,24.414,318.359,0.000
1737566955.952,1.953,-91.797,25.391,449.707,0.000
1737566955.956,59.082,-85.449,22.461,546.387,0.000
1737566955.960,7.324,-101.562,20.996,458.008,0.000
1737566955.964,-109.375,-124.512,5.859,350.098,0.000
1737566955.968,-92.285,-143.066,-3.906,359.375,0.000
1737566955.972,28.320,-115.723,18.555,471.191,0.000
1737566955.976,94.727,-91.309,35.645,572.754,0.000
1737566955.980,19.531,-109.375,34.180,520.508,0.000
1737566955.984,-56.152,-110.352,25.879,401.367,0.000
1737566955.988,-52.246,-137.695,6.836,379.395,0.000
1737566955.991,10.254,-164.062,5.859,460.938,0.000
1737566955.995,50.293,-146.973,14.160,534.668,0.000
1737566955.999,9.277,-134.766,4.395,495.117,0.000
1737566956.003,-36.621,-157.715,1.953,371.582,0.000
1737566956.007,-44.922,-185.547,5.859,305.664,0.000
1737566956.011,16.113,-143.066,10.254,412.598,0.000
1737566956.015,57.617,-119.629,12.695,508.789,0.000
1737566956.019,26.855,-145.508,-0.977,471.191,0.000
1737566956.023,-71.777,-177.246,-0.488,362.793,0.000
1737566956.027,-117.188,-193.848,9.277,291.992,0.000
1737566956.031,6.836,-159.668,15.625,376.953,0.000
1737566956.034,108.887,-130.859,23.438,510.254,0.000
1737566956.038,56.641,-160.156,20.020,471.680,0.000
1737566956.042,-39.551,-179.688,15.137,331.055,0.000
1737566956.046,-65.918,-199.219,14.160,265.625,0.000
1737566956.050,-19.043,-188.965,15.137,332.031,0.000
1737566956.054,44.434,-153.809,13.672,439.941,0.000
1737566956.058,42.480,-158.691,7.812,452.148,0.000
1737566956.062,-36.621,-190.918,0.977,342.285,0.000
1737566956.066,-72.266,-218.262,3.418,224.121,0.000
1737566956.070,-20.508,-207.031,3.906,230.957,0.000
1737566956.074,37.598,-175.293,3.906,368.164,0.000
1737566956.078,59.570,-156.738,10.742,442.383,0.000
1737566956.081,-22.949,-188.477,11.230,349.121,0.000
1737566956.085,-83.496,-229.980,5.859,199.219,0.000
1737566956.089,-48.340,-217.773,-3.906,192.383,0.000
1737566956.093,41.504,-180.664,-6.348,272.949,0.000
1737566956.097,48.828,-167.969,-0.977,304.199,0.000
1737566956.101,-13.184,-210.938,-3.906,241.699,0.000
1737566956.105,-45.898,-239.746,-8.301,106.934,0.000
1737566956.109,-62.988,-228.516,-10.742,68.848,0.000
1737566956.113,18.066,-183.105,-2.930,175.293,0.000
1737566956.117,77.148,-159.668,0.488,265.625,0.000
1737566956.121,11.719,-182.617,-3.418,151.855,0.000
1737566956.124,-74.219,-191.406,-10.254,-26.855,0.000
1737566956.128,-87.402,-195.312,-16.602,-45.410,0.000
1737566956.132,12.695,-218.750,-16.602,92.285,0.000
1737566956.136,66.406,-206.543,-9.766,179.199,0.000
1737566956.140,26.367,-184.082,0.000,100.098,0.000
1737566956.144,-25.391,-195.801,2.441,-21.973,0.000
1737566956.148,-44.922,-216.309,0.488,-53.711,0.000
1737566956.152,8.789,-207.520,0.977,42.969,0.000
1737566956.156,79.102,-174.316,4.395,129.883,0.000
1737566956.160,22.949,-182.129,7.324,94.238,0.000
1737566956.164,-63.965,-208.008,4.395,-41.016,0.000
1737566956.167,-83.496,-219.727,-1.953,-130.371,0.000
1737566956.171,-21.973,-187.500,-5.371,-30.762,0.000
1737566956.175,62.012,-152.832,-1.465,93.262,0.000
1737566956.179,43.457,-183.105,0.977,47.363,0.000
1737566956.183,-37.109,-224.121,-1.953,-85.938,0.000
1737566956.187,-53.711,-226.562,-6.348,-164.551,0.000
1737566956.191,4.883,-197.754,-13.672,-101.074,0.000
1737566956.195,71.777,-176.270,-17.090,8.789,0.000
1737566956.199,65.430,-171.875,-17.578,22.949,0.000
1737566956.203,-56.641,-191.895,-30.762,-105.957,0.000
1737566956.207,-107.910,-211.426,-25.879,-240.723,0.000
1737566956.210,-8.789,-186.035,-0.977,-171.387,0.000
1737566956.214,75.684,-138.672,15.137,-11.230,0.000
1737566956.218,51.758,-141.113,16.113,2.930,0.000
1737566956.222,10.254,-191.895,8.789,-84.961,0.000
1737566956.226,-38.086,-219.727,5.371,-141.602,0.000
1737566956.230,-26.855,-188.965,12.695,-67.871,0.000
1737566956.234,67.383,-172.363,9.766,79.590,0.000
1737566956.238,78.613,-174.316,3.906,138.184,0.000
1737566956.241,-19.043,-190.430,0.488,75.195,0.000
1737566956.246,0.000,-208.008,-1.953,6.836,0.000
1737566956.250,0.000,-199.219,-2.441,42.480,0.000
1737566956.253,0.000,-185.059,-2.441,164.062,0.000
1737566956.257,0.000,-172.363,1.953,243.652,0.000
1737566956.261,0.000,-179.199,-1.953,148.926,0.000
1737566956.265,0.000,-186.523,-3.418,37.109,0.000
1737566956.269,0.000,-193.848,3.906,74.219,0.000
1737566956.273,0.000,-190.430,0.488,164.551,0.000
1737566956.277,0.000,-169.434,-0.977,193.359,0.000
1737566956.280,0.000,-173.828,1.953,115.723,0.000
1737566956.284,0.000,-190.430,-0.977,-7.812,0.000
1737566956.288,0.000,-186.035,3.906,-14.160,0.000
1737566956.293,50.293,-172.852,10.254,102.051,0.000
1737566956.296,73.730,-153.320,9.277,169.434,0.000
1737566956.300,28.809,-145.020,4.395,97.656,0.000
1737566956.304,-36.133,-164.551,-0.488,-33.203,0.000
1737566956.308,-60.547,-180.176,-6.836,-56.152,0.000
1737566956.312,31.738,-143.066,-4.395,70.312,0.000
1737566956.316,51.758,-129.883,-2.930,164.551,0.000
1737566956.320,-23.926,-169.434,-7.812,116.211,0.000
1737566956.324,-61.523,-192.871,-10.742,0.977,0.000
1737566956.327,-63.965,-178.711,-18.555,-74.707,0.000
1737566956.331,47.363,-150.879,-12.207,32.227,0.000
1737566956.335,110.352,-151.855,5.371,148.926,0.000
1737566956.339,73.242,-150.391,8.301,131.348,0.000
1737566956.343,-0.488,-145.508,-12.695,21.973,0.000
1737566956.347,-52.246,-171.387,-24.902,-37.109,0.000
1737566956.351,-2.441,-153.809,-11.719,30.273,0.000
1737566956.355,54.688,-106.934,8.301,101.074,0.000
1737566956.359,14.648,-102.051,27.832,112.305,0.000
1737566956.363,-63.965,-141.113,27.344,25.879,0.000
1737566956.367,-68.359,-174.316,10.742,-49.316,0.000
1737566956.370,3.418,-158.691,4.395,29.785,0.000
1737566956.374,89.844,-137.695,-0.488,169.922,0.000
1737566956.378,59.082,-145.508,-4.395,198.242,0.000
1737566956.382,-45.898,-158.203,-1.465,61.035,0.000
1737566956.386,-58.594,-160.156,2.930,-40.039,0.000
1737566956.390,-38.086,-142.578,4.883,75.684,0.000
1737566956.394,16.602,-114.258,-1.953,247.070,0.000
1737566956.398,61.035,-83.008,-16.113,279.785,0.000
1737566956.402,13.672,-78.613,-18.555,172.852,0.000
1737566956.406,-38.574,-111.816,6.836,39.062,0.000
1737566956.410,-32.715,-135.254,18.555,47.363,0.000
1737566956.413,45.898,-114.746,16.602,199.219,0.000
1737566956.417,93.750,-89.844,16.602,265.137,0.000
1737566956.421,-8.301,-106.934,3.418,163.086,0.000
1737566956.425,-63.477,-119.629,-4.883,42.969,0.000
1737566956.429,-13.184,-118.652,-5.859,42.480,0.000
1737566956.433,18.066,-101.074,-0.977,184.082,0.000
1737566956.437,26.855,-89.355,5.371,269.043,0.000
1737566956.441,-12.207,-119.141,13.672,155.762,0.000
1737566956.445,-37.109,-126.953,19.531,28.320,0.000
1737566956.449,0.977,-96.191,13.184,22.949,0.000
1737566956.453,70.312,-69.336,1.953,130.859,0.000
1737566956.456,69.824,-64.941,-7.324,208.984,0.000
1737566956.460,2.441,-92.285,-15.625,122.559,0.000
1737566956.464,-55.664,-125.000,-8.789,-9.766,0.000
1737566956.468,-70.312,-121.582,-6.348,-21.484,0.000
1737566956.472,42.480,-87.402,1.953,98.633,0.000
1737566956.476,103.516,-62.988,50.293,190.918,0.000
1737566956.480,16.602,-101.074,55.176,102.539,0.000
1737566956.484,-68.848,-134.766,21.973,-41.016,0.000
1737566956.488,-83.496,-134.766,-11.719,-85.938,0.000
1737566956.492,13.672,-111.328,-38.086,13.184,0.000
1737566956.496,88.867,-101.562,-4.883,142.578,0.000
1737566956.499,23.926,-98.633,69.824,114.746,0.000
1737566956.503,-58.594,-97.656,49.316,-39.551,0.000
1737566956.507,-20.508,-108.887,-24.902,-78.125,0.000
1737566956.511,45.410,-116.211,-19.531,-39.551,0.000
1737566956.515,11.230,-116.699,21.484,13.672,0.000
1737566956.519,-29.785,-109.375,29.297,5.371,0.000
1737566956.523,-32.715,-132.812,25.879,-98.145,0.000
1737566956.527,-54.199,-160.645,6.836,-138.184,0.000
1737566956.531,7.324,-129.395,6.348,-36.621,0.000
1737566956.535,83.008,-77.148,18.066,56.641,0.000
1737566956.539,43.945,-87.402,20.020,24.902,0.000
1737566956.542,-10.254,-117.188,18.066,-98.633,0.000
1737566956.546,-32.715,-140.625,-22.949,-169.434,0.000
1737566956.550,-40.039,-157.715,3.418,-139.648,0.000
1737566956.554,2.441,-171.875,66.895,-83.008,0.000
1737566956.558,27.832,-129.883,43.457,13.672,0.000
1737566956.562,-21.973,-106.934,-42.480,-30.273,0.000
1737566956.566,-107.422,-167.480,-29.785,-221.680,0.000
1737566956.569,-88.379,-187.012,23.926,-153.809,0.000
1737566956.574,25.879,-133.789,46.875,386.719,0.000
1737566956.578,100.098,-80.078,99.121,828.125,0.000
1737566956.582,61.523,-133.301,2.441,724.121,0.000
1737566956.585,-64.453,-230.957,-50.781,536.133,0.000
1737566956.589,-49.805,-172.852,-73.730,610.840,0.000
1737566956.593,32.715,-53.223,-45.898,718.750,0.000
1737566956.597,41.016,-123.047,62.012,701.660,0.000
1737566956.601,62.988,-162.109,125.488,710.938,0.000
1737566956.605,140.625,-140.625,107.422,843.750,0.000
1737566956.609,22.461,-170.410,-99.609,753.418,0.000
1737566956.612,-232.910,-249.023,-152.832,563.965,0.000
1737566956.616,-292.480,-311.035,-125.000,583.984,0.000
1737566956.621,-229.980,-309.570,-218.262,598.633,0.000
1737566956.624,-135.742,-132.812,-151.855,609.863,0.000
1737566956.628,-175.293,285.156,-107.422,486.816,0.000
1737566956.632,-325.684,527.832,-329.102,319.336,0.000
1737566956.636,-282.227,511.230,-379.883,427.734,0.000
1737566956.640,-166.016,346.680,-322.266,509.766,0.000
1737566956.644,-139.160,196.289,-489.746,419.434,0.000
1737566956.648,-110.352,95.703,-457.031,437.012,0.000
1737566956.652,-124.023,-29.785,-224.121,520.020,0.000
1737566956.655,-302.734,-79.590,-273.438,446.777,0.000
1737566956.659,-301.270,-113.281,-440.918,428.223,0.000
1737566956.663,-262.695,-209.473,-488.281,415.527,0.000
1737566956.668,-279.785,-293.945,-490.234,0.000,0.000
1737566956.671,-162.598,-332.520,-517.578,0.000,0.000
1737566956.675,-80.078,-297.852,-452.148,0.000,0.000
1737566956.679,-152.344,-321.777,-447.754,0.000,0.000
1737566956.683,-247.070,-499.512,-488.770,0.000,0.000
1737566956.687,-157.227,-669.922,-473.633,0.000,0.000
1737566956.691,-9.766,-645.020,-436.523,0.000,0.000
1737566956.695,-47.363,-593.262,-517.578,0.000,0.000
1737566956.698,-93.262,-626.465,-513.672,0.000,0.000
1737566956.702,-86.914,-658.203,-509.277,0.000,0.000
1737566956.706,-84.961,-616.211,-524.414,0.000,0.000
1737566956.710,-6.348,-510.742,-453.613,0.000,0.000
1737566956.714,-10.742,-519.531,-491.699,539.062,0.000
1737566956.718,-59.570,-541.504,-419.922,474.121,0.000
1737566956.722,-42.480,-497.559,-299.805,394.043,0.000
1737566956.726,-63.477,-327.148,-334.473,252.930,0.000
1737566956.730,0.488,-117.676,-348.145,300.781,0.000
1737566956.734,90.820,-81.543,-370.605,439.941,0.000
1737566956.738,104.980,-116.211,-397.461,489.258,0.000
1737566956.742,29.297,-127.930,-365.234,363.770,0.000
1737566956.745,-40.527,-118.164,-353.516,216.797,0.000
1737566956.749,-2.441,-66.406,-345.215,230.957,0.000
1737566956.753,52.246,39.551,-316.895,273.438,0.000
1737566956.757,95.703,116.699,-190.918,328.613,0.000
1737566956.761,60.547,25.879,0.000,212.402,0.000
1737566956.765,53.711,41.992,0.000,145.508,0.000
1737566956.769,-62.988,82.520,0.000,95.215,0.000
1737566956.773,-136.230,59.570,0.000,39.062,0.000
1737566956.777,-66.406,89.844,0.000,55.176,0.000
1737566956.781,-37.598,98.145,0.000,-10.254,0.000
1737566956.785,-39.551,37.598,0.000,-54.199,0.000
1737566956.788,-20.508,-107.910,0.000,-3.418,0.000
1737566956.792,-2.441,-247.070,0.000,91.309,0.000
1737566956.796,-5.371,-315.918,0.000,42.480,0.000
1737566956.800,-51.758,-310.547,0.000,-73.730,0.000
1737566956.804,-55.176,-248.047,0.000,-71.289,0.000
1737566956.808,-84.961,-229.492,-166.504,-104.492,0.000
1737566956.812,-48.828,-148.438,-53.711,-30.273,0.000
1737566956.816,55.176,-36.621,0.488,108.887,0.000
1737566956.820,-7.324,-32.227,-103.027,27.344,0.000
1737566956.824,-131.836,-47.363,-145.996,-158.691,0.000
1737566956.828,-105.957,51.758,-58.594,-171.387,0.000
1737566956.831,-31.738,112.305,-57.129,-79.590,0.000
1737566956.835,30.273,127.930,-62.500,10.742,0.000
1737566956.839,0.488,152.344,-59.082,-29.785,0.000
1737566956.843,-81.543,141.113,-62.012,-190.918,0.000
1737566956.847,-93.262,129.395,-53.223,-217.285,0.000
1737566956.851,70.312,160.156,22.949,-46.387,0.000
1737566956.855,105.957,146.973,-38.574,0.000,0.000
1737566956.859,-21.973,74.707,-127.441,-143.066,0.000
1737566956.863,-54.688,89.355,-89.355,-248.047,0.000
1737566956.867,-64.453,80.078,15.137,-262.695,0.000
1737566956.871,-63.477,62.500,15.137,-229.004,0.000
1737566956.874,-8.301,125.000,-14.160,-113.281,0.000
1737566956.878,0.488,156.250,20.996,-90.820,0.000
1737566956.882,34.668,178.711,-3.906,-181.641,0.000
1737566956.886,67.383,167.480,-0.488,-222.168,0.000
1737566956.890,-69.336,143.555,-14.648,-293.945,0.000
1737566956.894,-40.527,141.602,-57.617,-233.398,0.000
1737566956.898,1.465,128.906,-65.918,-145.996,0.000
1737566956.902,-42.480,126.465,-93.262,-205.566,0.000
1737566956.906,-3.418,152.832,-9.766,-229.492,0.000
1737566956.910,-24.902,154.785,74.219,-214.355,0.000
1737566956.914,-56.152,82.520,88.379,-225.098,0.000
1737566956.917,-36.133,89.844,80.078,-224.609,0.000
1737566956.921,-58.594,136.719,35.645,-230.957,0.000
1737566956.925,-29.297,135.742,19.531,-238.770,0.000
1737566956.929,42.969,119.141,20.996,-134.766,0.000
1737566956.933,99.609,137.207,-21.484,-14.648,0.000
1737566956.937,145.996,142.090,-79.590,-26.855,0.000
1737566956.941,91.797,170.410,-35.645,-164.062,0.000
1737566956.945,-111.816,107.422,127.441,-359.863,0.000
1737566956.949,-127.930,90.332,57.129,-358.398,0.000
1737566956.953,59.570,174.805,-11.719,-107.422,0.000
1737566956.957,131.348,210.938,135.254,-20.020,0.000
1737566956.960,43.457,210.938,192.871,-147.949,0.000
1737566956.964,-94.238,101.074,40.039,-313.965,0.000
1737566956.968,-59.570,114.258,-70.801,-404.297,0.000
1737566956.972,53.711,190.430,3.906,-264.160,0.000
1737566956.976,126.953,133.301,39.551,-91.797,0.000
1737566956.980,101.562,193.359,8.301,-125.977,0.000
1737566956.984,-35.645,247.070,21.484,-310.059,0.000
1737566956.987,-89.844,177.734,19.043,-402.832,0.000
1737566956.991,-8.789,171.387,30.273,-290.039,0.000
1737566956.996,113.770,178.223,68.359,-119.141,0.000
1737566956.999,70.312,186.523,62.500,-91.797,0.000
1737566957.003,101.074,169.434,59.082,-145.508,0.000
1737566957.007,192.871,134.277,-35.645,-150.391,0.000
1737566957.011,13.672,120.117,-108.887,-207.520,0.000
1737566957.015,46.387,215.332,81.055,-111.328,0.000
1737566957.019,-52.734,208.984,88.379,-187.988,0.000
1737566957.023,-17.090,144.043,11.230,-352.051,0.000
1737566957.027,435.059,199.707,8.301,-257.812,0.000
1737566957.030,707.520,240.234,15.625,-164.551,0.000
1737566957.034,729.980,183.594,34.180,-189.453,0.000
1737566957.038,770.020,162.598,39.551,-207.031,0.000
1737566957.042,0.000,167.480,2.930,-266.113,0.000
1737566957.046,0.000,117.676,-56.152,-355.469,0.000
1737566957.050,0.000,101.074,13.672,-374.023,0.000
1737566957.054,0.000,173.340,95.703,-297.852,0.000
1737566957.058,0.000,178.223,35.645,-259.766,0.000
1737566957.062,0.000,94.238,12.207,-338.867,0.000
1737566957.066,0.000,160.645,67.383,-402.344,0.000
1737566957.070,0.000,211.426,78.613,-350.586,0.000
1737566957.073,0.000,156.738,29.785,-351.562,0.000
1737566957.077,0.000,69.824,2.441,-382.324,0.000
1737566957.081,0.000,-58.594,-0.977,-447.266,0.000
1737566957.085,0.000,-33.203,40.039,-568.359,0.000
1737566957.089,165.527,-41.016,-3.906,-560.059,0.000
1737566957.093,98.633,-159.668,-37.109,-531.250,0.000
1737566957.097,-35.645,-565.430,-23.438,-499.023,0.000
1737566957.101,-341.309,-932.617,-113.770,-544.434,0.000
1737566957.105,-602.539,-983.887,-122.070,-707.031,0.000
1737566957.109,-674.316,-997.070,-78.125,-788.574,0.000
1737566957.113,-598.145,-999.512,-107.910,-788.574,0.000
1737566957.116,-561.523,-1000.000,-97.168,-875.488,0.000
1737566957.120,-627.441,-1000.000,-103.516,-1000.000,0.000
1737566957.124,-688.965,-1000.000,-165.039,-1000.000,0.000
1737566957.128,-590.332,-1000.000,-103.027,-997.070,0.000
1737566957.132,-434.570,-1000.000,-98.633,-1000.000,0.000
1737566957.136,-461.426,-1000.000,-44.922,-1000.000,0.000
1737566957.140,-586.914,-1000.000,-7.812,-1000.000,0.000
1737566957.144,-658.203,-1000.000,-21.484,-1000.000,0.000
1737566957.148,-629.883,-1000.000,77.148,-1000.000,0.000
1737566957.152,-558.105,-1000.000,66.895,-1000.000,0.000
1737566957.156,-563.477,-1000.000,120.117,-1000.000,0.000
1737566957.160,-604.980,-987.793,170.410,-1000.000,0.000
1737566957.163,-650.879,-1000.000,127.930,-999.023,0.000
1737566957.167,-611.816,-908.691,195.801,-1000.000,0.000
1737566957.171,-492.188,-698.730,205.078,-1000.000,0.000
1737566957.175,-391.113,-842.773,121.094,-943.359,0.000
1737566957.179,-361.328,-979.980,141.602,-945.801,0.000
1737566957.183,-611.328,-1000.000,180.664,-1000.000,0.000
1737566957.187,-744.141,-840.332,138.184,-961.914,0.000
1737566957.191,-602.051,-335.938,64.453,-828.125,0.000
1737566957.195,-556.641,-213.379,96.680,-663.574,0.000
1737566957.199,-567.383,-435.547,145.020,-632.324,0.000
1737566957.203,-582.520,-295.898,129.883,-772.461,0.000
1737566957.206,-511.719,-313.965,132.812,-823.730,0.000
1737566957.210,-384.277,-362.793,116.211,-711.426,0.000
1737566957.214,-333.008,-26.855,107.422,-596.680,0.000
1737566957.218,-301.270,291.504,131.348,-227.051,0.000
1737566957.222,-298.340,621.094,134.277,35.156,0.000
1737566957.226,-400.391,810.059,127.441,-77.637,0.000
1737566957.230,0.000,974.121,0.000,91.309,0.000
1737566957.234,0.000,968.750,0.000,359.863,0.000
1737566957.238,0.000,967.773,0.000,646.973,0.000
1737566957.242,0.000,971.191,0.000,573.242,0.000
1737566957.246,0.000,970.703,0.000,374.023,0.000
1737566957.249,0.000,970.703,0.000,544.922,0.000
1737566957.253,0.000,970.703,0.000,744.629,0.000
1737566957.257,0.000,970.703,0.000,772.461,0.000
1737566957.261,0.000,970.703,0.000,749.023,0.000
1737566957.265,0.000,970.703,0.000,714.355,0.000
1737566957.269,0.000,971.680,0.000,778.809,0.000
1737566957.273,0.000,955.078,0.000,898.438,0.000
1737566957.277,-7.812,985.840,401.367,895.508,0.000
1737566957.281,-7.812,804.688,404.785,839.844,0.000
1737566957.285,43.457,239.258,362.305,725.098,0.000
1737566957.288,-0.977,-344.238,314.453,743.164,0.000
1737566957.292,90.332,-708.008,279.297,909.668,0.000
1737566957.296,238.770,-916.016,233.887,928.223,0.000
1737566957.300,225.586,-1000.000,211.426,868.652,0.000
1737566957.304,148.438,-996.094,210.938,535.645,0.000
1737566957.308,59.570,-1000.000,166.992,-69.824,0.000
1737566957.312,244.141,-1000.000,151.855,20.020,0.000
1737566957.316,476.562,-1000.000,181.641,457.520,0.000
1737566957.319,380.371,-1000.000,131.348,398.926,0.000
1737566957.324,258.789,-997.559,100.586,232.910,0.000
1737566957.328,248.535,-1000.000,132.812,182.129,0.000
1737566957.331,276.367,-978.516,146.973,233.398,0.000
1737566957.335,264.648,-897.461,129.883,492.676,0.000
1737566957.339,265.137,-849.121,98.145,575.195,0.000
1737566957.343,208.496,-805.664,110.840,514.648,0.000
1737566957.347,250.488,-649.902,107.910,594.727,0.000
1737566957.351,349.121,-414.551,83.496,739.746,0.000
1737566957.355,321.289,-230.957,95.703,882.812,0.000
1737566957.359,296.387,-179.688,91.309,791.504,0.000
1737566957.362,202.637,-214.355,61.035,482.422,0.000
1737566957.366,190.918,-237.305,62.988,182.617,0.000
1737566957.371,228.027,-147.461,67.383,137.695,0.000
1737566957.374,317.383,37.598,56.152,240.234,0.000
1737566957.378,316.895,116.211,20.508,167.969,0.000
1737566957.382,202.637,108.887,10.254,35.156,0.000
1737566957.386,204.590,111.816,-19.043,-63.477,0.000
1737566957.390,231.934,177.734,-44.434,4.883,0.000
1737566957.394,272.949,273.438,14.648,139.160,0.000
1737566957.398,295.898,317.871,50.293,168.457,0.000
1737566957.402,193.359,317.871,41.504,58.105,0.000
1737566957.405,193.848,351.074,31.738,-80.566,0.000
1737566957.409,206.055,416.992,24.414,-30.273,0.000
1737566957.413,250.488,474.609,1.465,222.656,0.000
1737566957.417,310.059,470.703,-15.137,360.352,0.000
1737566957.421,216.797,425.293,0.977,230.469,0.000
1737566957.425,111.816,435.547,25.879,100.586,0.000
1737566957.429,142.090,488.770,3.418,165.527,0.000
1737566957.433,253.906,521.973,-20.508,260.254,0.000
1737566957.437,246.094,504.883,-3.418,261.719,0.000
1737566957.441,176.758,478.516,7.812,204.102,0.000
1737566957.445,148.926,402.832,39.551,125.488,0.000
1737566957.448,131.836,382.812,37.109,122.070,0.000
1737566957.452,191.895,440.430,-10.254,219.727,0.000
1737566957.456,290.039,464.355,-15.625,229.004,0.000
1737566957.460,261.230,449.219,6.348,165.527,0.000
1737566957.464,124.023,412.598,12.695,66.406,0.000
1737566957.468,96.191,363.770,-0.488,5.859,0.000
1737566957.472,252.441,352.539,-35.156,63.477,0.000
1737566957.476,283.691,387.207,-26.367,122.559,0.000
1737566957.480,141.113,359.375,22.949,21.484,0.000
1737566957.484,62.500,302.246,32.715,-119.141,0.000
1737566957.488,35.645,291.016,22.949,-97.168,0.000
1737566957.491,91.797,283.691,31.738,-44.922,0.000
1737566957.495,202.148,264.160,37.109,88.379,0.000
1737566957.499,223.145,268.555,25.391,95.215,0.000
1737566957.503,153.320,283.203,-4.883,-51.270,0.000
1737566957.507,94.727,308.594,17.578,-83.496,0.000
1737566957.511,174.805,349.121,31.250,-1.953,0.000
1737566957.515,205.078,378.906,-1.953,13.672,0.000
1737566957.519,148.926,348.145,6.836,-56.152,0.000
1737566957.523,46.387,307.129,20.996,-133.789,0.000
1737566957.527,51.270,270.508,25.879,-153.809,0.000
1737566957.531,172.852,277.832,32.227,-72.754,0.000
1737566957.534,225.586,278.320,8.789,0.000,0.000
1737566957.538,147.949,223.145,-23.438,-7.812,0.000
1737566957.542,78.125,194.824,-26.855,-73.730,0.000
1737566957.546,57.129,197.754,11.230,-137.695,0.000
1737566957.550,130.371,218.262,41.016,-129.395,0.000
1737566957.554,206.055,242.676,45.410,4.883,0.000
1737566957.558,187.500,210.449,16.602,16.113,0.000
1737566957.562,130.859,155.273,-20.508,-145.508,0.000
1737566957.566,49.805,130.859,0.000,-235.352,0.000
1737566957.570,80.078,120.605,19.043,-136.719,0.000
1737566957.574,138.184,134.766,-2.441,-63.965,0.000
1737566957.577,174.316,163.574,-6.836,-54.688,0.000
1737566957.581,133.789,128.906,8.301,-129.395,0.000
1737566957.585,-11.230,92.285,15.625,-199.707,0.000
1737566957.589,58.594,86.426,20.508,-84.473,0.000
1737566957.593,198.242,68.848,-2.441,19.531,0.000
1737566957.597,202.637,68.848,0.000,41.504,0.000
1737566957.601,170.898,60.059,32.227,-3.418,0.000
1737566957.605,54.199,2.930,5.371,-168.945,0.000
1737566957.609,42.969,-31.250,-11.230,-223.145,0.000
1737566957.613,132.812,-13.672,-1.465,-113.281,0.000
1737566957.617,119.141,-17.090,-3.906,-32.227,0.000
1737566957.620,75.195,-21.973,14.648,-77.637,0.000
1737566957.624,80.566,-30.273,22.949,-141.602,0.000
1737566957.628,71.777,-56.641,16.602,-155.762,0.000
1737566957.632,73.730,-55.664,-8.301,-94.727,0.000
1737566957.636,51.270,-47.852,-39.551,-16.602,0.000
1737566957.640,54.199,-83.496,-18.066,-70.312,0.000
1737566957.644,49.805,-121.582,-0.488,-192.871,0.000
1737566957.648,63.477,-116.211,-26.367,-176.270,0.000
1737566957.652,96.191,-92.285,-8.301,0.000,0.000
1737566957.656,65.430,-90.332,21.484,0.000,0.000
1737566957.660,74.707,-91.797,8.301,0.000,0.000
1737566957.663,27.344,-95.215,-0.977,0.000,0.000
1737566957.667,-22.461,-115.723,5.859,0.000,0.000
1737566957.671,29.297,-133.789,16.602,0.000,0.000
1737566957.675,87.402,-161.621,2.930,0.000,0.000
1737566957.679,52.734,-215.820,0.977,0.000,0.000
1737566957.683,18.066,-249.512,15.137,0.000,0.000
1737566957.687,30.762,-251.953,10.742,0.000,0.000
1737566957.691,64.453,-242.676,9.766,0.000,0.000
1737566957.694,104.492,-216.309,-2.930,0.000,0.000
1737566957.699,74.219,-229.492,-7.812,-14.648,0.000
1737566957.703,-50.781,-281.250,-0.977,-181.641,0.000
1737566957.706,-55.176,-281.738,-13.672,-308.105,0.000
1737566957.710,28.320,-236.816,-18.066,-159.668,0.000
1737566957.714,112.305,-190.430,-3.418,-33.691,0.000
1737566957.718,100.586,-153.320,17.090,-29.297,0.000
1737566957.722,-42.480,-152.344,18.066,-115.723,0.000
1737566957.726,-70.801,-174.805,13.672,-215.332,0.000
1737566957.730,84.473,-156.738,1.953,-168.945,0.000
1737566957.734,108.398,-115.234,-3.906,-55.176,0.000
1737566957.737,22.461,-90.820,-7.324,-83.496,0.000
1737566957.741,24.414,-101.562,-8.789,-229.492,0.000
1737566957.746,16.113,-120.605,7.324,-249.023,0.000
1737566957.749,31.250,-111.328,14.648,-190.430,0.000
1737566957.753,76.172,-76.172,12.207,-165.527,0.000
1737566957.757,32.227,-66.895,5.859,-159.180,0.000
1737566957.761,-9.766,-78.125,4.395,-227.539,0.000
1737566957.765,-58.105,-47.852,-2.441,-307.617,0.000
1737566957.769,-33.203,-31.250,-7.812,-277.832,0.000
1737566957.773,44.922,-23.438,-6.348,-226.562,0.000
1737566957.777,93.262,15.137,-26.367,-219.727,0.000
1737566957.780,80.566,5.859,-51.270,-312.500,0.000
1737566957.784,-27.344,-29.785,-13.672,-446.777,0.000
1737566957.788,-30.273,-27.344,29.785,-434.570,0.000
1737566957.792,0.000,-8.301,17.090,0.000,0.000
1737566957.796,0.000,-11.719,3.906,0.000,0.000
1737566957.800,0.000,0.000,18.066,0.000,0.000
1737566957.804,0.000,21.484,-5.371,0.000,0.000
1737566957.808,0.000,34.668,-30.762,0.000,0.000
1737566957.812,0.000,69.824,0.977,0.000,0.000
1737566957.816,0.000,69.824,-0.488,0.000,0.000
1737566957.820,0.000,34.180,-2.930,0.000,0.000
1737566957.823,0.000,19.043,8.301,0.000,0.000
1737566957.827,0.000,43.457,0.000,0.000,0.000
1737566957.831,0.000,97.656,-1.465,0.000,0.000
1737566957.835,0.000,123.047,-1.953,0.000,0.000
1737566957.839,84.473,101.074,-18.066,-215.820,0.000
1737566957.843,-2.930,75.195,-27.832,-387.207,0.000
1737566957.847,-54.199,64.941,5.859,-405.762,0.000
1737566957.851,54.199,77.148,14.648,-267.578,0.000
1737566957.855,160.645,121.094,-0.977,-133.301,0.000
1737566957.859,122.559,167.480,-10.254,-155.762,0.000
1737566957.863,21.484,133.301,-5.371,-328.613,0.000
1737566957.866,-45.410,70.801,17.090,-400.879,0.000
1737566957.870,-7.812,70.801,30.762,-269.531,0.000
1737566957.874,60.547,100.586,24.902,-168.945,0.000
1737566957.878,69.336,92.773,3.906,-187.012,0.000
1737566957.882,-10.254,71.289,-33.203,-277.344,0.000
1737566957.886,0.000,60.547,-49.316,-346.680,0.000
1737566957.890,0.000,78.613,-8.789,-271.973,0.000
1737566957.894,0.000,86.914,19.043,-202.148,0.000
1737566957.898,0.000,68.848,1.465,-201.172,0.000
1737566957.902,0.000,69.824,13.184,-260.742,0.000
1737566957.906,0.000,65.918,20.508,-361.328,0.000
1737566957.910,0.000,62.012,9.277,-253.418,0.000
1737566957.913,0.000,70.312,14.648,-120.117,0.000
1737566957.917,0.000,60.547,0.977,-205.566,0.000
1737566957.921,0.000,37.598,-25.391,-289.062,0.000
1737566957.925,0.000,17.090,-14.648,-345.703,0.000
1737566957.929,0.000,12.207,-9.766,-232.422,0.000
1737566957.933,62.988,26.855,0.000,-84.473,0.000
1737566957.937,4.395,30.762,0.000,-151.855,0.000
1737566957.941,-37.109,23.926,0.000,-266.602,0.000
1737566957.945,-91.309,8.301,0.000,-339.844,0.000
1737566957.949,-26.367,10.254,0.000,-291.504,0.000
1737566957.953,62.988,47.852,0.000,-150.391,0.000
1737566957.956,52.734,44.434,0.000,-107.422,0.000
1737566957.960,-43.945,-2.441,0.000,-208.008,0.000
1737566957.964,-44.922,-26.367,0.000,-287.598,0.000
1737566957.968,-3.906,-14.160,0.000,-284.668,0.000
1737566957.972,30.273,-3.906,0.000,-171.875,0.000
1737566957.976,55.176,4.883,0.000,-133.301,0.000
1737566957.980,-36.133,-12.207,-14.648,-214.355,0.000
1737566957.984,-106.445,-39.551,0.977,-263.184,0.000
1737566957.988,-40.039,-26.367,-10.742,-286.621,0.000
1737566957.992,58.105,3.418,-10.254,-142.090,0.000
1737566957.996,100.586,12.695,-29.297,-37.109,0.000
1737566957.999,49.805,-3.906,-36.621,-153.809,0.000
1737566958.003,-74.707,-26.855,8.789,-262.207,0.000
1737566958.007,-101.074,-49.805,18.555,-275.879,0.000
1737566958.011,-16.602,-29.297,4.395,-233.398,0.000
1737566958.015,30.762,0.000,21.973,-129.883,0.000
1737566958.019,35.156,-1.465,30.762,-129.883,0.000
1737566958.023,1.953,-31.250,6.348,-260.254,0.000
1737566958.027,-93.262,-51.270,-15.137,-311.035,0.000
1737566958.031,-59.082,-16.113,5.371,-198.242,0.000
1737566958.035,40.527,19.043,7.812,-104.980,0.000
1737566958.039,25.391,36.621,-15.625,-163.086,0.000
1737566958.042,-41.504,59.570,-19.531,-243.652,0.000
1737566958.046,-16.602,71.777,3.418,-276.855,0.000
1737566958.050,33.691,56.641,23.438,-188.477,0.000
1737566958.054,34.668,54.199,-27.344,-99.609,0.000
1737566958.058,28.809,18.555,-54.199,-136.230,0.000
1737566958.062,-48.340,15.137,-21.484,-218.750,0.000
1737566958.066,-62.012,70.801,18.066,-270.996,0.000
1737566958.070,14.160,89.844,9.277,-181.152,0.000
1737566958.074,42.969,71.289,-34.668,-96.680,0.000
1737566958.078,39.062,60.059,-37.109,-138.672,0.000
1737566958.082,-22.461,47.852,-33.691,-201.172,0.000
1737566958.085,-59.570,16.113,-6.836,-247.070,0.000
1737566958.089,18.066,25.879,40.527,-179.688,0.000
1737566958.093,49.805,47.852,27.832,-67.383,0.000
1737566958.097,32.227,41.016,1.465,-32.227,0.000
1737566958.101,-9.277,-16.602,-0.977,-129.883,0.000
1737566958.105,-68.848,-54.199,3.418,-218.750,0.000
1737566958.109,-31.250,-20.020,-15.137,-194.824,0.000
1737566958.113,65.430,32.715,-48.340,-104.492,0.000
1737566958.116,50.781,52.246,-48.828,-36.621,0.000
1737566958.121,-13.184,34.668,-20.996,-113.770,0.000
1737566958.125,-72.754,-15.137,0.000,-216.309,0.000
1737566958.128,-35.156,-33.691,16.113,-199.219,0.000
1737566958.132,44.434,-9.766,-3.906,-81.055,0.000
1737566958.136,22.949,15.137,-2.441,-31.738,0.000
1737566958.140,-12.207,-9.277,-2.930,-95.215,0.000
1737566958.144,-41.016,-43.457,-20.996,-183.105,0.000
1737566958.148,-10.254,-16.113,-9.277,-219.727,0.000
1737566958.152,26.367,-6.836,4.883,-109.863,0.000
1737566958.156,64.453,-11.719,-10.254,-24.414,0.000
1737566958.159,307.617,0.000,-20.996,-78.125,0.000
1737566958.163,504.395,-6.836,-18.066,-162.598,0.000
1737566958.168,661.621,-19.043,-24.902,-192.871,0.000
1737566958.171,877.441,-17.578,-7.324,-107.910,0.000
1737566958.175,967.773,13.184,-20.020,59.082,0.000
1737566958.179,967.773,15.625,-34.668,17.578,0.000
1737566958.183,968.262,-55.176,-13.184,-175.293,0.000
1737566958.187,970.703,-58.594,-44.434,-215.820,0.000
1737566958.191,970.215,-55.176,-31.738,-172.363,0.000
1737566958.195,969.238,-72.266,16.113,-88.867,0.000
1737566958.199,970.215,-83.008,-10.742,-107.422,0.000
1737566958.202,969.238,-34.668,-49.316,-194.336,0.000
1737566958.206,933.105,220.215,-24.902,-203.125,0.000
1737566958.210,910.156,450.195,0.488,-67.871,0.000
1737566958.215,0.000,526.855,0.000,0.000,0.000
1737566958.219,0.000,548.340,0.000,0.000,0.000
1737566958.222,0.000,559.570,0.000,0.000,0.000
1737566958.226,0.000,601.074,0.000,0.000,0.000
1737566958.230,0.000,624.023,0.000,0.000,0.000
1737566958.234,0.000,638.184,0.000,0.000,0.000
1737566958.238,0.000,658.691,0.000,0.000,0.000
1737566958.242,0.000,616.211,0.000,0.000,0.000
1737566958.246,0.000,537.109,0.000,0.000,0.000
1737566958.250,0.000,556.641,0.000,0.000,0.000
1737566958.253,0.000,603.516,0.000,0.000,0.000
1737566958.257,0.000,608.398,0.000,0.000,0.000
1737566958.262,284.668,576.172,-24.902,-56.152,0.000
1737566958.265,150.391,547.852,-43.945,-138.672,0.000
1737566958.269,201.172,524.902,-55.176,-187.500,0.000
1737566958.273,253.906,536.133,-11.230,-93.262,0.000
1737566958.277,249.512,534.180,-24.902,18.066,0.000
1737566958.281,227.051,504.395,-60.059,-43.457,0.000
1737566958.285,97.656,462.891,-22.461,-129.883,0.000
1737566958.289,-34.180,414.062,-21.973,-175.293,0.000
1737566958.293,14.648,426.758,-36.621,-64.941,0.000
1737566958.296,70.312,442.383,-49.316,41.504,0.000
1737566958.300,32.227,434.570,-56.641,-14.648,0.000
1737566958.304,-41.016,410.645,-30.273,-128.906,0.000
1737566958.308,-70.801,382.812,-10.742,-155.273,0.000
1737566958.312,5.859,405.273,-1.953,10.742,0.000
1737566958.316,77.637,435.547,-34.180,103.027,0.000
1737566958.320,-39.062,387.695,-58.105,-43.457,0.000
1737566958.324,-158.203,305.664,-55.664,-170.898,0.000
1737566958.328,-102.539,311.523,-66.895,-98.633,0.000
1737566958.332,-5.859,400.391,-41.992,51.758,0.000
1737566958.336,-35.156,386.719,-64.453,4.395,0.000
1737566958.339,-140.625,349.121,-76.172,-75.684,0.000
1737566958.343,-172.852,342.285,-38.086,-132.812,0.000
1737566958.347,-118.652,335.449,-38.086,-109.375,0.000
1737566958.351,-116.211,314.941,-59.082,-35.156,0.000
1737566958.355,-192.871,304.199,-58.105,-29.785,0.000
1737566958.359,-210.938,319.824,-30.762,-58.105,0.000
1737566958.363,-205.566,323.242,-32.715,-120.117,0.000
1737566958.367,-205.078,281.738,-38.086,-167.480,0.000
1737566958.371,-208.008,244.629,-26.367,-102.539,0.000
1737566958.375,-161.621,276.367,-28.809,-2.930,0.000
1737566958.379,-151.855,264.160,-49.316,2.441,0.000
1737566958.382,-217.285,219.238,-73.730,-84.961,0.000
1737566958.386,-233.887,226.562,-63.477,-148.926,0.000
1737566958.390,-215.820,247.070,-35.645,-62.012,0.000
1737566958.394,-178.223,263.184,-18.555,52.734,0.000
1737566958.398,-205.078,275.879,-30.273,-24.414,0.000
1737566958.402,-264.648,248.047,-62.500,-125.000,0.000
1737566958.406,-265.137,223.145,-62.988,-144.043,0.000
1737566958.410,-144.043,217.285,-34.668,-66.895,0.000
1737566958.414,-101.074,235.840,-38.086,107.422,0.000
1737566958.418,-241.699,217.773,-69.824,147.461,0.000
1737566958.422,-312.500,170.898,-69.336,24.902,0.000
1737566958.425,-283.203,135.254,-52.246,-35.645,0.000
1737566958.429,-181.152,121.094,-63.965,53.223,0.000
1737566958.433,-141.113,187.012,-79.590,177.734,0.000
1737566958.437,-152.832,196.289,-39.551,199.219,0.000
1737566958.441,-211.914,158.203,-30.762,85.938,0.000
1737566958.445,-314.941,138.184,-62.012,-33.691,0.000
1737566958.449,-289.062,160.156,-56.641,34.180,0.000
1737566958.453,-166.504,179.688,-52.246,122.070,0.000
1737566958.457,-191.895,131.836,-70.312,106.934,0.000
1737566958.461,-246.094,113.770,-75.684,52.246,0.000
1737566958.464,-253.418,112.793,-29.785,4.883,0.000
1737566958.468,-235.352,114.746,-9.277,15.625,0.000
1737566958.472,-182.617,112.305,-72.266,97.168,0.000
1737566958.476,-197.266,104.004,-84.473,124.512,0.000
1737566958.480,-260.742,96.191,-56.641,40.527,0.000
1737566958.484,-309.082,74.219,-59.082,-27.344,0.000
1737566958.488,-252.930,75.684,-63.965,-63.965,0.000
1737566958.492,-201.172,89.844,-52.734,13.184,0.000
1737566958.496,-195.801,114.746,-16.113,144.043,0.000
1737566958.500,-177.246,134.766,-26.855,162.109,0.000
1737566958.504,-199.707,110.352,-110.352,60.547,0.000
1737566958.507,-189.453,92.773,-80.566,-51.270,0.000
1737566958.511,-178.711,98.633,14.648,19.043,0.000
1737566958.515,-230.469,101.562,-2.930,105.469,0.000
1737566958.519,-295.898,89.844,-34.668,35.645,0.000
1737566958.523,-278.320,69.824,-56.641,-81.543,0.000
1737566958.527,-170.410,73.242,-60.059,-38.574,0.000
1737566958.531,-139.160,92.773,-19.043,35.156,0.000
1737566958.535,-137.695,102.539,-78.613,103.027,0.000
1737566958.538,-179.688,100.586,-98.633,111.816,0.000
1737566958.543,-292.969,76.172,-20.020,-86.914,0.000
1737566958.547,-269.043,68.848,-32.715,-186.523,0.000
1737566958.550,-167.969,100.098,-51.758,-44.922,0.000
1737566958.554,-137.207,83.984,-29.297,80.566,0.000
1737566958.558,-169.922,36.621,-0.488,39.551,0.000
1737566958.562,-217.773,51.270,5.859,-32.227,0.000
1737566958.566,-208.984,59.570,-28.320,-98.145,0.000
1737566958.570,-127.930,55.664,-41.992,-76.660,0.000
1737566958.574,-88.867,64.941,-26.367,43.945,0.000
1737566958.578,-160.645,53.711,-31.250,80.566,0.000
1737566958.581,-223.145,37.598,-57.129,-36.621,0.000
1737566958.585,-170.410,62.500,-37.109,-142.090,0.000
1737566958.590,-98.145,60.547,-4.883,-104.980,0.000
1737566958.593,-125.488,49.805,-8.301,58.105,0.000
1737566958.597,-115.234,78.613,1.465,105.957,0.000
1737566958.601,-174.316,15.625,-22.949,-71.777,0.000
1737566958.605,-264.648,-35.645,-45.410,-192.871,0.000
1737566958.609,-194.336,9.766,-7.812,-144.531,0.000
1737566958.613,-147.949,35.645,-2.441,-28.809,0.000
1737566958.617,-104.004,46.387,-17.090,7.812,0.000
1737566958.621,-136.719,30.273,-32.227,-79.590,0.000
1737566958.624,-242.676,7.324,-32.227,-184.082,0.000
1737566958.628,-181.152,24.902,-4.395,-131.348,0.000
1737566958.632,-86.914,28.320,-36.133,3.906,0.000
1737566958.636,-82.031,26.855,-57.129,30.273,0.000
1737566958.640,-142.578,4.883,-14.160,-46.387,0.000
1737566958.644,-191.406,-18.555,10.254,-146.973,0.000
1737566958.648,-230.957,-10.254,16.602,-138.672,0.000
1737566958.652,-194.824,5.859,5.859,-52.246,0.000
1737566958.656,-99.121,20.508,-24.902,-32.227,0.000
1737566958.660,-140.137,5.859,-33.691,-52.246,0.000
1737566958.664,-202.637,-11.230,-10.742,-135.254,0.000
1737566958.667,-218.750,-14.648,8.301,-171.387,0.000
1737566958.671,-149.414,-12.207,3.906,-67.383,0.000
1737566958.675,-104.980,-6.836,-6.348,20.020,0.000
1737566958.679,-163.086,-10.742,-8.789,-85.938,0.000
1737566958.683,-217.773,-9.766,-15.625,-241.211,0.000
1737566958.687,-208.496,-40.527,-25.391,-167.969,0.000
1737566958.691,-99.609,-23.926,-13.672,-3.418,0.000
1737566958.695,-92.285,4.883,-3.418,45.410,0.000
1737566958.699,-174.805,-39.062,-26.367,-47.363,0.000
1737566958.703,-141.602,-44.922,-23.926,-114.258,0.000
1737566958.707,-140.137,-41.016,-3.418,-109.863,0.000
1737566958.710,-192.383,-32.715,-0.488,-80.566,0.000
1737566958.714,-112.305,-17.578,-1.953,-25.391,0.000
1737566958.718,-101.074,-15.137,36.621,9.277,0.000
1737566958.722,-140.625,-51.758,35.645,-72.266,0.000
1737566958.726,-199.219,-85.449,-24.414,-179.199,0.000
1737566958.730,-270.508,-88.867,-51.270,-144.531,0.000
1737566958.734,-163.086,-64.453,-44.434,2.441,0.000
1737566958.738,-69.824,-47.363,-8.301,32.227,0.000
1737566958.742,-133.789,-55.664,-4.883,-128.418,0.000
1737566958.746,-195.312,-60.059,-26.855,-246.582,0.000
1737566958.750,-195.312,-48.828,-35.645,-163.574,0.000
1737566958.753,-137.207,-20.508,-15.625,-16.113,0.000
1737566958.757,-111.328,-32.227,-0.977,-8.301,0.000
1737566958.761,-145.020,-57.129,-17.578,-104.004,0.000
1737566958.765,-144.531,-33.691,5.371,-163.574,0.000
1737566958.769,-139.160,-32.715,22.949,-116.211,0.000
1737566958.773,-81.543,-41.504,-3.418,-41.016,0.000
1737566958.777,0.000,-14.648,-5.859,-3.418,0.000
1737566958.781,0.000,-19.043,12.695,-19.043,0.000
1737566958.785,0.000,-75.195,-6.348,-150.879,0.000
1737566958.789,0.000,-75.195,-31.250,-178.223,0.000
1737566958.793,0.000,-50.781,-38.086,-31.250,0.000
1737566958.796,0.000,-33.691,-0.977,25.879,0.000
1737566958.800,0.000,-25.391,17.578,-27.344,0.000
1737566958.804,0.000,-44.434,-24.902,-112.305,0.000
1737566958.808,0.000,-22.461,-14.160,-100.098,0.000
1737566958.812,0.000,-24.414,0.000,-14.160,0.000
1737566958.816,0.000,-41.504,-2.441,8.789,0.000
1737566958.820,0.000,-39.062,7.324,-41.504,0.000
1737566958.824,-40.039,-34.668,0.000,-107.422,0.000
1737566958.828,-77.637,-33.691,0.000,-135.254,0.000
1737566958.832,-161.621,-42.969,0.000,-58.105,0.000
1737566958.835,-157.715,-41.016,0.000,34.668,0.000
1737566958.839,-67.383,-28.320,0.000,83.496,0.000
1737566958.843,-19.043,-19.531,0.000,-19.531,0.000
1737566958.847,-60.059,-63.965,0.000,-171.387,0.000
1737566958.851,-118.164,-63.477,0.000,-52.734,0.000
1737566958.855,-67.383,-9.277,0.000,92.773,0.000
1737566958.859,-41.504,-7.812,0.000,51.758,0.000
1737566958.863,-62.500,-57.129,0.000,-62.012,0.000
1737566958.866,-72.754,-54.199,0.000,-70.801,0.000
1737566958.871,-2.930,-9.277,-43.457,63.965,0.000
1737566958.875,68.848,3.418,-40.039,140.137,0.000
1737566958.878,-0.977,-27.832,-3.418,35.645,0.000
1737566958.882,-54.688,-63.477,3.906,-109.375,0.000
1737566958.886,-47.852,-60.059,12.207,-118.164,0.000
1737566958.890,-15.625,-18.555,34.180,11.719,0.000
1737566958.894,-2.930,-25.391,-11.719,93.750,0.000
1737566958.898,-23.926,-34.668,-30.273,21.973,0.000
1737566958.902,-15.137,-32.715,-23.926,-77.148,0.000
1737566958.906,-65.918,-67.383,-28.809,-93.262,0.000
1737566958.909,24.414,-29.297,-1.953,20.996,0.000
1737566958.913,131.836,-6.348,14.160,74.707,0.000
1737566958.918,-31.250,-57.129,-7.324,0.000,0.000
1737566958.922,-114.258,-62.500,-17.578,-103.027,0.000
1737566958.925,-101.074,-37.598,-3.906,-162.109,0.000
1737566958.929,-74.219,-39.551,6.836,-63.477,0.000
1737566958.933,-23.438,-41.016,-6.836,23.438,0.000
1737566958.937,-12.695,-20.020,-25.879,35.645,0.000
1737566958.941,-69.336,-32.227,-26.367,-40.039,0.000
1737566958.945,-83.984,-53.711,-3.906,-170.898,0.000
1737566958.949,-7.812,-43.945,2.930,-142.090,0.000
1737566958.953,40.039,-26.367,-13.184,-41.992,0.000
1737566958.956,31.738,-26.367,-36.621,49.316,0.000
1737566958.960,-46.387,-33.691,-40.039,-4.395,0.000
1737566958.965,-101.074,-39.551,-30.273,-134.766,0.000
1737566958.968,-31.738,-36.133,-38.086,-99.121,0.000
1737566958.972,41.016,-25.391,-22.461,23.926,0.000
1737566958.976,17.090,-41.992,-23.926,-2.930,0.000
1737566958.980,-53.711,-63.965,-19.531,-101.074,0.000
1737566958.984,-63.477,-50.293,10.254,-134.766,0.000
1737566958.988,-53.711,-57.617,3.906,-89.844,0.000
1737566958.992,-21.484,-55.664,-20.508,-28.809,0.000
1737566958.996,53.223,1.465,-32.715,26.367,0.000
1737566958.999,-31.738,-24.414,-15.137,12.695,0.000
1737566959.003,-87.402,-70.312,12.695,-120.117,0.000
1737566959.007,-2.930,-64.453,27.832,-150.879,0.000
1737566959.011,15.137,-80.078,-0.488,4.395,0.000
1737566959.015,-7.324,-66.406,-19.043,90.332,0.000
1737566959.019,-5.371,-28.320,-41.016,38.574,0.000
1737566959.023,-19.531,-37.109,-56.641,-51.270,0.000
1737566959.027,-106.934,-64.453,-18.555,-142.578,0.000
1737566959.031,-58.105,-41.504,8.789,-43.945,0.000
1737566959.035,65.430,-13.184,19.043,99.121,0.000
1737566959.039,83.008,-30.273,0.977,-2.930,0.000
1737566959.042,5.859,-52.734,-28.809,-112.305,0.000
1737566959.046,-68.359,-62.988,-20.508,-88.379,0.000
1737566959.050,-26.367,-60.059,-5.371,-26.855,0.000
1737566959.054,28.320,-38.574,1.465,84.473,0.000
1737566959.058,17.090,-58.594,4.395,88.379,0.000
1737566959.062,-64.453,-67.871,-31.738,-23.926,0.000
1737566959.066,-110.840,-75.195,-79.590,-116.699,0.000
1737566959.070,-52.734,-79.102,-48.340,-76.172,0.000
1737566959.074,6.348,-47.852,-30.762,32.227,0.000
1737566959.078,13.672,-17.090,-18.066,26.367,0.000
1737566959.082,-41.504,-43.457,-1.953,-83.984,0.000
1737566959.085,-119.629,-69.336,-9.766,-126.465,0.000
1737566959.089,-73.730,-60.059,-5.859,-2.441,0.000
1737566959.093,22.461,-33.691,-10.742,81.055,0.000
1737566959.097,13.672,-43.457,-34.668,35.645,0.000
1737566959.101,-20.020,-81.055,-48.828,-25.391,0.000
1737566959.105,0.000,-83.984,0.000,0.000,0.000
1737566959.109,0.000,-55.176,0.000,0.000,0.000
1737566959.113,0.000,-40.039,0.000,0.000,0.000
1737566959.117,0.000,-46.387,0.000,0.000,0.000
1737566959.121,0.000,-40.039,0.000,0.000,0.000
1737566959.125,0.000,-57.129,0.000,0.000,0.000
1737566959.128,0.000,-78.613,0.000,0.000,0.000
1737566959.132,0.000,-71.777,0.000,0.000,0.000
1737566959.136,0.000,-66.895,0.000,0.000,0.000
1737566959.140,0.000,-76.660,0.000,0.000,0.000
1737566959.144,0.000,-75.684,0.000,0.000,0.000
1737566959.148,0.000,-69.336,0.000,0.000,0.000
1737566959.152,29.297,-36.133,-3.906,-159.180,0.000
1737566959.156,-6.348,-41.992,-9.277,-135.254,0.000
1737566959.160,-93.750,-87.402,-34.668,-260.254,0.000
1737566959.164,-133.301,-106.934,-47.852,-360.352,0.000
1737566959.168,-98.145,-103.027,-49.805,-357.910,0.000
1737566959.171,-28.809,-70.801,-17.578,-223.633,0.000
1737566959.175,-0.488,-70.801,-9.277,-137.695,0.000
1737566959.179,-69.824,-93.262,-5.371,-225.586,0.000
1737566959.183,-60.547,-80.566,16.602,-275.879,0.000
1737566959.187,-72.754,-88.867,-14.648,-275.391,0.000
1737566959.191,-60.547,-90.332,-41.016,-188.965,0.000
1737566959.195,-3.418,-76.172,-39.062,-82.031,0.000
1737566959.199,-54.688,-94.727,-55.664,-123.535,0.000
1737566959.203,-110.840,-109.863,-48.828,-230.957,0.000
1737566959.207,-65.430,-91.309,-19.043,-262.695,0.000
1737566959.211,-20.020,-74.219,-8.789,-155.273,0.000
1737566959.214,-2.441,-74.707,-11.719,-56.641,0.000
1737566959.218,11.719,-52.246,-1.465,-66.406,0.000
1737566959.222,-30.273,-80.566,-5.371,-128.906,0.000
1737566959.226,-75.684,-114.258,-19.531,-168.457,0.000
1737566959.230,-41.504,-109.863,-23.926,-129.395,0.000
1737566959.234,-40.039,-107.910,-35.156,-60.547,0.000
1737566959.238,-65.430,-90.332,-43.457,-42.480,0.000
1737566959.242,-56.152,-85.449,-38.086,-103.516,0.000
1737566959.246,-62.988,-107.422,-31.738,-181.641,0.000
1737566959.250,16.113,-97.168,-32.715,-111.328,0.000
1737566959.253,18.555,-75.195,-3.418,25.391,0.000
1737566959.257,-66.406,-107.422,21.973,11.719,0.000
1737566959.261,-97.656,-123.047,-10.742,-106.445,0.000
1737566959.265,-109.375,-123.535,-43.457,-174.316,0.000
1737566959.269,-104.492,-120.605,-62.500,-153.320,0.000
1737566959.273,-29.785,-100.098,-31.250,-37.109,0.000
1737566959.277,-1.465,-104.980,-3.418,-18.555,0.000
1737566959.281,-77.637,-118.164,-2.441,-62.012,0.000
1737566959.284,-136.230,-129.883,-6.836,-120.117,0.000
1737566959.288,-118.652,-147.461,-23.926,-113.770,0.000
1737566959.293,-25.879,-111.816,-20.508,53.223,0.000
1737566959.297,30.273,-76.660,-11.719,114.258,0.000
1737566959.300,-98.633,-122.070,-24.414,14.648,0.000
1737566959.304,-166.504,-149.414,-27.344,-91.797,0.000
1737566959.308,-116.211,-141.113,-44.434,-157.227,0.000
1737566959.312,-92.773,-98.145,-32.715,-11.230,0.000
1737566959.316,-49.316,-83.008,-21.973,92.285,0.000
1737566959.320,-81.543,-119.141,-58.105,7.324,0.000
1737566959.324,-140.137,-147.949,-57.129,-122.070,0.000
1737566959.328,-113.770,-156.250,-28.320,-99.121,0.000
1737566959.331,-6.348,-115.234,8.301,36.133,0.000
1737566959.335,9.766,-104.004,-14.648,88.379,0.000
1737566959.340,-60.547,-146.484,-51.758,51.758,0.000
1737566959.343,-125.488,-161.621,-41.016,-19.043,0.000
1737566959.347,-160.156,-142.578,-26.367,-99.121,0.000
1737566959.351,-32.715,-118.164,-13.672,-11.230,0.000
1737566959.355,20.020,-112.793,-20.020,122.559,0.000
1737566959.359,-96.680,-123.535,-45.898,35.645,0.000
1737566959.363,-121.094,-120.605,-39.551,-106.934,0.000
1737566959.367,-115.234,-138.672,-39.062,-120.117,0.000
1737566959.371,-83.008,-147.949,-51.758,-27.832,0.000
1737566959.374,-46.875,-131.348,-50.293,105.957,0.000
1737566959.378,-75.684,-132.324,-48.340,108.398,0.000
1737566959.382,-124.023,-147.461,-66.895,-62.500,0.000
1737566959.386,-154.785,-163.086,-61.035,-147.461,0.000
1737566959.390,-107.422,-154.785,-18.555,-62.500,0.000
1737566959.394,-29.785,-132.324,-7.812,66.406,0.000
1737566959.398,-21.484,-119.629,-19.531,83.496,0.000
1737566959.402,-67.383,-132.812,-31.738,3.418,0.000
1737566959.406,-96.191,-155.273,-50.781,-82.031,0.000
1737566959.410,-111.816,-147.949,-42.480,-30.273,0.000
1737566959.414,-89.355,-118.164,-62.988,101.074,0.000
1737566959.417,-74.219,-117.676,-50.781,100.586,0.000
1737566959.421,-116.699,-145.508,-9.277,-59.082,0.000
1737566959.425,-100.586,-172.852,-29.785,-166.016,0.000
1737566959.429,-30.273,-136.230,-45.898,-60.547,0.000
1737566959.433,-64.453,-108.887,-41.504,54.199,0.000
1737566959.437,-87.402,-129.395,-32.715,47.363,0.000
1737566959.441,-107.910,-131.836,-28.320,-31.250,0.000
1737566959.445,-154.785,-136.719,-52.246,-103.027,0.000
1737566959.449,-68.848,-127.930,-52.734,-51.270,0.000
1737566959.453,22.949,-110.352,-23.926,13.184,0.000
1737566959.457,-37.109,-135.742,-36.133,-3.906,0.000
1737566959.460,-132.812,-160.645,-38.086,-82.520,0.000
1737566959.464,-142.578,-164.551,-27.344,-121.582,0.000
1737566959.468,-88.867,-156.738,-33.691,-83.984,0.000
1737566959.472,-8.301,-123.047,-33.691,40.039,0.000
1737566959.476,-20.996,-113.281,-49.316,68.848,0.000
1737566959.480,-113.770,-127.930,-63.477,-71.289,0.000
1737566959.484,-85.938,-130.859,-54.199,-129.883,0.000
1737566959.488,-62.012,-143.555,-37.598,-59.082,0.000
1737566959.492,-48.828,-133.301,-32.715,28.809,0.000
1737566959.496,-30.273,-113.281,-43.457,48.828,0.000
1737566959.500,-77.148,-124.512,-46.875,-48.340,0.000
1737566959.503,-117.188,-139.648,-33.691,-136.719,0.000
1737566959.507,-112.793,-152.344,-26.855,-105.957,0.000
1737566959.511,-87.891,-158.691,-34.668,-40.039,0.000
1737566959.515,-70.801,-141.602,-36.621,9.766,0.000
1737566959.519,-128.418,-141.113,-32.715,-16.113,0.000
1737566959.523,-134.277,-141.113,-26.367,-146.973,0.000
1737566959.527,-96.680,-128.418,-21.484,-177.246,0.000
1737566959.531,-69.824,-126.953,-31.738,-17.578,0.000
1737566959.535,-62.500,-132.324,-61.035,34.180,0.000
1737566959.539,-110.840,-146.973,-58.105,-41.992,0.000
1737566959.543,-107.422,-150.879,-40.527,-129.883,0.000
1737566959.546,-131.348,-131.348,-29.785,-158.203,0.000
1737566959.550,-86.914,-140.625,-40.039,-77.148,0.000
1737566959.554,7.324,-157.227,-64.453,13.184,0.000
1737566959.558,-78.613,-127.930,-35.645,-29.297,0.000
1737566959.562,-167.480,-130.371,-28.809,-140.625,0.000
1737566959.566,-141.602,-161.133,-67.383,-209.961,0.000
1737566959.570,-119.629,-169.922,-69.824,-131.836,0.000
1737566959.574,0.000,-138.672,-63.965,-7.812,0.000
1737566959.578,0.000,-118.652,-54.199,-26.855,0.000
1737566959.582,0.000,-148.926,-35.645,-104.492,0.000
1737566959.586,0.000,-174.805,-41.504,-181.152,0.000
1737566959.589,0.000,-155.762,-41.016,-149.902,0.000
1737566959.593,0.000,-126.953,-57.129,-41.504,0.000
1737566959.597,0.000,-138.184,-73.730,-58.105,0.000
1737566959.601,0.000,-154.297,-45.410,-174.316,0.000
1737566959.605,0.000,-148.926,-16.602,-192.871,0.000
1737566959.609,0.000,-132.812,-17.578,-102.051,0.000
1737566959.613,0.000,-134.277,-47.363,7.324,0.000
1737566959.617,0.000,-158.691,-56.641,-1.465,0.000
1737566959.621,-149.902,-168.457,-52.734,-141.602,0.000
1737566959.625,-180.664,-171.875,-49.805,-235.352,0.000
1737566959.629,-174.316,-162.598,-65.918,-229.004,0.000
1737566959.632,-88.379,-138.184,-84.473,-80.566,0.000
1737566959.636,-72.266,-140.137,-98.145,-10.742,0.000
1737566959.640,-126.953,-151.367,-66.895,-75.684,0.000
1737566959.644,-142.090,-158.203,-31.250,-147.949,0.000
1737566959.648,-200.684,-174.316,-59.082,-204.590,0.000
1737566959.652,-196.777,-168.457,-75.195,-111.328,0.000
1737566959.656,-128.906,-154.785,-89.844,-38.574,0.000
1737566959.660,-179.199,-145.996,-87.402,-119.141,0.000
1737566959.663,-187.988,-157.227,-54.199,-202.637,0.000
1737566959.668,-157.227,-180.176,-63.965,-205.078,0.000
1737566959.671,-108.398,-166.504,-68.848,-108.398,0.000
1737566959.675,-100.098,-155.273,-61.523,8.301,0.000
1737566959.679,-148.926,-151.855,-65.918,-68.848,0.000
1737566959.683,-159.668,-142.090,-53.223,-210.938,0.000
1737566959.687,-168.945,-142.578,-70.312,-214.355,0.000
1737566959.691,-157.227,-155.273,-84.473,-152.832,0.000
1737566959.695,-117.676,-138.672,-56.641,-41.016,0.000
1737566959.699,-127.930,-130.859,-68.359,-75.684,0.000
1737566959.702,-204.102,-157.715,-91.309,-206.055,0.000
1737566959.706,-218.750,-158.691,-74.707,-187.012,0.000
1737566959.710,-112.305,-135.254,-50.293,-107.422,0.000
1737566959.715,-86.914,-134.766,-58.594,-41.504,0.000
1737566959.718,-114.746,-140.137,-81.543,-35.156,0.000
1737566959.722,-150.879,-146.484,-82.520,-145.020,0.000
1737566959.726,-208.496,-161.133,-73.730,-221.680,0.000
1737566959.730,-177.734,-157.227,-70.801,-155.762,0.000
1737566959.734,-108.398,-106.445,-58.105,-24.414,0.000
1737566959.738,-96.680,-107.910,-63.965,-26.855,0.000
1737566959.742,-175.293,-164.551,-81.543,-153.809,0.000
1737566959.746,-234.863,-175.781,-62.988,-173.828,0.000
1737566959.749,-145.996,-154.297,-47.363,-110.840,0.000
1737566959.753,-72.266,-137.207,-61.523,-46.875,0.000
1737566959.757,-91.797,-126.465,-65.430,-31.250,0.000
1737566959.761,-142.090,-133.789,-53.711,-122.070,0.000
1737566959.765,-178.711,-143.066,-46.387,-176.758,0.000
1737566959.769,-179.199,-149.414,-70.312,-99.609,0.000
1737566959.773,-138.184,-140.625,-80.078,5.371,0.000
1737566959.777,-139.160,-125.488,-57.617,-8.789,0.000
1737566959.781,-177.734,-130.371,-55.176,-119.141,0.000
1737566959.785,-176.758,-146.484,-60.059,-170.410,0.000
1737566959.789,-153.320,-150.391,-48.828,-150.391,0.000
1737566959.792,-114.746,-123.535,-48.340,-94.238,0.000
1737566959.796,-88.379,-108.887,-60.059,-27.832,0.000
1737566959.800,-175.293,-122.559,-70.312,-73.242,0.000
1737566959.804,-213.379,-128.418,-51.270,-152.344,0.000
1737566959.808,-137.207,-116.699,-1.465,-124.023,0.000
1737566959.812,-102.051,-112.305,-0.977,-11.230,0.000
1737566959.816,-84.961,-117.676,-31.738,15.137,0.000
1737566959.820,-122.070,-132.812,-46.875,-32.715,0.000
1737566959.824,-224.121,-140.137,-50.781,-111.328,0.000
1737566959.828,-198.730,-114.258,-54.199,-156.250,0.000
1737566959.832,-87.402,-95.703,-62.500,-77.148,0.000
1737566959.835,-101.562,-100.098,-40.039,2.441,0.000
1737566959.839,-161.621,-116.211,-13.184,-64.453,0.000
1737566959.843,-202.148,-138.672,-14.648,-154.297,0.000
1737566959.847,-181.641,-147.461,-49.316,-127.441,0.000
1737566959.851,-116.699,-136.230,-67.871,-71.289,0.000
1737566959.855,-138.184,-127.930,-43.945,-35.156,0.000
1737566959.859,-133.789,-129.883,-51.270,-78.613,0.000
1737566959.863,-172.363,-142.090,-68.848,-188.477,0.000
1737566959.867,-258.301,-152.832,-49.805,-218.750,0.000
1737566959.871,-178.711,-133.301,-45.410,-136.230,0.000
1737566959.875,-102.539,-96.680,-43.457,-21.484,0.000
1737566959.878,-128.906,-104.004,-38.086,-41.504,0.000
1737566959.882,-195.801,-141.113,-43.457,-128.418,0.000
1737566959.886,-201.172,-148.438,-41.504,-168.945,0.000
1737566959.890,-168.945,-136.230,-28.320,-127.930,0.000
1737566959.894,-104.980,-115.234,-8.301,-7.324,0.000
1737566959.898,-103.027,-104.492,-9.766,-29.297,0.000
1737566959.902,0.000,-119.141,0.000,0.000,0.000
1737566959.906,0.000,-143.066,0.000,0.000,0.000
1737566959.910,0.000,-147.461,0.000,0.000,0.000
1737566959.914,0.000,-126.465,0.000,0.000,0.000
1737566959.918,0.000,-116.211,0.000,0.000,0.000
1737566959.921,0.000,-114.746,0.000,0.000,0.000
1737566959.925,0.000,-140.137,0.000,0.000,0.000
1737566959.929,0.000,-158.203,0.000,0.000,0.000
1737566959.933,0.000,-138.672,0.000,0.000,0.000
1737566959.937,0.000,-136.719,0.000,0.000,0.000
1737566959.941,0.000,-121.094,0.000,0.000,0.000
1737566959.945,0.000,-111.816,0.000,0.000,0.000
1737566959.949,-195.801,-115.234,4.395,-165.527,0.000
1737566959.953,-177.734,-112.305,-19.531,-111.816,0.000
1737566959.957,-183.105,-117.676,-52.246,-86.426,0.000
1737566959.961,-191.895,-140.625,-47.363,-113.770,0.000
1737566959.964,-246.582,-169.434,-49.805,-201.172,0.000
1737566959.968,-252.441,-156.738,-51.758,-210.938,0.000
1737566959.972,-189.941,-130.859,-47.363,-100.586,0.000
1737566959.976,-166.992,-155.273,-70.312,-50.293,0.000
1737566959.980,-250.488,-170.898,-60.059,-133.789,0.000
1737566959.984,-252.441,-152.344,-42.969,-213.379,0.000
1737566959.988,-180.664,-147.461,-64.453,-178.223,0.000
1737566959.992,-175.293,-147.461,-80.078,-91.797,0.000
1737566959.996,-134.766,-134.766,-61.523,-52.734,0.000
1737566960.000,-202.148,-137.207,-49.316,-145.996,0.000
1737566960.003,-272.949,-164.551,-55.176,-223.145,0.000
1737566960.007,-247.559,-174.316,-42.969,-197.266,0.000
1737566960.011,-183.105,-146.484,-32.715,-85.938,0.000
1737566960.015,-119.629,-122.559,-37.109,-8.301,0.000
1737566960.019,-145.508,-138.184,-69.336,-94.238,0.000
1737566960.023,-241.699,-159.180,-73.242,-222.168,0.000
1737566960.027,-250.977,-160.645,-55.664,-244.629,0.000
1737566960.031,-154.785,-143.555,-51.758,-148.438,0.000
1737566960.034,-97.656,-139.648,-41.504,-56.641,0.000
1737566960.038,-141.113,-174.316,-51.270,-97.168,0.000
1737566960.043,-210.938,-182.617,-83.984,-188.965,0.000
1737566960.046,-186.035,-157.227,-80.078,-254.883,0.000
1737566960.050,-123.047,-139.648,-36.621,-142.578,0.000
1737566960.054,-93.262,-136.719,-24.902,6.836,0.000
1737566960.058,-129.883,-145.996,-43.457,-45.410,0.000
1737566960.062,-140.137,-153.809,-66.895,-172.363,0.000
1737566960.066,-161.621,-164.551,-67.871,-228.516,0.000
1737566960.070,-156.250,-174.805,-62.500,-184.570,0.000
1737566960.074,-114.746,-176.758,-63.477,-75.684,0.000
1737566960.078,-110.352,-172.852,-51.758,-55.664,0.000
1737566960.081,-138.184,-181.152,-59.082,-169.434,0.000
1737566960.085,-166.992,-190.430,-81.543,-223.633,0.000
1737566960.090,-143.066,-186.035,-86.914,-157.227,0.000
1737566960.093,-94.727,-167.480,-73.242,-99.121,0.000
1737566960.097,-81.543,-166.504,-64.941,-82.520,0.000
1737566960.101,-102.539,-192.383,-62.500,-125.000,0.000
1737566960.105,-145.020,-198.242,-59.082,-213.867,0.000
1737566960.109,-130.859,-169.434,-86.426,-200.195,0.000
1737566960.113,-91.309,-167.969,-89.355,-131.348,0.000
1737566960.117,-88.379,-175.781,-73.730,-100.098,0.000
1737566960.121,-73.730,-174.316,-94.727,-140.625,0.000
1737566960.124,-131.348,-176.270,-81.543,-201.660,0.000
1737566960.128,-175.781,-180.664,-74.707,-211.914,0.000
1737566960.132,-91.309,-175.781,-93.750,-137.695,0.000
1737566960.136,-31.738,-169.434,0.000,-80.566,0.000
1737566960.140,-83.984,-185.059,0.000,-140.137,0.000
1737566960.144,-135.254,-204.102,0.000,-236.816,0.000
1737566960.148,-87.402,-191.406,0.000,-210.449,0.000
1737566960.152,-46.875,-166.016,0.000,-95.703,0.000
1737566960.156,-26.367,-154.297,0.000,-40.527,0.000
1737566960.160,-92.285,-174.316,0.000,-96.191,0.000
1737566960.164,-140.137,-203.613,0.000,-213.379,0.000
1737566960.167,-82.520,-202.637,0.000,-242.676,0.000
1737566960.171,-34.180,-175.781,0.000,-110.840,0.000
1737566960.175,-31.250,-169.922,0.000,-25.391,0.000
1737566960.179,-52.734,-185.059,0.000,-82.520,0.000
1737566960.183,-72.754,-173.340,-83.008,-193.359,0.000
1737566960.187,-116.699,-170.410,-71.289,-225.586,0.000
1737566960.191,-83.008,-157.715,-61.035,-128.906,0.000
1737566960.195,-52.734,-146.973,-66.406,-31.738,0.000
1737566960.199,-112.305,-166.016,-82.520,-114.258,0.000
1737566960.203,-112.793,-174.805,-84.473,-225.098,0.000
1737566960.207,-104.492,-186.035,-89.355,-215.820,0.000
1737566960.210,-83.496,-188.477,-96.680,-127.930,0.000
1737566960.214,-5.371,-184.082,-80.078,-61.035,0.000
1737566960.218,-41.016,-181.641,-57.129,-93.750,0.000
1737566960.222,-84.961,-182.617,-62.988,-172.363,0.000
1737566960.226,-98.145,-191.406,-76.172,-225.586,0.000
1737566960.230,-71.289,-188.965,-80.566,-140.625,0.000
1737566960.234,-45.898,-177.734,-77.637,-33.691,0.000
1737566960.238,-110.352,-162.598,-84.961,-9.766,0.000
1737566960.242,-136.719,-166.504,-92.285,-108.398,0.000
1737566960.246,-75.195,-177.734,-86.426,-218.750,0.000
1737566960.250,-30.273,-168.945,-83.496,-171.875,0.000
1737566960.253,14.160,-175.293,-81.055,-69.824,0.000
1737566960.257,0.488,-196.289,-82.520,-63.477,0.000
1737566960.261,-88.867,-190.430,-72.754,-152.344,0.000
1737566960.265,-134.277,-185.059,-67.871,-229.492,0.000
1737566960.269,-90.332,-183.105,-73.730,-187.988,0.000
1737566960.273,-18.555,-170.898,-74.219,-34.668,0.000
1737566960.277,-3.418,-168.945,-75.684,-5.371,0.000
1737566960.281,-110.352,-193.848,-74.219,-147.949,0.000
1737566960.285,-134.277,-202.148,-62.988,-220.215,0.000
1737566960.289,-51.270,-194.824,-65.430,-181.152,0.000
1737566960.293,-42.969,-182.617,-83.496,-73.242,0.000
1737566960.296,-15.137,-167.480,-77.148,3.418,0.000
1737566960.300,1.465,-181.641,-84.473,-101.074,0.000
1737566960.304,-113.770,-201.660,-93.262,-196.777,0.000
1737566960.308,-181.641,-211.426,-42.969,-182.617,0.000
1737566960.312,-65.918,-215.332,-21.484,-90.820,0.000
1737566960.316,-16.113,-216.309,-36.621,-42.480,0.000
1737566960.320,-48.828,-216.309,-39.062,-136.230,0.000
1737566960.324,0.000,-218.262,-39.062,-187.500,0.000
1737566960.328,0.000,-214.844,-45.898,-170.410,0.000
1737566960.332,0.000,-186.035,-53.223,-77.637,0.000
1737566960.336,0.000,-166.504,-47.852,-32.227,0.000
1737566960.339,0.000,-187.988,-55.176,-113.770,0.000
1737566960.343,0.000,-193.848,-67.383,-192.871,0.000
1737566960.347,0.000,-182.617,-65.430,-197.754,0.000
1737566960.351,0.000,-175.781,-55.664,-95.215,0.000
1737566960.355,0.000,-164.551,-45.898,-13.184,0.000
1737566960.359,0.000,-174.316,-41.016,-77.148,0.000
1737566960.363,0.000,-177.734,-42.480,-193.359,0.000
1737566960.367,0.000,-159.668,-43.457,-208.496,0.000
1737566960.371,-55.664,-140.137,-49.316,-124.023,0.000
1737566960.375,-35.645,-127.930,-52.246,-36.133,0.000
1737566960.379,-28.809,-135.254,-45.410,-50.781,0.000
1737566960.382,-110.840,-144.043,-43.457,-167.969,0.000
1737566960.386,-115.234,-145.508,-54.199,-212.891,0.000
1737566960.390,-5.859,-134.277,-62.012,-120.605,0.000
1737566960.394,25.879,-121.582,-47.363,-24.902,0.000
1737566960.398,-23.438,-137.207,-48.340,-61.523,0.000
1737566960.402,-74.707,-159.180,-47.852,-190.918,0.000
1737566960.406,-83.496,-158.203,-38.086,-232.910,0.000
1737566960.410,-37.109,-128.906,-46.875,-138.184,0.000
1737566960.413,24.414,-109.375,-45.410,-41.504,0.000
1737566960.418,-2.441,-113.281,-33.691,-49.805,0.000
1737566960.422,-90.820,-113.770,-30.762,-113.281,0.000
1737566960.425,-89.355,-112.793,-31.738,-171.875,0.000
1737566960.429,-43.945,-125.977,-42.969,-148.438,0.000
1737566960.433,-49.316,-129.395,-55.176,-32.715,0.000
1737566960.437,-12.207,-102.539,-41.992,-3.906,0.000
1737566960.441,-23.438,-92.285,-35.156,-121.582,0.000
1737566960.445,-78.125,-104.980,-33.203,-238.770,0.000
1737566960.449,-71.777,-100.586,-31.738,-208.008,0.000
1737566960.453,-13.184,-90.332,-37.598,-51.270,0.000
1737566960.456,-27.832,-88.867,-41.016,-3.418,0.000
1737566960.460,-94.727,-107.910,-45.898,-122.070,0.000
1737566960.465,-107.422,-109.863,-60.547,-211.914,0.000
1737566960.468,-87.402,-91.309,-62.988,-163.574,0.000
1737566960.472,-26.367,-83.496,-49.316,-89.844,0.000
1737566960.476,23.926,-67.871,-48.340,-38.574,0.000
1737566960.480,-28.320,-80.566,-50.781,-111.816,0.000
1737566960.484,-95.215,-107.910,-37.598,-238.281,0.000
1737566960.488,-85.449,-109.863,-42.969,-210.938,0.000
1737566960.492,-13.184,-93.750,-62.012,-104.980,0.000
1737566960.496,-9.766,-77.148,-77.637,-54.199,0.000
1737566960.499,-54.688,-78.613,-73.242,-107.910,0.000
1737566960.503,-70.801,-92.285,-52.246,-210.938,0.000
1737566960.507,-112.793,-90.332,-43.457,-229.980,0.000
1737566960.511,-66.406,-72.754,-31.738,-89.844,0.000
1737566960.515,0.488,-68.359,-24.414,-14.648,0.000
1737566960.519,-37.598,-89.355,-27.344,-130.859,0.000
1737566960.523,-45.410,-86.426,-24.414,-238.281,0.000
1737566960.527,-41.016,-81.543,-29.785,-199.707,0.000
1737566960.531,-18.555,-69.336,-44.434,-53.711,0.000
1737566960.535,34.668,-54.688,-53.711,17.090,0.000
1737566960.539,-13.184,-78.613,-61.523,-102.051,0.000
1737566960.542,-79.102,-96.680,-57.129,-214.355,0.000
1737566960.546,-41.992,-87.402,-50.781,-204.590,0.000
1737566960.550,11.230,-68.848,-54.199,-99.609,0.000
1737566960.554,32.715,-52.734,-43.945,2.930,0.000
1737566960.558,34.180,-51.270,-32.715,-49.316,0.000
1737566960.562,9.277,-74.219,-40.527,-154.785,0.000
1737566960.566,-60.547,-90.820,-45.898,-185.059,0.000
1737566960.570,-32.715,-76.660,-43.945,-109.863,0.000
1737566960.574,62.500,-62.012,-39.551,-2.441,0.000
1737566960.578,45.410,-45.898,-39.551,-37.598,0.000
1737566960.582,-55.664,-53.223,-41.016,-175.781,0.000
1737566960.585,-64.941,-70.312,-39.551,-213.379,0.000
1737566960.589,-9.277,-57.617,-57.617,-141.602,0.000
1737566960.593,33.203,-35.156,-58.594,-34.180,0.000
1737566960.597,40.039,-27.344,-38.086,-13.672,0.000
1737566960.601,-25.879,-36.621,-32.227,-137.695,0.000
1737566960.605,-74.707,-55.176,-48.828,-226.562,0.000
1737566960.609,-44.922,-62.012,-59.570,-143.066,0.000
1737566960.613,30.762,-36.621,-48.340,-9.277,0.000
1737566960.617,26.367,-31.250,-45.898,-29.297,0.000
1737566960.621,-49.316,-47.363,-39.062,-129.883,0.000
1737566960.625,-67.383,-57.129,-14.160,-202.637,0.000
1737566960.628,-8.789,-49.805,-3.418,-173.340,0.000
1737566960.632,38.574,-38.574,-9.277,-34.668,0.000
1737566960.636,7.812,-31.250,-20.020,-9.277,0.000
1737566960.640,-62.988,-27.344,-28.320,-117.676,0.000
1737566960.644,-111.328,-40.039,-36.133,-194.824,0.000
1737566960.648,-80.078,-41.016,-34.180,-146.484,0.000
1737566960.652,0.000,-27.344,-22.949,-29.297,0.000
1737566960.656,0.000,-13.672,-17.090,-13.672,0.000
1737566960.660,0.000,-18.066,-15.625,-92.773,0.000
1737566960.664,0.000,-40.527,-17.090,-185.547,0.000
1737566960.668,0.000,-42.969,-18.555,-189.941,0.000
1737566960.671,0.000,-18.555,-22.949,-31.250,0.000
1737566960.675,0.000,-7.324,-46.875,39.062,0.000
1737566960.679,0.000,-37.598,-45.898,-85.938,0.000
1737566960.683,0.000,-57.129,-5.859,-198.242,0.000
1737566960.687,0.000,-43.457,5.371,-191.895,0.000
1737566960.691,0.000,-29.785,-1.953,-99.121,0.000
1737566960.695,0.000,-13.672,-6.836,-29.785,0.000
1737566960.699,28.809,0.977,-17.578,-85.938,0.000
1737566960.703,-109.863,-19.043,-38.086,-204.590,0.000
1737566960.707,-58.594,-23.926,-41.016,-226.074,0.000
1737566960.711,41.504,-9.277,-27.832,-94.727,0.000
1737566960.714,55.176,-1.953,-21.484,43.945,0.000
1737566960.718,-55.664,-9.766,-21.484,-31.250,0.000
1737566960.722,-47.852,-26.367,-28.320,-139.160,0.000
1737566960.726,10.254,-37.109,-32.715,-186.035,0.000
1737566960.730,12.207,-31.738,-29.297,-128.418,0.000
1737566960.734,51.758,-20.996,-25.391,-13.672,0.000
1737566960.738,0.488,-29.785,-19.531,-37.109,0.000
