timestamps,TP9,AF7,AF8,TP10,Right AUX
1737551633.816,3.418,-15.625,-5.859,312.012,0.000
1737551633.819,-20.508,-4.395,-5.371,351.562,0.000
1737551633.823,-35.645,-9.277,-4.395,63.477,0.000
1737551633.827,-13.184,-16.602,-0.488,-166.504,0.000
1737551633.831,5.371,-17.090,-8.301,-288.574,0.000
1737551633.835,13.184,-5.371,-8.789,389.160,0.000
1737551633.839,-15.137,-10.742,-2.930,377.441,0.000
1737551633.843,-30.273,-31.250,-4.883,14.648,0.000
1737551633.847,-22.949,-27.832,-4.883,-9.766,0.000
1737551633.851,-19.043,-23.438,-8.301,-333.496,0.000
1737551633.855,-18.066,-21.973,-6.348,69.336,0.000
1737551633.858,-4.883,-22.461,0.000,368.652,0.000
1737551633.862,-4.883,-27.344,-9.277,75.684,0.000
1737551633.866,-31.738,-22.461,-12.695,-98.145,0.000
1737551633.870,-63.965,-19.531,-10.742,-356.445,0.000
1737551633.874,-59.082,-20.508,-10.742,70.801,0.000
1737551633.878,-28.809,-16.113,-14.648,468.262,0.000
1737551633.882,-26.855,-10.742,-22.949,140.625,0.000
1737551633.886,-33.203,-26.367,-26.855,-166.504,0.000
1737551633.890,-35.645,-39.062,-16.602,-481.934,0.000
1737551633.894,-31.250,-30.762,-15.137,-47.363,0.000
1737551633.898,-20.996,-20.996,-15.137,417.480,0.000
1737551633.901,-31.250,-24.902,-13.672,81.543,0.000
1737551633.905,-32.715,-19.531,-20.020,-72.266,0.000
1737551633.909,-14.648,-22.461,-20.996,-380.371,0.000
1737551633.913,-5.371,-36.133,-18.066,-133.301,0.000
1737551633.917,-14.160,-16.113,-14.648,471.680,0.000
1737551633.921,-28.320,-9.766,-14.648,148.926,0.000
1737551633.925,-38.086,-5.859,-20.508,-89.355,0.000
1737551633.929,-32.227,-2.441,-20.996,-327.637,0.000
1737551633.933,-24.414,-10.742,-13.672,-243.164,0.000
1737551633.937,-13.184,-18.066,-14.648,344.238,0.000
1737551633.941,-2.930,-21.484,-20.020,210.449,0.000
1737551633.944,-20.020,-30.762,-10.742,-26.367,0.000
1737551633.948,-45.410,-20.020,-15.137,-268.555,0.000
1737551633.952,-50.293,-9.277,-24.414,-363.770,0.000
1737551633.956,-38.086,-17.578,-14.160,319.824,0.000
1737551633.960,-23.438,-18.066,-4.883,394.043,0.000
1737551633.964,-14.648,-14.648,-11.230,93.262,0.000
1737551633.968,-22.461,-15.137,-24.902,-243.164,0.000
1737551633.972,-36.621,-17.090,-31.250,-294.922,0.000
1737551633.976,-26.367,-6.348,-20.996,386.230,0.000
1737551633.980,-12.207,-14.160,-17.578,345.703,0.000
1737551633.983,-20.020,-27.344,-20.020,47.363,0.000
1737551633.987,-40.039,-13.672,-11.719,-195.801,0.000
1737551633.991,-51.270,-3.418,-6.836,-357.422,0.000
1737551633.995,-49.805,-3.906,-4.395,310.547,0.000
1737551633.999,-38.086,-13.672,-7.324,442.383,0.000
1737551634.003,-30.273,-17.090,-8.789,88.379,0.000
1737551634.007,-33.691,-22.949,-11.230,-102.051,0.000
1737551634.011,-33.203,-26.367,-8.789,-322.754,0.000
1737551634.015,-17.578,-14.648,-3.906,202.148,0.000
1737551634.019,-32.227,-18.555,-11.230,442.871,0.000
1737551634.023,-29.785,-21.973,-15.137,62.012,0.000
1737551634.026,-4.395,-14.648,-12.695,-121.094,0.000
1737551634.030,-28.809,-7.324,-13.184,-374.512,0.000
1737551634.034,-22.949,-11.719,-16.602,107.422,0.000
1737551634.038,-6.836,-19.531,-16.602,448.730,0.000
1737551634.042,-27.832,-14.160,-13.184,164.551,0.000
1737551634.046,-31.250,-15.137,-8.789,0.000,0.000
1737551634.050,-32.715,-15.625,-13.184,-321.777,0.000
1737551634.054,-22.461,-15.625,-21.484,41.992,0.000
1737551634.058,6.348,-13.672,-18.066,479.980,0.000
1737551634.062,-8.301,-18.555,-22.949,165.039,0.000
1737551634.066,-29.297,-25.879,-22.461,22.461,0.000
1737551634.069,-43.945,-17.578,-17.090,-241.699,0.000
1737551634.073,-53.711,-12.207,-13.184,-22.461,0.000
1737551634.077,-26.367,-7.812,-0.977,499.023,0.000
1737551634.081,-4.883,-9.277,-4.883,201.660,0.000
1737551634.085,-22.461,-15.625,-16.602,-51.758,0.000
1737551634.089,-26.855,-21.973,-17.578,-319.824,0.000
1737551634.093,-0.977,-19.043,-12.207,-76.172,0.000
1737551634.097,1.465,-13.672,-12.695,526.367,0.000
1737551634.101,-34.180,-20.996,-9.766,235.840,0.000
1737551634.105,-41.504,-13.672,-8.789,28.320,0.000
1737551634.108,-33.203,-0.488,-20.996,-283.691,0.000
1737551634.112,-31.738,-5.859,-14.160,-243.164,0.000
1737551634.116,-19.043,-10.742,-4.395,504.883,0.000
1737551634.120,-6.836,-11.719,-20.508,327.637,0.000
1737551634.124,-1.953,-12.695,-16.602,-42.969,0.000
1737551634.128,-16.602,-14.648,-13.672,-253.906,0.000
1737551634.132,-32.715,-26.367,-13.184,-264.160,0.000
1737551634.136,-40.527,-19.043,-12.695,377.930,0.000
1737551634.140,-37.598,-12.695,-23.926,315.430,0.000
1737551634.144,-35.645,-14.160,-25.391,26.367,0.000
1737551634.148,-39.551,-11.719,-25.879,-225.586,0.000
1737551634.151,-40.527,-7.324,-18.555,-292.480,0.000
1737551634.155,-27.832,-10.254,-17.090,309.570,0.000
1737551634.159,-25.879,-11.719,-15.625,386.719,0.000
1737551634.163,-32.227,-3.906,-12.207,116.699,0.000
1737551634.167,-14.648,-7.812,-27.832,-213.379,0.000
1737551634.171,-27.344,-21.973,-36.133,-426.758,0.000
1737551634.175,-34.180,-28.809,-28.320,257.812,0.000
1737551634.179,-30.762,-16.113,-21.973,452.637,0.000
1737551634.183,-36.133,-9.766,-4.395,92.773,0.000
1737551634.187,-28.320,-16.113,-1.465,-113.281,0.000
1737551634.191,-37.109,-9.277,-9.277,-395.508,0.000
1737551634.194,-35.156,-3.906,-7.812,164.551,0.000
1737551634.198,-23.926,-15.137,-9.766,437.012,0.000
1737551634.202,-19.043,-24.902,-14.160,108.398,0.000
1737551634.206,-15.137,-18.066,-14.160,-96.191,0.000
1737551634.210,-36.621,-6.836,-15.137,-393.555,0.000
1737551634.214,-42.969,-8.789,-19.043,16.113,0.000
1737551634.218,-22.949,-11.230,-27.344,398.926,0.000
1737551634.222,-3.906,-10.742,-17.578,145.020,0.000
1737551634.226,-11.230,-11.230,-5.859,-47.363,0.000
1737551634.230,-23.438,-14.648,-15.137,-362.793,0.000
1737551634.233,-25.391,-18.066,-12.207,-11.719,0.000
1737551634.237,-18.066,-30.762,-1.953,478.027,0.000
1737551634.241,-30.273,-33.203,-10.742,203.613,0.000
1737551634.245,-48.340,-16.602,-20.020,-50.293,0.000
1737551634.249,-48.828,-7.324,-22.949,-355.469,0.000
1737551634.253,-20.996,-8.789,-23.438,-145.996,0.000
1737551634.257,-7.812,-20.020,-20.020,438.965,0.000
1737551634.261,-38.086,-29.297,-19.531,219.727,0.000
1737551634.265,-39.551,-26.367,-19.531,-53.223,0.000
1737551634.269,-43.945,-19.043,-14.160,-319.824,0.000
1737551634.273,-36.621,-20.020,-18.066,-221.191,0.000
1737551634.276,-6.348,-24.414,-25.391,398.438,0.000
1737551634.280,-7.812,-24.414,-14.648,286.133,0.000
1737551634.284,-1.953,-20.020,-15.137,42.969,0.000
1737551634.288,6.836,-4.395,-20.020,-267.578,0.000
1737551634.292,-5.371,-4.883,-27.832,-307.617,0.000
1737551634.296,-25.391,-17.090,-32.227,383.301,0.000
1737551634.300,-33.203,-21.484,-20.996,310.059,0.000
1737551634.304,-24.414,-28.809,-20.996,12.207,0.000
1737551634.308,-25.879,-28.320,-34.180,-239.258,0.000
1737551634.312,-42.480,-24.414,-26.367,-362.793,0.000
1737551634.315,-30.273,-24.414,-15.137,297.363,0.000
1737551634.319,-11.719,-19.043,-21.484,288.086,0.000
1737551634.323,-22.461,-20.996,-27.832,-20.996,0.000
1737551634.327,-51.270,-23.926,-22.949,-173.828,0.000
1737551634.331,-59.570,-21.484,-16.113,-366.699,0.000
1737551634.335,-32.227,-11.719,-21.973,237.305,0.000
1737551634.339,-18.555,-14.648,-28.809,355.469,0.000
1737551634.343,-25.879,-22.461,-22.461,46.387,0.000
1737551634.347,-35.156,-26.367,-14.648,-154.297,0.000
1737551634.351,-34.180,-31.738,-13.672,-435.547,0.000
1737551634.355,-16.113,-19.043,-14.648,110.352,0.000
1737551634.358,-23.438,-16.113,-18.555,270.996,0.000
1737551634.362,-32.715,-18.066,-20.996,-64.941,0.000
1737551634.366,-17.090,-16.602,-19.531,-179.199,0.000
1737551634.370,-23.438,-14.648,-28.320,-509.277,0.000
1737551634.374,-41.992,-9.766,-27.344,4.883,0.000
1737551634.378,-34.668,-16.602,-15.625,429.199,0.000
1737551634.382,-24.414,-24.414,-15.625,50.781,0.000
1737551634.386,-16.113,-8.301,-24.414,-183.594,0.000
1737551634.390,-18.555,-5.859,-18.555,-422.852,0.000
1737551634.394,-20.996,-15.137,-9.766,-85.938,0.000
1737551634.398,2.930,-6.348,-7.324,404.297,0.000
1737551634.401,-6.836,0.488,-11.719,136.230,0.000
1737551634.405,-23.438,-5.859,-13.672,-171.387,0.000
1737551634.409,-14.648,-12.695,-16.113,-521.973,0.000
1737551634.413,-5.371,-6.348,-28.809,-174.316,0.000
1737551634.417,6.348,-5.859,-24.902,467.285,0.000
1737551634.421,5.371,-9.766,-6.836,175.293,0.000
1737551634.425,8.789,-2.930,-6.348,-119.629,0.000
1737551634.429,-3.906,-14.648,-11.230,-503.418,0.000
1737551634.433,-17.090,-30.273,-12.207,-316.895,0.000
1737551634.437,-25.879,-23.926,-15.137,370.605,0.000
1737551634.440,-49.316,-18.555,-20.020,106.445,0.000
1737551634.444,-35.156,-17.578,-17.578,-64.453,0.000
1737551634.448,-18.555,-16.113,-13.672,-309.570,0.000
1737551634.452,-27.344,-25.879,-17.578,-410.645,0.000
1737551634.456,-8.301,-21.973,-12.695,235.352,0.000
1737551634.460,-18.555,-14.648,-24.902,157.227,0.000
1737551634.464,-25.879,-17.578,-32.715,-153.809,0.000
1737551634.468,-18.066,-8.789,-14.648,-348.145,0.000
1737551634.472,-18.066,-7.812,-7.812,-382.812,0.000
1737551634.476,-7.812,-10.742,-3.418,236.328,0.000
1737551634.480,-21.484,-11.719,-2.441,218.262,0.000
1737551634.483,-34.180,-21.484,-11.230,-160.156,0.000
1737551634.487,-25.879,-27.832,-6.836,-372.070,0.000
1737551634.491,-16.602,-20.020,-4.883,-501.465,0.000
1737551634.495,-11.719,-14.648,-10.254,150.391,0.000
1737551634.499,-13.672,-15.625,-11.719,306.152,0.000
1737551634.503,-12.207,-11.230,-15.625,21.973,0.000
1737551634.507,-19.043,-15.625,-20.020,-148.438,0.000
1737551634.511,-17.578,-25.879,-21.973,-299.805,0.000
1737551634.515,-5.371,-22.949,-11.719,368.652,0.000
1737551634.519,9.277,-12.207,-1.465,569.336,0.000
1737551634.523,0.488,-18.555,-2.930,225.098,0.000
1737551634.526,-26.855,-27.344,-13.184,126.953,0.000
1737551634.530,-35.645,-16.602,-19.531,-95.215,0.000
1737551634.534,-51.270,-6.348,-11.230,422.363,0.000
1737551634.538,-51.758,-3.418,-10.742,751.953,0.000
1737551634.542,-43.457,-12.695,-9.277,379.883,0.000
1737551634.546,-32.715,-16.113,-11.230,154.297,0.000
1737551634.550,-44.434,-16.113,-11.230,-199.219,0.000
1737551634.554,-40.527,-15.137,-5.859,287.109,0.000
1737551634.558,-17.578,-20.020,-8.301,718.750,0.000
1737551634.562,-17.578,-28.320,-7.324,353.027,0.000
1737551634.565,-37.598,-18.555,-10.742,186.035,0.000
1737551634.569,-46.387,-18.555,-14.648,-128.418,0.000
1737551634.573,-37.598,-25.391,-12.207,174.316,0.000
1737551634.577,-18.555,-21.973,-12.207,654.297,0.000
1737551634.581,-22.461,-11.230,-19.043,427.734,0.000
1737551634.585,-39.551,-13.672,-8.301,246.094,0.000
1737551634.589,-41.016,-25.879,-12.207,-98.633,0.000
1737551634.593,-40.527,-19.531,-21.973,133.789,0.000
1737551634.597,-36.621,-9.766,-12.695,684.082,0.000
1737551634.601,-32.227,-18.555,-11.719,471.191,0.000
1737551634.605,-36.621,-20.020,-15.137,276.855,0.000
1737551634.608,-33.691,-13.184,-19.531,-64.453,0.000
1737551634.612,-13.672,-13.184,-17.090,85.449,0.000
1737551634.616,-2.441,-15.137,-10.254,718.750,0.000
1737551634.620,-21.973,-12.207,-11.719,557.617,0.000
1737551634.624,-34.668,-15.625,-10.254,290.039,0.000
1737551634.628,-23.438,-25.391,-6.836,-59.082,0.000
1737551634.632,-7.324,-20.996,-5.371,0.488,0.000
1737551634.636,-10.254,-26.367,-5.371,670.898,0.000
1737551634.640,-18.066,-32.227,-4.395,534.668,0.000
1737551634.644,-12.207,-21.973,-7.812,227.539,0.000
1737551634.647,-9.277,-19.531,-21.973,-56.152,0.000
1737551634.651,-11.230,-21.484,-22.461,-162.109,0.000
1737551634.655,-3.418,-20.996,-16.602,443.848,0.000
1737551634.659,13.184,-19.531,-15.625,528.320,0.000
1737551634.663,5.371,-21.973,-24.902,204.590,0.000
1737551634.667,2.930,-21.484,-37.598,-70.312,0.000
1737551634.671,-14.160,-25.391,-17.090,-196.777,0.000
1737551634.675,-17.578,-36.621,3.418,401.367,0.000
1737551634.679,-16.113,-21.484,-1.953,595.215,0.000
1737551634.683,-46.875,-4.395,-4.883,246.094,0.000
1737551634.687,-47.852,-11.230,-5.371,-0.488,0.000
1737551634.690,-48.340,-16.602,-15.625,-230.957,0.000
1737551634.694,-12.695,-5.859,-24.414,334.473,0.000
1737551634.698,2.930,-0.977,-13.672,606.445,0.000
1737551634.702,-35.645,-14.648,-9.766,236.816,0.000
1737551634.706,-49.316,-18.555,-10.742,138.184,0.000
1737551634.710,-39.551,-20.508,-11.230,-183.594,0.000
1737551634.714,-31.250,-28.320,-13.672,225.098,0.000
1737551634.718,-15.625,-31.250,-3.418,668.945,0.000
1737551634.722,-7.324,-33.691,1.953,284.668,0.000
1737551634.726,-33.203,-38.086,7.812,104.980,0.000
1737551634.730,-53.223,-48.340,-1.953,-169.434,0.000
1737551634.733,-47.852,-43.457,-15.625,88.867,0.000
1737551634.737,-26.367,-28.320,-17.090,642.578,0.000
1737551634.741,-17.578,-43.457,-21.484,411.133,0.000
1737551634.745,-27.344,-45.898,-15.625,137.207,0.000
1737551634.749,-30.762,-25.879,-19.043,-200.684,0.000
1737551634.753,-19.043,-24.902,-16.113,145.020,0.000
1737551634.757,-7.324,-18.555,3.418,708.496,0.000
1737551634.761,-17.090,-9.766,2.930,443.359,0.000
1737551634.765,-56.641,-23.438,-2.441,189.453,0.000
1737551634.769,-54.199,-40.039,-5.859,-250.977,0.000
1737551634.772,-24.902,-28.320,-11.719,7.812,0.000
1737551634.776,-6.348,-19.531,-7.324,651.855,0.000
1737551634.780,-14.160,-33.203,-2.441,379.395,0.000
1737551634.784,-23.438,-37.598,-4.883,188.965,0.000
1737551634.788,-20.020,-31.738,-11.719,-139.648,0.000
1737551634.792,-34.668,-25.879,-9.766,-91.797,0.000
1737551634.796,-32.227,-25.391,-1.465,572.754,0.000
1737551634.800,-21.973,-27.832,-3.418,467.285,0.000
1737551634.804,-14.648,-24.902,-8.789,167.969,0.000
1737551634.808,-24.902,-27.344,-17.578,-149.414,0.000
1737551634.812,-41.504,-27.344,-15.137,-159.668,0.000
1737551634.815,-20.020,-14.648,-12.207,592.285,0.000
1737551634.819,-4.883,-12.695,-12.695,626.953,0.000
1737551634.823,0.000,-16.602,-14.160,228.027,0.000
1737551634.827,-0.977,-23.438,-16.602,-141.113,0.000
1737551634.831,-12.207,-43.457,-20.508,-389.160,0.000
1737551634.835,-12.207,-34.180,-20.020,259.766,0.000
1737551634.839,-18.555,-13.184,-13.672,464.355,0.000
1737551634.843,-20.996,-21.973,-13.672,126.465,0.000
1737551634.847,-31.250,-22.949,-22.949,-127.930,0.000
1737551634.851,-36.133,-20.996,-35.156,-354.980,0.000
1737551634.855,-0.488,-12.207,-34.668,252.441,0.000
1737551634.858,5.859,-12.207,-26.367,404.785,0.000
1737551634.862,-8.301,-25.879,-21.973,39.551,0.000
1737551634.866,-13.184,-17.090,-14.160,-134.277,0.000
1737551634.870,-29.297,-11.230,-14.648,-434.570,0.000
1737551634.874,-33.203,-20.996,-21.484,54.199,0.000
1737551634.878,-29.297,-21.973,-20.508,397.949,0.000
1737551634.882,-25.879,-26.367,-20.996,49.316,0.000
1737551634.886,-24.414,-26.367,-20.996,-167.480,0.000
1737551634.890,-35.156,-15.625,-23.926,-467.285,0.000
1737551634.894,-16.113,-8.789,-30.273,-83.496,0.000
1737551634.897,-10.742,-16.113,-24.902,324.219,0.000
1737551634.901,-41.504,-24.414,-1.465,27.832,0.000
1737551634.905,-41.016,-18.555,-2.441,-190.430,0.000
1737551634.909,-43.457,-24.414,-12.207,-509.277,0.000
1737551634.913,-40.039,-27.832,-14.160,-127.930,0.000
1737551634.917,-16.602,-11.719,-12.207,363.281,0.000
1737551634.921,-25.879,-11.230,-8.301,35.156,0.000
1737551634.925,-21.484,-23.926,-11.719,-161.133,0.000
1737551634.929,-29.297,-27.344,-16.113,-480.469,0.000
1737551634.933,-41.504,-17.090,-19.043,-240.723,0.000
1737551634.937,-25.391,-10.254,-12.207,406.250,0.000
1737551634.940,-21.484,-16.602,-10.742,112.793,0.000
1737551634.944,-20.508,-15.137,-15.137,-142.578,0.000
1737551634.948,-22.461,-15.625,-12.695,-421.875,0.000
1737551634.952,-16.602,-20.996,-14.648,-332.520,0.000
1737551634.956,5.859,-15.625,-11.230,338.379,0.000
1737551634.960,2.930,-4.883,-13.184,205.078,0.000
1737551634.964,-0.488,1.465,-17.090,-73.730,0.000
1737551634.968,6.836,-1.953,-20.020,-479.004,0.000
1737551634.972,-2.930,-17.578,-21.973,-472.656,0.000
1737551634.976,-21.484,-20.508,-16.113,243.164,0.000
1737551634.980,-29.785,-20.508,-9.277,166.992,0.000
1737551634.983,-28.809,-18.555,-2.441,-123.047,0.000
1737551634.987,-45.898,-9.277,-7.812,-373.535,0.000
1737551634.991,-48.340,-12.207,-22.949,-477.539,0.000
1737551634.995,-27.832,-16.113,-21.484,208.496,0.000
1737551634.999,-25.391,-17.090,-8.301,204.590,0.000
1737551635.003,-41.504,-11.719,-15.137,-165.039,0.000
1737551635.007,-41.504,-12.695,-26.367,-280.273,0.000
1737551635.011,-29.297,-31.738,-24.414,-511.230,0.000
1737551635.015,-26.855,-20.020,-21.973,29.297,0.000
1737551635.019,-35.156,1.465,-18.555,242.676,0.000
1737551635.022,-29.297,-10.254,-16.602,-96.680,0.000
1737551635.026,-24.414,-13.184,-15.625,-272.949,0.000
1737551635.030,-17.578,-7.324,-18.066,-489.258,0.000
1737551635.034,-11.230,-15.137,-20.996,-4.395,0.000
1737551635.038,-16.602,-26.855,-17.578,260.254,0.000
1737551635.042,-16.602,-19.531,-25.391,48.340,0.000
1737551635.046,-19.531,-17.578,-28.809,-203.125,0.000
1737551635.050,-40.039,-18.066,-24.414,-610.352,0.000
1737551635.054,-32.715,-10.254,-19.043,-77.148,0.000
1737551635.058,-18.555,-22.461,-12.207,290.039,0.000
1737551635.062,-23.438,-26.855,-16.113,-128.418,0.000
1737551635.065,-29.297,-24.414,-14.648,-261.230,0.000
1737551635.069,-30.273,-26.855,-9.766,-532.227,0.000
1737551635.073,-38.574,-28.809,-10.742,-164.062,0.000
1737551635.077,-34.668,-23.438,-10.742,264.648,0.000
1737551635.081,-24.414,-18.555,-14.160,-36.133,0.000
1737551635.085,-27.344,-12.695,-16.113,-195.801,0.000
1737551635.089,-36.621,-8.789,-12.207,-573.242,0.000
1737551635.093,-26.855,-7.324,-17.090,-316.406,0.000
1737551635.097,-9.766,-11.230,-16.602,342.285,0.000
1737551635.101,-12.207,-11.719,1.953,132.812,0.000
1737551635.104,-13.184,-21.484,-1.465,-237.793,0.000
1737551635.108,-24.414,-35.156,-15.137,-600.098,0.000
1737551635.112,-21.973,-23.926,-12.207,-376.465,0.000
1737551635.116,3.418,-9.766,-17.090,257.324,0.000
1737551635.120,6.348,-11.230,-21.484,68.359,0.000
1737551635.124,-0.977,-9.766,-17.578,-154.297,0.000
1737551635.128,-17.578,-12.207,-19.531,-425.293,0.000
1737551635.132,-25.391,-15.625,-21.484,-388.184,0.000
1737551635.136,-10.254,-16.113,-16.113,279.297,0.000
1737551635.140,-4.395,-21.484,-16.602,145.996,0.000
1737551635.144,-20.996,-16.113,-15.137,-149.902,0.000
1737551635.147,-32.227,-8.789,-10.742,-358.887,0.000
1737551635.151,-24.414,-19.531,-13.672,-463.379,0.000
1737551635.155,-16.113,-25.879,-14.648,155.273,0.000
1737551635.159,-22.949,-16.113,-18.066,223.145,0.000
1737551635.163,-35.156,-6.836,-21.973,-68.848,0.000
1737551635.167,-39.062,-10.254,-18.555,-291.992,0.000
1737551635.171,-49.805,-20.996,-19.043,-489.746,0.000
1737551635.175,-41.016,-25.391,-18.555,158.691,0.000
1737551635.179,-34.668,-19.043,-20.508,297.852,0.000
1737551635.183,-31.738,-20.996,-30.273,-52.734,0.000
1737551635.187,-42.480,-33.203,-27.832,-267.578,0.000
1737551635.190,-62.012,-28.320,-24.414,-528.809,0.000
1737551635.194,-66.406,-19.043,-30.762,43.945,0.000
1737551635.198,-46.875,-30.762,-29.297,340.332,0.000
1737551635.202,-40.039,-35.156,-26.855,-52.734,0.000
1737551635.206,-32.715,-35.645,-31.250,-313.965,0.000
1737551635.210,-49.316,-39.551,-26.855,-555.176,0.000
1737551635.214,-56.152,-31.738,-20.996,1.465,0.000
1737551635.218,-33.691,-27.344,-20.508,367.676,0.000
1737551635.222,-33.203,-25.879,-21.973,22.461,0.000
1737551635.226,-41.016,-30.762,-19.043,-190.918,0.000
1737551635.229,-49.805,-31.738,-9.766,-462.402,0.000
1737551635.233,-26.367,-21.484,-8.789,-97.168,0.000
1737551635.237,-8.789,-19.043,-18.066,305.664,0.000
1737551635.241,-6.836,-14.160,-16.113,88.867,0.000
1737551635.245,0.977,-19.531,-11.230,-152.344,0.000
1737551635.249,-27.832,-21.484,-22.949,-618.164,0.000
1737551635.253,-36.621,-14.648,-22.949,-220.215,0.000
1737551635.257,-17.578,-19.531,-14.648,409.180,0.000
1737551635.261,-15.137,-13.672,-14.160,41.992,0.000
1737551635.265,2.930,-8.301,-10.254,-213.379,0.000
1737551635.269,2.930,-13.672,-10.254,-538.086,0.000
1737551635.272,-14.648,-21.484,-13.672,-336.914,0.000
1737551635.276,-16.113,-20.508,-4.395,357.910,0.000
1737551635.280,-33.691,-20.020,-4.883,214.355,0.000
1737551635.284,-37.598,-23.926,-21.484,-136.230,0.000
1737551635.288,-35.156,-21.973,-26.855,-428.223,0.000
1737551635.292,-38.574,-15.625,-18.066,-272.949,0.000
1737551635.296,-19.531,-12.695,-14.648,372.559,0.000
1737551635.300,-12.207,-21.484,-20.020,233.887,0.000
1737551635.304,-6.348,-24.414,-18.555,-22.949,0.000
1737551635.308,-6.836,-13.184,-14.648,-305.664,0.000
1737551635.312,-22.949,-8.301,-18.555,-361.816,0.000
1737551635.315,-6.836,-5.371,-11.230,332.031,0.000
1737551635.319,3.418,-7.324,-9.277,277.832,0.000
1737551635.323,-5.371,-8.301,-15.625,-60.059,0.000
1737551635.327,3.906,-16.602,-21.973,-264.160,0.000
1737551635.331,6.836,-16.113,-17.578,-357.422,0.000
1737551635.335,-9.766,-2.441,-8.789,311.035,0.000
1737551635.339,-22.949,-6.836,-16.113,377.441,0.000
1737551635.343,-34.180,-14.160,-23.926,-14.648,0.000
1737551635.347,-28.809,-17.578,-18.066,-234.863,0.000
1737551635.351,-21.484,-11.230,-20.020,-375.488,0.000
1737551635.354,-15.625,-7.324,-20.996,211.426,0.000
1737551635.358,-29.297,-17.090,-14.160,373.535,0.000
1737551635.362,-44.922,-15.625,-18.066,51.270,0.000
1737551635.366,-39.551,-11.230,-19.531,-141.602,0.000
1737551635.370,-43.457,-14.160,-15.137,-382.324,0.000
1737551635.374,-41.992,-5.859,-11.719,111.816,0.000
1737551635.378,-23.438,6.836,-7.812,491.211,0.000
1737551635.382,1.465,1.465,-1.953,298.340,0.000
1737551635.386,-12.695,-28.320,-7.812,-50.293,0.000
1737551635.390,-37.109,-42.480,-6.836,-374.023,0.000
1737551635.394,-26.855,-25.879,-2.441,203.613,0.000
1737551635.397,-16.113,-14.648,-18.066,577.637,0.000
1737551635.401,-12.207,-16.113,-15.137,233.398,0.000
1737551635.405,-17.578,-12.695,-7.812,46.387,0.000
1737551635.409,-44.434,-12.695,-15.625,-354.004,0.000
1737551635.413,-37.109,-10.742,-18.555,11.719,0.000
1737551635.417,-26.855,-9.277,-16.602,585.449,0.000
1737551635.421,-25.391,-14.160,-15.137,244.629,0.000
1737551635.425,-12.207,-21.973,-10.254,-33.203,0.000
1737551635.429,-22.461,-26.367,-12.695,-291.016,0.000
1737551635.433,-24.414,-16.113,-13.184,-63.477,0.000
1737551635.436,7.324,-12.207,-4.395,432.617,0.000
1737551635.440,6.348,-18.066,-0.977,200.195,0.000
1737551635.444,-2.441,-20.020,-1.953,-39.062,0.000
1737551635.448,-5.371,-12.695,-15.625,-301.758,0.000
1737551635.452,0.488,-2.930,-20.996,-105.469,0.000
1737551635.456,-3.418,-7.812,-21.973,443.359,0.000
1737551635.460,-18.066,-13.184,-23.926,261.719,0.000
1737551635.464,-28.320,-6.836,-12.207,55.664,0.000
1737551635.468,-37.598,-10.742,-8.789,-309.570,0.000
1737551635.472,-31.738,-21.484,-15.625,-262.695,0.000
1737551635.476,-5.371,-16.113,-15.625,480.957,0.000
1737551635.479,-9.766,-15.137,-14.160,324.707,0.000
1737551635.483,-2.441,-16.602,-17.578,-58.105,0.000
1737551635.487,-4.395,-10.254,-16.113,-251.465,0.000
1737551635.491,-15.137,-11.230,-17.090,-282.715,0.000
1737551635.495,-5.371,-7.324,-24.902,401.367,0.000
1737551635.499,1.465,-10.254,-30.762,431.641,0.000
1737551635.503,5.371,-13.184,-24.414,66.895,0.000
1737551635.507,-15.625,-19.043,-19.531,-176.270,0.000
1737551635.511,-40.527,-21.484,-29.785,-332.520,0.000
1737551635.515,-28.809,-6.348,-22.949,266.113,0.000
1737551635.519,-22.949,-12.695,-17.090,420.898,0.000
1737551635.522,-28.809,-22.949,-21.973,166.504,0.000
1737551635.526,-26.367,-19.043,-23.438,-116.699,0.000
1737551635.530,-33.203,-19.531,-22.949,-432.129,0.000
1737551635.534,-15.625,-15.137,-14.160,198.730,0.000
1737551635.538,-1.953,-20.020,-16.602,485.840,0.000
1737551635.542,-18.066,-29.297,-18.066,136.230,0.000
1737551635.546,-20.508,-34.668,-13.184,-124.512,0.000
1737551635.550,-5.859,-27.344,-20.508,-355.469,0.000
1737551635.554,12.207,-15.625,-9.766,189.941,0.000
1737551635.558,0.488,-13.672,-0.977,486.328,0.000
1737551635.561,-42.969,-19.531,-4.883,127.441,0.000
1737551635.565,-48.340,-31.250,-4.395,-7.812,0.000
1737551635.569,-42.969,-19.043,-11.230,-270.508,0.000
1737551635.573,-37.598,-2.441,-7.812,69.824,0.000
1737551635.577,-16.602,-15.625,-5.371,478.516,0.000
1737551635.581,-24.902,-35.156,-22.461,183.594,0.000
1737551635.585,-23.926,-41.016,-14.160,8.301,0.000
1737551635.589,-12.695,-29.785,-5.371,-302.246,0.000
1737551635.593,-3.906,-15.137,-12.207,-17.090,0.000
1737551635.597,-2.441,-8.789,1.953,555.176,0.000
1737551635.601,-23.438,-13.672,-1.465,262.695,0.000
1737551635.604,-34.180,-18.555,-8.301,33.203,0.000
1737551635.608,-48.828,-27.344,-6.836,-240.723,0.000
1737551635.612,-62.012,-32.715,-8.789,-91.797,0.000
1737551635.616,-41.992,-32.227,-3.906,537.109,0.000
1737551635.620,-57.129,-40.527,-2.930,342.773,0.000
1737551635.624,-46.875,-36.133,-1.953,30.273,0.000
1737551635.628,-17.578,-30.273,-4.883,-314.453,0.000
1737551635.632,-32.715,-29.785,-7.812,-257.324,0.000
1737551635.636,-45.410,-26.855,5.859,411.621,0.000
1737551635.640,-47.852,-22.461,1.465,350.586,0.000
1737551635.644,-48.828,-22.461,-12.207,61.035,0.000
1737551635.647,-61.035,-32.227,-13.184,-218.262,0.000
1737551635.651,-69.336,-31.738,-12.695,-222.168,0.000
1737551635.655,-63.965,-17.578,-13.184,438.965,0.000
1737551635.659,-66.895,-15.625,-18.555,341.797,0.000
1737551635.663,-46.387,-20.996,-4.395,85.449,0.000
1737551635.667,-41.504,-29.297,-3.418,-150.391,0.000
1737551635.671,-52.246,-42.969,-17.578,-343.262,0.000
1737551635.675,-27.344,-26.367,-14.648,378.906,0.000
1737551635.679,-14.160,-13.672,-13.184,447.266,0.000
1737551635.683,-22.461,-19.043,-12.207,83.008,0.000
1737551635.686,-22.949,-15.137,-13.672,-112.305,0.000
1737551635.690,-25.391,-10.254,-24.902,-365.234,0.000
1737551635.694,-11.719,-7.324,-20.508,249.023,0.000
1737551635.698,-9.766,-14.160,-10.742,486.328,0.000
1737551635.702,-34.180,-19.531,-16.602,128.906,0.000
1737551635.706,-42.480,-21.484,-13.184,-31.250,0.000
1737551635.710,-24.902,-21.973,-11.719,-259.766,0.000
1737551635.714,-9.277,-25.879,-14.160,208.496,0.000
1737551635.718,0.977,-20.508,-18.555,436.523,0.000
1737551635.722,5.371,-11.230,-17.090,132.812,0.000
1737551635.726,8.789,-21.484,-7.324,-59.570,0.000
1737551635.729,-25.879,-30.762,-6.836,-385.742,0.000
1737551635.733,-50.293,-20.996,-5.859,100.586,0.000
1737551635.737,-35.645,-13.184,-3.418,507.812,0.000
1737551635.741,-34.180,-18.555,-5.371,182.129,0.000
1737551635.745,-34.668,-17.090,-6.836,-32.715,0.000
1737551635.749,-17.090,-17.578,-17.578,-366.699,0.000
1737551635.753,8.789,-11.719,-24.902,21.973,0.000
1737551635.757,0.488,-10.742,-12.695,573.242,0.000
1737551635.761,-24.414,-28.809,-8.301,219.238,0.000
1737551635.765,-19.531,-26.855,-8.301,-97.656,0.000
1737551635.768,-15.137,-15.137,-9.277,-365.723,0.000
1737551635.772,-8.301,-14.160,-12.695,-55.664,0.000
1737551635.776,18.066,-10.742,-8.789,487.793,0.000
1737551635.780,13.672,-11.230,-9.766,205.566,0.000
1737551635.784,12.695,-13.184,-20.508,49.805,0.000
1737551635.788,10.254,-5.859,-19.531,-316.406,0.000
1737551635.792,-2.441,-9.277,-21.973,-295.410,0.000
1737551635.796,20.508,-8.301,-23.926,428.223,0.000
1737551635.800,-5.859,-5.371,-20.020,274.902,0.000
1737551635.804,-30.762,-18.066,-21.973,-35.645,0.000
1737551635.808,-12.207,-16.113,-20.020,-372.070,0.000
1737551635.811,-23.926,-9.766,-15.625,-344.727,0.000
1737551635.815,-18.066,-13.672,-8.789,356.934,0.000
1737551635.819,-14.648,-18.555,-9.277,243.652,0.000
1737551635.823,-37.598,-21.484,-21.484,-64.941,0.000
1737551635.827,-47.852,-21.484,-27.832,-271.484,0.000
1737551635.831,-44.922,-25.879,-26.367,-343.750,0.000
1737551635.835,-22.461,-26.367,-29.297,251.953,0.000
1737551635.839,-7.324,-23.926,-22.949,282.715,0.000
1737551635.843,-24.414,-29.785,-20.020,-14.160,0.000
1737551635.847,-41.504,-33.203,-16.113,-269.531,0.000
1737551635.851,-47.363,-27.832,-16.602,-433.594,0.000
1737551635.854,-40.039,-16.602,-17.578,195.801,0.000
1737551635.858,-29.297,-14.160,-16.113,246.582,0.000
1737551635.862,-26.855,-15.625,-23.438,-44.434,0.000
1737551635.866,-15.137,-25.879,-28.320,-214.844,0.000
1737551635.870,-9.766,-33.691,-20.020,-429.688,0.000
1737551635.874,2.441,-18.555,-14.648,229.004,0.000
1737551635.878,-10.254,-10.254,-21.973,456.055,0.000
1737551635.882,-31.250,-15.625,-30.762,-58.594,0.000
1737551635.886,-32.715,-13.184,-35.645,-217.773,0.000
1737551635.890,-31.250,-15.137,-31.250,-417.480,0.000
1737551635.893,-16.602,-11.230,-36.133,47.363,0.000
1737551635.897,-1.465,-0.977,-38.086,480.957,0.000
1737551635.901,-11.230,5.859,-38.086,82.031,0.000
1737551635.905,-11.719,6.836,-36.133,-195.312,0.000
1737551635.909,-10.742,2.930,-35.645,-401.855,0.000
1737551635.913,-12.207,6.836,-29.785,-28.320,0.000
1737551635.917,9.766,3.418,-25.391,428.223,0.000
1737551635.921,11.230,-0.977,-35.156,174.316,0.000
1737551635.925,9.277,-3.418,-25.391,-41.504,0.000
1737551635.929,9.766,-12.207,-11.230,-390.137,0.000
1737551635.933,-14.648,-5.859,-25.391,-67.383,0.000
1737551635.936,-2.441,0.000,-22.949,522.461,0.000
1737551635.940,12.207,5.859,-20.020,163.574,0.000
1737551635.944,1.465,7.812,-20.020,-32.227,0.000
1737551635.948,-14.648,-1.953,-12.207,-296.875,0.000
1737551635.952,-7.324,2.441,-22.949,-149.902,0.000
1737551635.956,20.020,-3.906,-25.879,533.203,0.000
1737551635.960,4.395,-17.578,-19.531,315.918,0.000
1737551635.964,-20.996,-13.672,-12.695,30.762,0.000
1737551635.968,-7.324,-5.371,-5.859,-233.398,0.000
1737551635.972,-7.812,-14.648,-12.207,-172.363,0.000
1737551635.976,-16.113,-21.973,-22.461,507.324,0.000
1737551635.979,1.953,-5.859,-23.438,437.012,0.000
1737551635.983,0.000,2.930,-25.391,143.066,0.000
1737551635.987,-25.391,-9.766,-17.090,-114.746,0.000
1737551635.991,-23.438,-7.812,-20.996,-136.719,0.000
1737551635.995,0.000,-6.348,-28.320,501.953,0.000
1737551635.999,2.930,-10.742,-17.578,434.082,0.000
1737551636.003,-9.766,-17.578,-24.414,144.531,0.000
1737551636.007,-20.508,-21.484,-29.785,-31.738,0.000
1737551636.011,-30.273,-16.602,-24.414,-195.312,0.000
1737551636.015,-33.203,-19.043,-28.320,334.473,0.000
1737551636.018,-24.902,-14.648,-22.949,472.168,0.000
1737551636.022,-27.344,-12.207,-14.160,147.949,0.000
1737551636.026,-21.973,-14.648,-13.672,-110.352,0.000
1737551636.030,-16.602,-20.020,-31.250,-331.055,0.000
1737551636.034,-21.484,-18.066,-24.902,316.406,0.000
1737551636.038,-21.484,-16.602,-6.836,571.289,0.000
1737551636.042,-17.578,-20.508,-14.160,136.719,0.000
1737551636.046,-24.414,-24.902,-31.738,-167.480,0.000
1737551636.050,-31.738,-34.668,-31.250,-364.258,0.000
1737551636.054,-40.527,-24.902,-23.926,263.184,0.000
1737551636.058,-30.762,-11.230,-18.066,531.250,0.000
1737551636.061,-25.879,-17.090,-13.672,160.156,0.000
1737551636.065,-33.203,-19.531,-9.766,8.789,0.000
1737551636.069,-31.738,-15.625,-23.926,-353.027,0.000
1737551636.073,-18.066,-13.672,-20.020,171.875,0.000
1737551636.077,3.906,-12.695,-7.812,642.090,0.000
1737551636.081,5.371,-8.301,-13.184,221.680,0.000
1737551636.085,-0.977,1.465,-23.438,-9.277,0.000
1737551636.089,-9.766,-2.930,-30.762,-395.508,0.000
1737551636.093,6.348,-8.789,-24.902,-66.895,0.000
1737551636.097,30.273,-1.953,-9.766,566.406,0.000
1737551636.101,22.461,-9.277,-6.348,275.879,0.000
1737551636.104,-7.812,-15.625,-14.160,24.414,0.000
1737551636.108,-30.273,-5.371,-25.879,-303.223,0.000
1737551636.112,-29.297,-7.812,-20.996,-47.852,0.000
1737551636.116,-14.648,-18.066,-16.602,584.473,0.000
1737551636.120,-0.977,-16.113,-20.508,308.594,0.000
1737551636.124,-6.836,-18.555,-25.879,35.156,0.000
1737551636.128,-31.738,-24.902,-29.297,-288.574,0.000
1737551636.132,-46.875,-14.648,-21.973,-93.750,0.000
1737551636.136,-20.020,-20.508,-18.066,579.590,0.000
1737551636.140,-21.484,-22.461,-16.113,342.773,0.000
1737551636.143,-35.645,-28.320,-19.531,-19.531,0.000
1737551636.147,-32.227,-37.109,-28.320,-256.348,0.000
1737551636.151,-40.039,-31.250,-28.320,-196.777,0.000
1737551636.155,-31.250,-18.555,-23.926,495.605,0.000
1737551636.159,-20.020,-11.719,-21.973,369.141,0.000
1737551636.163,-8.301,-23.438,-10.742,62.012,0.000
1737551636.167,-24.414,-31.738,-5.859,-214.844,0.000
1737551636.171,-20.996,-17.090,-28.320,-315.430,0.000
1737551636.175,-6.836,-7.324,-31.250,415.527,0.000
1737551636.179,-14.160,-12.207,-14.160,470.703,0.000
1737551636.183,-10.254,-18.555,-11.719,131.348,0.000
1737551636.186,-23.438,-21.973,-15.625,-115.234,0.000
1737551636.190,-36.621,-19.531,-16.113,-300.293,0.000
1737551636.194,-25.391,-12.695,-10.742,361.328,0.000
1737551636.198,-11.230,-3.906,-15.625,580.078,0.000
1737551636.202,-12.207,-13.184,-21.484,200.684,0.000
1737551636.206,-16.602,-15.137,-14.160,-21.484,0.000
1737551636.210,-41.504,-18.066,-12.207,-319.336,0.000
1737551636.214,-39.062,-20.996,-16.602,218.262,0.000
1737551636.218,-26.855,-20.020,-14.160,589.355,0.000
1737551636.222,-32.715,-22.949,-20.996,273.438,0.000
1737551636.225,-19.043,-15.137,-22.949,54.688,0.000
1737551636.229,-4.883,-13.184,-15.137,-342.773,0.000
1737551636.233,10.254,-19.531,-15.625,118.652,0.000
1737551636.237,17.578,-5.371,-21.484,623.047,0.000
1737551636.241,-19.043,-0.488,-13.184,282.715,0.000
1737551636.245,-38.086,-16.113,-2.930,60.547,0.000
1737551636.249,-39.551,-11.230,-16.113,-280.762,0.000
1737551636.253,-35.156,-3.906,-17.090,134.766,0.000
1737551636.257,-31.738,-9.766,-16.113,590.820,0.000
1737551636.261,-29.297,-13.184,-24.902,300.781,0.000
1737551636.265,-23.926,-11.230,-19.531,28.320,0.000
1737551636.268,-38.574,-12.207,-15.625,-375.000,0.000
1737551636.272,-33.691,-10.254,-18.555,-8.789,0.000
1737551636.276,1.465,-3.418,-14.160,651.367,0.000
1737551636.280,2.930,-2.441,-8.789,380.371,0.000
1737551636.284,0.000,-7.812,-10.254,101.074,0.000
1737551636.288,-8.789,-19.531,-16.602,-343.750,0.000
1737551636.292,-30.762,-24.902,-23.926,-151.855,0.000
1737551636.296,-23.926,-20.020,-16.113,666.992,0.000
1737551636.300,-24.902,-16.113,-19.043,442.871,0.000
1737551636.304,-26.367,-16.602,-24.414,86.426,0.000
1737551636.308,-34.668,-19.531,-20.996,-187.500,0.000
1737551636.311,-29.785,-28.320,-21.484,-148.926,0.000
1737551636.315,-17.090,-29.785,-14.648,544.922,0.000
1737551636.319,-27.832,-32.227,-17.090,452.148,0.000
1737551636.323,-37.109,-33.203,-21.484,96.680,0.000
1737551636.327,-35.156,-20.508,-11.230,-194.824,0.000
1737551636.331,-35.645,-22.461,-16.602,-254.395,0.000
1737551636.335,-26.855,-32.227,-23.438,442.871,0.000
1737551636.339,-26.367,-25.879,-16.602,444.336,0.000
1737551636.343,-35.156,-20.020,-19.043,131.348,0.000
1737551636.347,-37.598,-21.484,-21.973,-114.258,0.000
1737551636.350,-27.344,-29.297,-19.043,-333.984,0.000
1737551636.354,-10.742,-27.344,-11.719,266.113,0.000
1737551636.358,-13.672,-32.227,-0.977,331.543,0.000
1737551636.362,-34.668,-41.016,2.441,69.824,0.000
1737551636.366,-45.410,-17.578,-11.230,-47.363,0.000
1737551636.370,-44.922,-3.906,-18.066,-312.988,0.000
1737551636.374,-17.578,-11.230,-7.812,250.000,0.000
1737551636.378,-11.719,-16.113,-12.695,449.707,0.000
1737551636.382,-20.508,-20.508,-16.113,112.305,0.000
1737551636.386,-21.973,-23.438,-10.254,-31.738,0.000
1737551636.390,-63.477,-25.391,-16.602,-399.414,0.000
1737551636.393,-51.758,-24.414,-19.531,152.344,0.000
1737551636.397,-15.625,-16.602,-20.020,522.461,0.000
1737551636.401,-20.508,-14.648,-21.973,88.379,0.000
1737551636.405,-26.855,-20.508,-11.230,-89.844,0.000
1737551636.409,-30.273,-19.531,-9.766,-354.492,0.000
1737551636.413,-21.484,-8.789,-17.578,71.289,0.000
1737551636.417,-24.414,-7.324,-12.207,453.125,0.000
1737551636.421,-25.879,-15.137,-15.625,63.965,0.000
1737551636.425,-19.043,-15.625,-23.926,-103.027,0.000
1737551636.429,-29.785,-13.184,-23.926,-430.664,0.000
1737551636.433,-7.324,-11.230,-23.926,-119.629,0.000
1737551636.436,10.742,-11.719,-26.855,431.641,0.000
1737551636.440,-0.488,-8.789,-20.020,169.434,0.000
1737551636.444,-20.996,-10.742,-11.719,-54.199,0.000
1737551636.448,-52.734,-22.949,-16.113,-428.711,0.000
1737551636.452,-53.223,-21.484,-14.648,-177.246,0.000
1737551636.456,-25.391,-16.602,-6.836,525.391,0.000
1737551636.460,-26.855,-27.344,-3.906,199.707,0.000
1737551636.464,-42.480,-23.926,-12.695,-151.855,0.000
1737551636.468,-39.551,-24.902,-24.902,-449.707,0.000
1737551636.472,-31.738,-24.414,-24.902,-302.246,0.000
1737551636.475,-12.207,-20.508,-20.996,384.277,0.000
1737551636.479,-21.484,-24.902,-19.531,218.262,0.000
1737551636.483,-23.438,-18.066,-22.949,-42.480,0.000
1737551636.487,-12.695,-15.137,-20.996,-388.672,0.000
1737551636.491,-9.277,-15.137,-11.719,-413.574,0.000
1737551636.495,2.441,-16.602,-1.953,360.840,0.000
1737551636.499,7.324,-17.090,-11.719,271.973,0.000
1737551636.503,13.672,-7.812,-11.719,-45.410,0.000
1737551636.507,1.465,-8.301,-10.742,-304.199,0.000
1737551636.511,-17.578,-16.602,-25.391,-470.215,0.000
1737551636.515,-21.484,-15.137,-24.902,183.594,0.000
1737551636.518,-20.020,-12.695,-12.695,240.723,0.000
1737551636.522,-30.762,-10.742,-6.348,-57.129,0.000
1737551636.526,-28.809,-9.766,-15.137,-363.281,0.000
1737551636.530,-20.020,-28.809,-9.766,-560.059,0.000
1737551636.534,-24.902,-24.902,4.883,118.164,0.000
1737551636.538,-18.066,-7.812,-7.812,276.855,0.000
1737551636.542,-29.785,-14.160,-15.625,-56.152,0.000
1737551636.546,-35.156,-20.020,-19.043,-309.570,0.000
1737551636.550,-26.855,-20.508,-23.438,-595.215,0.000
1737551636.554,-10.742,-11.719,-27.344,66.406,0.000
1737551636.557,5.859,-10.254,-26.367,332.520,0.000
1737551636.561,-7.812,-26.367,-11.230,-145.020,0.000
1737551636.565,-8.301,-24.902,-11.719,-291.504,0.000
1737551636.569,-15.625,-19.531,-18.555,-569.824,0.000
1737551636.573,-21.484,-22.461,-20.508,-101.074,0.000
1737551636.577,-7.812,-20.508,-17.090,327.637,0.000
1737551636.581,-10.742,-24.902,-17.578,-86.914,0.000
1737551636.585,-27.832,-27.344,-23.438,-291.504,0.000
1737551636.589,-45.898,-24.414,-18.555,-531.738,0.000
1737551636.593,-41.992,-20.020,-17.090,-184.570,0.000
1737551636.597,-20.508,-17.090,-15.625,304.688,0.000
1737551636.600,-13.672,-20.996,-18.066,14.648,0.000
1737551636.604,-5.859,-24.414,-34.180,-280.762,0.000
1737551636.608,-6.348,-21.484,-29.785,-647.461,0.000
1737551636.612,-32.227,-17.090,-9.766,-273.926,0.000
1737551636.616,-40.527,-29.297,-12.695,362.305,0.000
1737551636.620,-35.645,-25.879,-14.648,61.035,0.000
1737551636.624,-29.297,-12.695,-12.207,-217.285,0.000
1737551636.628,-15.625,-23.926,-12.695,-545.898,0.000
1737551636.632,-24.902,-32.227,-16.113,-350.098,0.000
1737551636.636,-41.504,-32.715,-12.207,312.012,0.000
1737551636.640,-37.109,-29.297,-8.301,102.051,0.000
1737551636.643,-49.805,-33.691,-13.672,-181.152,0.000
1737551636.647,-45.898,-32.715,-22.461,-389.648,0.000
1737551636.651,-30.273,-24.414,-21.484,-413.574,0.000
1737551636.655,-16.113,-16.113,-2.441,229.004,0.000
1737551636.659,-18.066,-15.137,-5.371,126.953,0.000
1737551636.663,-36.621,-22.461,-12.695,-185.547,0.000
1737551636.667,-34.668,-32.715,-10.742,-439.453,0.000
1737551636.671,-29.785,-30.762,-14.160,-507.812,0.000
1737551636.675,-20.020,-13.672,-14.160,230.957,0.000
1737551636.679,-25.391,-2.930,-14.648,211.426,0.000
1737551636.682,-23.926,-12.207,-13.184,-180.176,0.000
1737551636.686,0.488,-20.996,-11.719,-361.328,0.000
1737551636.690,7.812,-6.836,-14.160,-458.496,0.000
1737551636.694,29.785,-2.441,-16.113,187.500,0.000
1737551636.698,29.297,-12.695,-10.742,270.020,0.000
1737551636.702,2.441,-19.531,-9.766,-118.652,0.000
1737551636.706,-21.484,-21.484,-12.207,-285.156,0.000
1737551636.710,-37.598,-21.484,-12.695,-445.801,0.000
1737551636.714,-39.062,-16.602,-20.996,125.488,0.000
1737551636.718,-27.344,-13.672,-16.113,319.824,0.000
1737551636.722,-13.672,-13.184,-18.066,-38.086,0.000
1737551636.725,-6.836,-8.301,-25.879,-250.977,0.000
1737551636.729,-20.508,-17.578,-27.832,-496.582,0.000
1737551636.733,-22.949,-20.508,-21.973,36.621,0.000
1737551636.737,-11.719,-7.812,-10.254,379.395,0.000
1737551636.741,-17.090,-16.113,-13.672,13.184,0.000
1737551636.745,-41.504,-27.344,-22.949,-243.652,0.000
1737551636.749,-46.387,-24.902,-15.625,-543.457,0.000
1737551636.753,-34.180,-25.879,-16.602,-49.316,0.000
1737551636.757,-20.996,-25.391,-22.949,451.172,0.000
1737551636.761,-17.090,-27.832,-23.926,69.336,0.000
1737551636.765,-22.949,-21.484,-21.484,-165.527,0.000
1737551636.768,-41.504,-15.137,-23.438,-486.328,0.000
1737551636.772,-34.180,-13.672,-26.367,-182.129,0.000
1737551636.776,-17.578,-18.066,-23.926,395.996,0.000
1737551636.780,-24.414,-19.531,-26.367,61.035,0.000
1737551636.784,-11.230,-21.484,-25.391,-182.129,0.000
1737551636.788,-20.020,-25.879,-26.367,-427.246,0.000
1737551636.792,-32.715,-23.926,-20.996,-259.766,0.000
1737551636.796,-25.391,-23.926,-14.648,312.988,0.000
1737551636.800,-27.832,-17.090,-18.555,126.465,0.000
1737551636.804,-49.316,-9.766,-23.926,-126.465,0.000
1737551636.807,-59.082,-14.648,-22.461,-431.641,0.000
1737551636.811,-42.480,-20.508,-22.949,-295.410,0.000
1737551636.815,-38.086,-15.625,-8.789,431.152,0.000
1737551636.819,-30.762,-14.160,-20.996,239.258,0.000
1737551636.823,-34.180,-18.066,-29.785,-136.230,0.000
1737551636.827,-38.574,-16.113,-15.137,-392.578,0.000
1737551636.831,-26.367,-18.555,-7.812,-403.320,0.000
1737551636.835,-15.137,-22.949,-12.695,342.773,0.000
1737551636.839,-17.090,-29.297,-21.973,242.188,0.000
1737551636.843,-27.832,-37.598,-20.020,-166.016,0.000
1737551636.847,-30.762,-23.438,-16.113,-317.871,0.000
1737551636.850,-32.227,-12.695,-18.555,-403.320,0.000
1737551636.854,-22.461,-18.555,-11.230,269.043,0.000
1737551636.858,-5.371,-17.578,-11.230,262.695,0.000
1737551636.862,-13.672,-15.625,-7.812,-81.055,0.000
1737551636.866,-9.277,-17.090,-3.418,-259.766,0.000
1737551636.870,3.906,-18.066,-12.695,-485.840,0.000
1737551636.874,4.883,-20.508,-20.020,168.457,0.000
1737551636.878,-9.277,-24.414,-17.578,313.965,0.000
1737551636.882,-5.371,-12.207,-12.695,-60.547,0.000
1737551636.886,-10.254,-12.207,-13.672,-239.258,0.000
1737551636.890,-27.832,-24.414,-21.973,-541.992,0.000
1737551636.893,-13.184,-16.602,-23.926,3.418,0.000
1737551636.897,-4.883,-7.324,-10.254,338.379,0.000
1737551636.901,-16.113,-12.207,0.977,-39.062,0.000
1737551636.905,-7.812,-17.578,-0.488,-232.910,0.000
1737551636.909,-8.789,-16.602,-5.859,-513.184,0.000
1737551636.913,-28.809,-15.625,-8.301,-49.316,0.000
1737551636.917,-33.203,-15.137,-13.184,353.516,0.000
1737551636.921,-15.137,-6.836,-16.602,-20.508,0.000
1737551636.925,-18.066,-1.953,-12.207,-167.969,0.000
1737551636.929,-41.504,-10.742,-19.043,-482.910,0.000
1737551636.932,-38.574,-19.531,-20.020,-218.262,0.000
1737551636.936,-11.719,-23.926,-10.742,340.820,0.000
1737551636.940,-7.324,-19.043,-16.113,102.539,0.000
1737551636.944,-20.508,-17.578,-27.344,-182.617,0.000
1737551636.948,-23.438,-17.578,-30.762,-517.090,0.000
1737551636.952,-19.531,-13.672,-17.578,-219.238,0.000
1737551636.956,-11.719,-12.695,-9.277,393.555,0.000
1737551636.960,-21.973,-9.766,-20.508,110.352,0.000
1737551636.964,-21.484,-13.184,-22.461,-184.570,0.000
1737551636.968,-22.461,-18.066,-18.066,-445.801,0.000
1737551636.972,-25.391,-17.578,-20.020,-277.832,0.000
1737551636.975,-7.324,-13.672,-13.184,384.766,0.000
1737551636.979,-12.695,-23.926,-14.648,106.445,0.000
1737551636.983,-33.203,-33.203,-19.043,-192.871,0.000
1737551636.987,-73.730,-24.902,-28.809,-395.996,0.000
1737551636.991,-83.984,-24.414,-26.367,-372.070,0.000
1737551636.995,-49.316,-15.625,-14.160,325.195,0.000
1737551636.999,-37.109,-2.441,-23.926,263.184,0.000
1737551637.003,-26.367,-11.719,-28.320,-168.457,0.000
1737551637.007,-32.715,-25.391,-30.273,-430.176,0.000
1737551637.011,-58.105,-27.344,-29.297,-422.852,0.000
1737551637.014,-38.574,-23.438,-18.555,243.164,0.000
1737551637.018,-21.973,-21.973,-17.578,302.246,0.000
1737551637.022,-23.926,-19.531,-15.137,3.906,0.000
1737551637.026,-14.648,-28.809,-15.625,-426.270,0.000
1737551637.030,-21.973,-27.832,-27.344,-547.363,0.000
1737551637.034,-14.648,-27.344,-29.785,201.660,0.000
1737551637.038,6.348,-26.855,-31.250,245.117,0.000
1737551637.042,2.441,-11.719,-25.879,-93.750,0.000
1737551637.046,-16.602,-11.230,-14.648,-265.137,0.000
1737551637.050,-17.578,-18.066,-15.625,-495.117,0.000
1737551637.054,11.230,-12.207,-13.672,116.699,0.000
1737551637.057,24.414,-3.906,-14.160,386.230,0.000
1737551637.061,-1.465,-16.602,-20.508,-84.961,0.000
1737551637.065,-38.086,-26.367,-30.273,-204.102,0.000
1737551637.069,-54.688,-18.066,-25.879,-351.074,0.000
1737551637.073,-36.133,-11.230,-11.230,-38.574,0.000
1737551637.077,-23.926,-11.719,-12.207,235.840,0.000
1737551637.081,-26.855,-18.066,-32.227,4.883,0.000
1737551637.085,-33.691,-16.113,-34.180,-199.219,0.000
1737551637.089,-36.621,-10.742,-23.926,-605.469,0.000
1737551637.093,-24.902,-8.789,-13.672,-146.484,0.000
1737551637.097,-18.066,-8.301,-13.184,415.527,0.000
1737551637.100,-33.691,-4.395,-16.602,3.906,0.000
1737551637.104,-27.344,-1.953,-15.137,-264.648,0.000
1737551637.108,-20.996,-12.207,-12.207,-504.395,0.000
1737551637.112,-20.508,-14.160,-7.812,-147.461,0.000
1737551637.116,-2.441,-5.371,-20.996,409.668,0.000
1737551637.120,-8.789,-11.230,-31.738,24.414,0.000
1737551637.124,-25.391,-22.461,-18.555,-272.461,0.000
1737551637.128,-24.902,-20.996,-11.719,-454.102,0.000
1737551637.132,-23.438,-15.625,-25.879,-250.488,0.000
1737551637.136,-12.207,-10.742,-30.273,311.523,0.000
1737551637.139,-19.043,-5.371,-20.020,110.840,0.000
1737551637.143,-18.066,-15.625,-11.719,-173.340,0.000
1737551637.147,-24.414,-22.461,-9.277,-446.289,0.000
1737551637.151,-42.480,-14.648,-6.348,-337.402,0.000
1737551637.155,-29.297,-13.672,-11.719,292.969,0.000
1737551637.159,-17.090,-20.996,-13.184,136.230,0.000
1737551637.163,-13.184,-13.672,-15.137,-91.797,0.000
1737551637.167,-3.418,-23.438,-18.555,-401.367,0.000
1737551637.171,-2.441,-30.273,-20.020,-522.461,0.000
1737551637.175,0.977,-12.207,-18.066,122.559,0.000
1737551637.179,-6.348,-8.789,-10.742,146.973,0.000
1737551637.182,-24.414,-12.695,-7.324,-122.070,0.000
1737551637.186,-25.391,-10.254,-15.137,-406.738,0.000
1737551637.190,-25.879,-8.301,-21.973,-557.617,0.000
1737551637.194,-23.438,-5.859,-17.090,101.074,0.000
1737551637.198,-26.367,-8.301,-6.348,252.930,0.000
1737551637.202,-18.555,-13.184,-7.812,-105.957,0.000
1737551637.206,-27.344,-14.648,-19.531,-371.582,0.000
1737551637.210,-38.574,-17.090,-23.926,-524.902,0.000
1737551637.214,-27.832,-13.672,-16.113,61.523,0.000
1737551637.218,-9.277,-16.113,-7.324,199.707,0.000
1737551637.222,-2.441,-13.184,-10.742,-141.113,0.000
1737551637.225,-17.578,-8.789,-12.695,-320.312,0.000
1737551637.229,-31.738,-12.695,-12.695,-541.016,0.000
1737551637.233,-27.832,-16.113,-11.230,-79.102,0.000
1737551637.237,-17.578,-17.090,-16.602,261.230,0.000
1737551637.241,-23.438,-28.320,-22.949,-58.594,0.000
1737551637.245,-14.160,-25.391,-21.484,-288.086,0.000
1737551637.249,-9.766,-19.043,-17.090,-612.793,0.000
1737551637.253,-29.297,-20.020,-8.789,-139.648,0.000
1737551637.257,-35.156,-9.766,-13.184,383.301,0.000
1737551637.261,-48.828,-9.766,-21.484,-32.227,0.000
1737551637.264,-37.109,-12.695,-22.949,-281.738,0.000
1737551637.268,-25.391,-13.672,-16.113,-545.898,0.000
1737551637.272,-18.555,-16.602,-7.812,-187.500,0.000
1737551637.276,-6.348,-22.461,-10.742,361.328,0.000
1737551637.280,-16.602,-16.113,-13.672,26.855,0.000
1737551637.284,-26.855,-12.207,-11.719,-287.109,0.000
1737551637.288,-19.043,-15.137,-11.719,-580.566,0.000
1737551637.292,-0.488,-18.555,-20.508,-342.773,0.000
1737551637.296,-0.488,-14.648,-30.762,277.832,0.000
1737551637.300,-1.953,-10.254,-21.973,79.102,0.000
1737551637.304,11.230,-8.789,-8.301,-173.828,0.000
1737551637.307,-1.465,-12.695,-17.578,-474.609,0.000
1737551637.311,-14.648,-18.066,-19.531,-365.234,0.000
1737551637.315,-15.625,-24.902,-11.230,270.508,0.000
1737551637.319,-30.762,-34.180,-14.160,118.164,0.000
1737551637.323,-34.668,-25.391,-16.602,-123.535,0.000
1737551637.327,-34.668,-13.672,-24.414,-482.422,0.000
1737551637.331,-35.156,-17.578,-31.738,-548.828,0.000
1737551637.335,-15.137,-18.066,-22.461,210.449,0.000
1737551637.339,-30.273,-15.625,-13.184,145.996,0.000
1737551637.343,-29.785,-11.719,-6.348,-161.621,0.000
1737551637.346,-14.160,-12.207,-10.254,-431.152,0.000
1737551637.350,-25.391,-20.996,-11.719,-508.789,0.000
1737551637.354,-13.672,-20.020,-12.207,122.559,0.000
1737551637.358,-26.367,-15.625,-14.648,125.488,0.000
1737551637.362,-45.410,-29.785,-9.277,-157.715,0.000
1737551637.366,-39.062,-32.227,-14.160,-369.629,0.000
1737551637.370,-43.457,-21.484,-15.625,-546.387,0.000
1737551637.374,-21.973,-18.066,-11.230,58.105,0.000
1737551637.378,-11.719,-20.508,-11.230,182.129,0.000
1737551637.382,-20.020,-20.508,-11.719,-132.324,0.000
1737551637.386,-19.531,-20.996,-19.043,-286.621,0.000
1737551637.389,-36.621,-20.996,-28.320,-612.793,0.000
1737551637.393,-33.691,-15.137,-27.344,-41.992,0.000
1737551637.397,-23.438,-19.043,-16.602,268.555,0.000
1737551637.401,-13.184,-18.066,-24.902,-152.832,0.000
1737551637.405,-21.973,-20.508,-30.762,-345.703,0.000
1737551637.409,-27.344,-20.508,-20.020,-546.387,0.000
1737551637.413,-15.625,-19.043,-21.973,-126.953,0.000
1737551637.417,-12.695,-15.137,-17.578,224.609,0.000
1737551637.421,-16.113,-10.254,-10.742,-112.305,0.000
1737551637.425,-19.531,-20.996,-14.648,-355.957,0.000
1737551637.429,-18.066,-22.949,-22.949,-656.738,0.000
1737551637.432,7.812,-14.160,-25.391,-161.621,0.000
1737551637.436,16.602,-14.160,-20.508,279.297,0.000
1737551637.440,-18.555,-23.438,-16.113,-75.684,0.000
1737551637.444,-40.039,-17.578,-14.648,-225.586,0.000
1737551637.448,-38.574,-13.184,-13.672,-586.914,0.000
1737551637.452,-40.527,-22.461,-17.090,-312.012,0.000
1737551637.456,-41.504,-20.508,-30.273,290.527,0.000
1737551637.460,-31.738,-18.066,-29.785,-23.926,0.000
1737551637.464,-24.902,-24.902,-19.043,-259.277,0.000
1737551637.468,-35.156,-22.461,-19.531,-546.387,0.000
1737551637.471,-28.809,-15.625,-25.879,-357.910,0.000
1737551637.475,-4.883,-7.812,-17.578,224.121,0.000
1737551637.479,-5.371,-10.254,-14.648,12.695,0.000
1737551637.483,-15.137,-14.160,-22.461,-199.219,0.000
1737551637.487,-13.672,-17.090,-22.949,-479.004,0.000
1737551637.491,-6.836,-17.578,-26.855,-356.934,0.000
1737551637.495,9.766,-13.184,-19.531,257.324,0.000
1737551637.499,-9.766,-26.367,-20.508,5.859,0.000
1737551637.503,-26.367,-28.320,-28.809,-222.656,0.000
1737551637.507,-28.809,-19.531,-15.625,-430.176,0.000
1737551637.511,-31.738,-16.113,-18.066,-500.977,0.000
1737551637.514,-15.625,-8.789,-18.555,197.266,0.000
1737551637.518,-20.020,-9.766,-17.090,121.094,0.000
1737551637.522,-39.551,-23.926,-21.484,-186.035,0.000
1737551637.526,-48.828,-20.020,-15.625,-373.535,0.000
1737551637.530,-41.992,-8.301,-19.531,-600.098,0.000
1737551637.534,-25.879,-5.371,-31.738,40.527,0.000
1737551637.538,-21.973,-4.395,-22.949,243.164,0.000
1737551637.542,-24.414,-17.090,-9.766,-173.340,0.000
1737551637.546,-41.504,-23.438,-15.137,-446.777,0.000
1737551637.550,-45.410,-14.160,-20.508,-496.094,0.000
1737551637.554,-19.043,-17.578,-21.484,64.941,0.000
1737551637.557,-9.277,-19.043,-17.090,221.680,0.000
1737551637.561,-28.809,-13.184,-12.207,-112.793,0.000
1737551637.565,-33.203,-23.438,-10.742,-321.777,0.000
1737551637.569,-24.414,-22.461,-16.113,-547.363,0.000
1737551637.573,-22.461,-6.836,-32.715,-111.328,0.000
1737551637.577,-15.137,-7.324,-28.320,171.387,0.000
1737551637.581,3.418,-9.766,-20.020,-74.219,0.000
1737551637.585,3.906,-5.859,-19.043,-217.773,0.000
1737551637.589,-23.926,-17.578,-16.602,-592.285,0.000
1737551637.593,-25.391,-25.391,-17.578,-201.172,0.000
1737551637.596,-10.254,-16.602,-30.762,230.469,0.000
1737551637.600,-11.719,-23.926,-30.273,-83.984,0.000
1737551637.604,-4.883,-32.227,-10.742,-214.355,0.000
1737551637.608,-15.137,-20.996,-10.254,-510.742,0.000
1737551637.612,-27.832,-10.254,-16.113,-253.418,0.000
1737551637.616,-2.441,-6.348,-16.113,271.484,0.000
1737551637.620,4.883,-9.766,-8.789,-36.621,0.000
1737551637.624,-2.441,-15.137,-8.301,-315.430,0.000
1737551637.628,-25.391,-16.602,-14.160,-517.578,0.000
1737551637.632,-25.879,-11.230,-19.043,-268.555,0.000
1737551637.636,-5.859,-22.461,-17.090,207.520,0.000
1737551637.639,-24.902,-25.391,-13.672,-5.371,0.000
1737551637.643,-34.668,-11.230,-8.301,-156.250,0.000
1737551637.647,-44.434,-10.742,-14.160,-491.699,0.000
1737551637.651,-40.039,-18.555,-21.484,-436.035,0.000
1737551637.655,-7.812,-19.531,-9.766,216.309,0.000
1737551637.659,-5.371,-18.066,1.465,89.844,0.000
1737551637.663,-6.348,-14.648,-16.113,-197.266,0.000
1737551637.667,4.883,-10.742,-23.926,-549.316,0.000
1737551637.671,-4.883,-7.324,-24.902,-478.516,0.000
1737551637.675,-12.695,-15.137,-30.762,178.223,0.000
1737551637.679,-7.812,-15.625,-20.996,110.352,0.000
1737551637.682,0.000,-6.348,-13.184,-183.105,0.000
1737551637.686,-8.789,1.953,-21.973,-477.539,0.000
1737551637.690,-18.555,-5.859,-28.320,-524.414,0.000
1737551637.694,-10.254,-20.508,-10.254,53.711,0.000
1737551637.698,-1.953,-19.043,2.441,119.141,0.000
1737551637.702,-10.742,-17.578,-7.324,-136.719,0.000
1737551637.706,-29.297,-18.555,-17.578,-388.672,0.000
1737551637.710,-35.645,-16.113,-25.391,-575.195,0.000
1737551637.714,-32.227,-16.602,-22.949,33.691,0.000
1737551637.718,-41.016,-20.020,-19.531,165.039,0.000
1737551637.721,-39.551,-21.973,-23.438,-166.016,0.000
1737551637.725,-28.320,-23.438,-16.113,-269.043,0.000
1737551637.729,-40.527,-26.855,-18.066,-531.250,0.000
1737551637.733,-15.625,-19.531,-25.879,-76.172,0.000
1737551637.737,4.395,-12.207,-18.555,199.707,0.000
1737551637.741,-32.227,-18.555,-10.742,-134.766,0.000
1737551637.745,-49.805,-20.508,-15.137,-326.172,0.000
1737551637.749,-47.852,-25.391,-16.113,-568.848,0.000
1737551637.753,-30.762,-16.602,-6.836,-113.281,0.000
1737551637.757,-11.719,-9.766,-15.625,233.398,0.000
1737551637.761,-9.766,-24.414,-18.066,-104.004,0.000
1737551637.764,-10.742,-32.715,-13.672,-274.414,0.000
1737551637.768,-23.926,-22.461,-21.973,-514.160,0.000
1737551637.772,-28.809,-4.883,-14.648,-131.836,0.000
1737551637.776,-13.672,-3.906,-11.719,219.238,0.000
1737551637.780,-2.441,-20.020,-21.484,-81.543,0.000
1737551637.784,9.277,-30.273,-24.414,-184.082,0.000
1737551637.788,-13.184,-22.461,-24.902,-496.094,0.000
1737551637.792,-47.363,-11.230,-19.043,-264.648,0.000
1737551637.796,-46.875,-19.043,-11.719,209.473,0.000
1737551637.800,-40.039,-19.531,-19.043,8.789,0.000
1737551637.803,-32.227,-14.160,-23.438,-200.195,0.000
1737551637.807,-36.133,-20.508,-13.672,-527.344,0.000
1737551637.811,-24.902,-20.020,-13.672,-325.684,0.000
1737551637.815,-15.625,-19.531,-12.207,227.051,0.000
1737551637.819,-18.555,-16.602,-10.742,48.828,0.000
1737551637.823,-21.973,-13.672,-19.043,-214.844,0.000
1737551637.827,-39.551,-20.020,-20.020,-549.805,0.000
1737551637.831,-37.109,-23.926,-22.461,-487.793,0.000
1737551637.835,-22.461,-20.996,-24.902,155.273,0.000
1737551637.839,-28.320,-19.043,-31.738,73.730,0.000
1737551637.843,-29.297,-21.973,-34.668,-202.637,0.000
1737551637.846,-21.973,-16.113,-23.926,-457.520,0.000
1737551637.850,-16.602,-14.648,-10.742,-496.094,0.000
1737551637.854,-10.254,-12.695,-6.836,130.859,0.000
1737551637.858,-7.324,-8.301,-6.348,140.625,0.000
1737551637.862,-12.207,-4.395,-8.789,-160.645,0.000
1737551637.866,-11.230,1.465,-14.648,-342.773,0.000
1737551637.870,-11.230,-7.812,-16.602,-474.121,0.000
1737551637.874,-11.230,-16.113,-7.324,73.730,0.000
1737551637.878,2.441,-11.230,-14.160,164.551,0.000
1737551637.882,3.418,-8.789,-37.598,-151.367,0.000
1737551637.886,-17.578,-14.648,-25.879,-312.012,0.000
1737551637.889,-33.691,-15.625,-19.043,-527.344,0.000
1737551637.893,-21.973,-15.137,-21.484,-15.625,0.000
1737551637.897,-15.625,-19.043,-4.883,233.887,0.000
1737551637.901,-9.766,-17.090,-9.766,-96.191,0.000
1737551637.905,1.953,-17.578,-18.555,-256.836,0.000
1737551637.909,-9.277,-15.625,-17.578,-512.695,0.000
1737551637.913,-17.578,-8.301,-20.508,-43.945,0.000
1737551637.917,-15.625,-3.418,-27.344,280.273,0.000
1737551637.921,-15.137,-12.695,-33.203,-56.641,0.000
1737551637.925,-16.602,-20.996,-28.809,-259.766,0.000
1737551637.928,-18.555,-6.836,-24.414,-544.922,0.000
1737551637.932,-9.766,-13.184,-18.555,-146.973,0.000
1737551637.936,-18.066,-22.949,-4.883,315.430,0.000
1737551637.940,-36.133,-20.020,-11.719,8.789,0.000
1737551637.944,-40.039,-19.531,-28.320,-315.430,0.000
1737551637.948,-46.875,-14.648,-21.973,-603.027,0.000
1737551637.952,-34.668,-13.184,-18.066,-221.191,0.000
1737551637.956,-15.137,-12.695,-14.648,291.016,0.000
1737551637.960,-15.137,-13.672,-8.789,43.945,0.000
1737551637.964,-1.953,-14.648,-8.789,-162.598,0.000
1737551637.968,-11.230,-20.508,-10.742,-450.684,0.000
1737551637.971,-39.551,-20.996,-15.137,-170.410,0.000
1737551637.975,-39.062,-19.043,-18.066,353.516,0.000
1737551637.979,-26.367,-26.855,-16.113,110.352,0.000
1737551637.983,-9.277,-33.203,-10.742,-64.941,0.000
1737551637.987,-23.438,-31.250,-11.230,-342.285,0.000
1737551637.991,-40.527,-12.695,-26.855,-251.465,0.000
1737551637.995,-26.855,-3.906,-22.461,391.113,0.000
1737551637.999,-26.855,-1.953,-5.371,287.109,0.000
1737551638.003,-30.762,-12.695,-9.277,-11.719,0.000
1737551638.007,-26.855,-12.207,-17.090,-265.137,0.000
1737551638.011,-25.879,-10.742,-12.695,-292.480,0.000
1737551638.014,-16.113,-19.043,-5.371,278.809,0.000
1737551638.018,-28.320,-20.508,-14.648,240.234,0.000
1737551638.022,-23.438,-28.320,-19.043,-26.367,0.000
1737551638.026,-13.672,-17.578,-26.367,-244.629,0.000
1737551638.030,-9.766,1.953,-23.926,-262.207,0.000
1737551638.034,-4.395,-2.930,-13.672,283.691,0.000
1737551638.038,-26.367,-11.719,-14.160,283.203,0.000
1737551638.042,-47.363,-14.160,-14.648,7.812,0.000
1737551638.046,-47.363,-16.602,-16.602,-200.684,0.000
1737551638.050,-18.555,-23.438,-12.695,-337.891,0.000
1737551638.053,-10.254,-21.973,-20.020,225.586,0.000
1737551638.057,-29.785,-29.785,-18.555,272.949,0.000
1737551638.061,-29.297,-35.156,-13.184,-66.895,0.000
1737551638.065,-11.230,-27.344,-21.484,-180.176,0.000
1737551638.069,-16.113,-26.855,-23.926,-389.160,0.000
1737551638.073,-34.668,-24.414,-10.742,98.633,0.000
1737551638.077,-36.133,-18.555,-4.395,355.469,0.000
1737551638.081,-25.391,-15.625,-1.465,81.543,0.000
1737551638.085,-20.996,-13.184,-2.930,-58.594,0.000
1737551638.089,-20.020,-16.113,-6.836,-372.070,0.000
1737551638.093,-4.883,-21.484,-15.625,59.082,0.000
1737551638.096,6.348,-22.461,-21.484,424.805,0.000
1737551638.100,1.465,-28.809,-25.879,192.383,0.000
1737551638.104,1.953,-20.020,-29.297,-30.762,0.000
1737551638.108,-20.996,-9.277,-25.879,-468.750,0.000
1737551638.112,-38.574,-9.277,-18.066,-29.785,0.000
1737551638.116,-22.461,-8.789,-18.555,435.059,0.000
1737551638.120,-19.531,-11.230,-12.695,134.277,0.000
1737551638.124,-27.344,-15.625,-7.324,-14.648,0.000
1737551638.128,-32.715,-25.879,-18.555,-263.184,0.000
1737551638.132,-31.738,-26.855,-16.113,28.809,0.000
1737551638.135,-14.160,-8.789,-17.090,481.934,0.000
1737551638.139,-14.160,-2.930,-20.996,152.344,0.000
1737551638.143,-20.020,-9.766,-14.648,22.949,0.000
1737551638.147,-15.137,-17.578,-12.695,-219.727,0.000
1737551638.151,-19.043,-22.461,-11.719,-122.559,0.000
1737551638.155,-13.184,-20.996,-13.672,396.484,0.000
1737551638.159,-21.484,-18.555,-16.113,180.176,0.000
1737551638.163,-26.367,-20.020,-14.160,-7.812,0.000
1737551638.167,-20.996,-27.344,-12.695,-298.828,0.000
1737551638.171,-27.344,-23.926,-19.043,-255.371,0.000
1737551638.175,-16.113,-16.602,-16.602,429.199,0.000
1737551638.178,-7.812,-15.625,-13.672,290.527,0.000
1737551638.182,-11.719,-13.184,-13.672,-7.812,0.000
1737551638.186,-16.602,-18.066,-16.113,-277.832,0.000
1737551638.190,-25.879,-20.508,-18.066,-359.863,0.000
1737551638.194,-32.227,-13.672,-18.066,275.391,0.000
1737551638.198,-32.227,-22.949,-21.484,245.117,0.000
1737551638.202,-18.555,-28.809,-20.996,-16.602,0.000
1737551638.206,-32.227,-24.902,-30.273,-173.340,0.000
1737551638.210,-37.109,-11.719,-36.621,-366.699,0.000
1737551638.214,-37.109,-1.465,-31.250,201.660,0.000
1737551638.218,-43.457,-16.602,-26.855,258.301,0.000
1737551638.221,-38.086,-15.137,-29.297,-18.555,0.000
1737551638.225,-47.363,-0.977,-38.086,-160.645,0.000
1737551638.229,-61.523,-5.371,-37.109,-356.934,0.000
1737551638.233,-54.199,-3.906,-36.133,153.809,0.000
1737551638.237,-31.738,2.441,-29.297,359.375,0.000
1737551638.241,-11.719,0.977,-21.973,88.867,0.000
1737551638.245,-24.902,0.977,-27.832,-170.410,0.000
1737551638.249,-34.180,-5.371,-33.203,-448.730,0.000
1737551638.253,-29.297,-11.719,-35.156,53.711,0.000
1737551638.257,-41.504,-6.836,-30.273,373.047,0.000
1737551638.260,-32.715,-10.742,-20.508,95.703,0.000
1737551638.264,-21.973,-16.113,-25.879,-147.949,0.000
1737551638.268,-30.762,-18.555,-29.297,-397.949,0.000
1737551638.272,-22.461,-14.160,-20.996,78.613,0.000
1737551638.276,-27.344,-3.906,-18.066,488.770,0.000
1737551638.280,-24.902,-3.418,-24.414,159.668,0.000
1737551638.284,-13.184,-11.230,-27.344,-29.785,0.000
1737551638.288,-30.273,-10.742,-18.066,-214.844,0.000
1737551638.292,-21.484,-2.930,-22.949,18.555,0.000
1737551638.296,3.418,-16.602,-33.203,450.684,0.000
1737551638.300,-5.371,-29.297,-23.926,254.395,0.000
1737551638.303,-14.160,-11.230,-19.531,4.395,0.000
1737551638.307,-14.160,-13.672,-28.809,-267.090,0.000
1737551638.311,-7.812,-16.602,-21.973,-12.207,0.000
1737551638.315,-13.672,-4.395,-10.742,531.250,0.000
1737551638.319,-21.484,-14.648,-16.113,284.668,0.000
1737551638.323,1.953,-24.902,-22.949,50.781,0.000
1737551638.327,11.719,-9.766,-19.531,-163.574,0.000
1737551638.331,8.789,-5.859,-20.508,-41.504,0.000
1737551638.335,14.160,-10.254,-21.973,576.172,0.000
1737551638.339,9.277,-0.977,-19.043,398.438,0.000
1737551638.343,4.395,-7.812,-17.578,107.910,0.000
1737551638.346,-11.719,-13.184,-15.137,-99.121,0.000
1737551638.350,-16.113,-11.230,-20.020,-62.500,0.000
1737551638.354,-9.766,-16.113,-22.949,525.879,0.000
1737551638.358,-21.484,-16.602,-19.531,467.773,0.000
1737551638.362,-29.785,-9.277,-22.949,255.859,0.000
1737551638.366,-26.367,-17.578,-23.438,-28.320,0.000
1737551638.370,-14.648,-20.996,-23.926,-112.793,0.000
1737551638.374,1.953,-13.184,-20.996,533.691,0.000
1737551638.378,-11.719,-20.508,-26.367,436.035,0.000
1737551638.382,-11.230,-20.020,-27.344,197.266,0.000
1737551638.385,-21.484,-14.160,-21.973,6.348,0.000
1737551638.389,-36.133,-19.043,-21.484,-186.523,0.000
1737551638.393,-8.789,-14.648,-21.484,392.578,0.000
1737551638.397,-9.277,-15.137,-10.742,514.648,0.000
1737551638.401,-17.090,-12.695,-8.789,231.445,0.000
1737551638.405,-0.977,-1.953,-12.695,2.441,0.000
1737551638.409,-0.977,-4.395,-13.184,-221.680,0.000
1737551638.413,-1.465,-12.207,-9.277,282.227,0.000
1737551638.417,-15.137,-14.160,-13.184,496.582,0.000
1737551638.421,-30.762,-14.648,-19.043,173.340,0.000
1737551638.425,-29.785,-16.602,-14.160,11.230,0.000
1737551638.428,-30.273,-22.949,-21.484,-274.902,0.000
1737551638.432,-19.531,-29.785,-27.832,123.535,0.000
1737551638.436,5.371,-21.973,-16.113,443.848,0.000
1737551638.440,0.000,-13.184,-16.602,110.840,0.000
1737551638.444,-25.879,-18.555,-20.020,-46.875,0.000
1737551638.448,-45.898,-33.203,-17.090,-309.082,0.000
1737551638.452,-50.293,-31.738,-14.160,-76.172,0.000
1737551638.456,-26.855,-23.438,-6.836,403.320,0.000
1737551638.460,-13.184,-27.344,-10.254,147.461,0.000
1737551638.464,-25.879,-30.273,-15.137,-55.176,0.000
1737551638.468,-26.855,-33.691,-14.648,-307.129,0.000
1737551638.471,-19.531,-35.645,-26.367,-133.789,0.000
1737551638.475,-14.160,-22.461,-21.484,416.504,0.000
1737551638.479,-12.207,-15.137,-14.648,179.688,0.000
1737551638.483,-20.996,-15.137,-18.555,-97.168,0.000
1737551638.487,-48.340,-14.648,-19.043,-374.023,0.000
1737551638.491,-53.223,-14.160,-20.020,-244.629,0.000
1737551638.495,-27.832,-20.020,-12.695,315.430,0.000
1737551638.499,-7.812,-20.508,-10.742,166.504,0.000
1737551638.503,-0.977,-12.207,-12.207,-101.562,0.000
1737551638.507,-24.414,-11.230,-17.578,-380.371,0.000
1737551638.510,-31.738,-16.113,-32.715,-320.801,0.000
1737551638.514,-13.184,-20.020,-35.645,293.457,0.000
1737551638.518,-20.508,-16.113,-14.160,244.141,0.000
1737551638.522,-26.367,-13.184,-9.277,-17.090,0.000
1737551638.526,-24.414,-17.578,-20.020,-342.773,0.000
1737551638.530,-24.414,-9.277,-22.461,-370.117,0.000
1737551638.534,-14.160,-10.742,-15.137,291.504,0.000
1737551638.538,-19.531,-20.020,-14.160,248.047,0.000
1737551638.542,-36.621,-17.090,-19.531,-24.414,0.000
1737551638.546,-41.016,-15.625,-21.484,-144.531,0.000
1737551638.550,-44.434,-12.207,-16.113,-329.102,0.000
1737551638.553,-27.832,-8.789,-12.695,125.488,0.000
1737551638.557,-2.441,-13.672,-9.277,269.531,0.000
1737551638.561,-9.277,-14.648,-3.418,4.883,0.000
1737551638.565,-29.297,-13.184,-4.883,-234.863,0.000
1737551638.569,-36.133,-13.184,-18.066,-392.578,0.000
1737551638.573,-6.348,-13.184,-13.672,146.973,0.000
1737551638.577,12.207,-10.254,-12.207,281.250,0.000
1737551638.581,-2.441,-10.254,-14.648,-15.137,0.000
1737551638.585,-16.113,-14.648,-17.090,-154.785,0.000
1737551638.589,-21.484,-17.578,-21.484,-409.180,0.000
1737551638.592,-14.160,-26.855,-18.555,68.848,0.000
1737551638.596,-11.230,-24.414,-19.531,374.512,0.000
1737551638.600,-20.996,-19.531,-14.160,35.156,0.000
1737551638.604,-19.043,-12.207,-16.113,-81.055,0.000
1737551638.608,-8.301,-11.230,-26.367,-332.031,0.000
1737551638.612,-12.207,-17.090,-7.812,38.086,0.000
1737551638.616,-16.602,-20.508,-4.883,368.164,0.000
1737551638.620,-9.766,-20.508,-10.254,61.035,0.000
1737551638.624,-5.859,-19.531,-11.719,-73.242,0.000
1737551638.628,-18.555,-18.555,-21.973,-385.254,0.000
1737551638.632,-14.648,-17.090,-24.414,-29.785,0.000
1737551638.635,-2.441,-16.602,-29.297,437.988,0.000
1737551638.639,-8.789,-14.648,-19.531,169.922,0.000
