timestamps,TP9,AF7,AF8,TP10,Right AUX
1737552876.384,-20.508,-34.668,-39.551,970.703,0.000
1737552876.388,-8.789,-32.227,0.977,970.703,0.000
1737552876.392,-25.879,-51.758,1.953,970.703,0.000
1737552876.396,-5.859,-59.570,-10.742,970.703,0.000
1737552876.400,10.254,-23.438,-11.230,970.703,0.000
1737552876.403,-14.648,17.090,15.137,970.703,0.000
1737552876.407,-2.441,24.414,12.695,970.703,0.000
1737552876.411,-1.953,5.859,-14.160,970.703,0.000
1737552876.415,-26.367,-55.176,-9.277,970.703,0.000
1737552876.419,-37.109,-68.359,-7.812,970.703,0.000
1737552876.423,-63.477,7.324,-1.465,970.703,0.000
1737552876.427,-31.738,17.090,12.695,970.703,0.000
1737552876.431,-32.227,-30.273,6.836,970.703,0.000
1737552876.435,-51.758,-55.176,-15.625,970.703,0.000
1737552876.439,-19.043,-56.641,-20.508,970.703,0.000
1737552876.443,-19.043,-14.160,17.578,970.703,0.000
1737552876.446,-23.926,-0.488,12.695,975.098,0.000
1737552876.450,-15.137,1.953,-3.418,961.426,0.000
1737552876.454,-19.043,-7.324,-15.137,931.152,0.000
1737552876.458,-15.625,-53.223,-2.930,999.512,0.000
1737552876.462,-29.297,-49.316,7.812,182.617,0.000
1737552876.466,-89.355,-30.273,-22.461,-1000.000,0.000
1737552876.470,-49.805,11.719,6.348,-350.098,0.000
1737552876.474,7.812,21.973,19.531,909.180,0.000
1737552876.478,-7.812,2.441,-21.484,999.512,0.000
1737552876.482,-13.672,-3.906,-11.230,810.059,0.000
1737552876.486,-17.090,-15.625,3.418,241.699,0.000
1737552876.489,-1.465,-39.062,-27.832,740.234,0.000
1737552876.493,-11.230,-49.805,-53.711,999.512,0.000
1737552876.497,-19.531,-38.086,-30.273,990.723,0.000
1737552876.501,-8.301,-21.484,-7.324,789.551,0.000
1737552876.505,-43.457,-65.430,-36.133,-807.129,0.000
1737552876.509,-48.828,-81.543,-29.785,-689.453,0.000
1737552876.513,11.719,-16.113,32.227,791.992,0.000
1737552876.517,10.742,18.555,10.742,999.512,0.000
1737552876.521,-24.414,15.137,-30.273,664.062,0.000
1737552876.525,-57.129,-5.371,-16.602,-789.551,0.000
1737552876.529,-40.527,-45.898,-16.113,-983.887,0.000
1737552876.532,18.066,-51.270,-18.555,601.562,0.000
1737552876.536,15.137,-30.273,-20.996,999.512,0.000
1737552876.540,1.465,-34.668,-33.691,896.973,0.000
1737552876.544,-18.066,-9.277,-20.508,985.352,0.000
1737552876.548,-22.461,-4.883,23.438,970.703,0.000
1737552876.552,-1.465,-38.086,21.484,970.703,0.000
1737552876.556,0.977,-29.785,-37.598,970.703,0.000
1737552876.560,-14.648,-14.160,-36.621,970.703,0.000
1737552876.564,-9.277,37.109,18.555,970.703,0.000
1737552876.568,13.672,34.180,11.230,970.703,0.000
1737552876.571,-37.109,-17.090,-3.906,970.703,0.000
1737552876.575,-46.875,-20.996,9.277,970.703,0.000
1737552876.579,-41.016,-21.973,-11.230,970.703,0.000
1737552876.583,-49.316,-46.387,-17.578,970.703,0.000
1737552876.587,-18.066,-46.387,6.836,970.703,0.000
1737552876.591,-15.625,5.859,-12.695,970.703,0.000
1737552876.595,-14.648,17.090,-51.758,970.703,0.000
1737552876.599,8.789,-18.555,-32.715,970.703,0.000
1737552876.603,-0.488,-35.645,12.695,970.703,0.000
1737552876.607,-20.996,-26.367,4.395,970.703,0.000
1737552876.611,-20.020,-6.836,-6.348,970.703,0.000
1737552876.614,-1.953,-4.395,-15.137,970.703,0.000
1737552876.618,0.977,-14.648,-7.324,970.703,0.000
1737552876.622,-23.926,-31.738,0.000,970.703,0.000
1737552876.626,-25.879,-11.719,-5.371,970.703,0.000
1737552876.630,-2.930,12.695,0.977,970.703,0.000
1737552876.634,2.441,1.953,-18.066,970.703,0.000
1737552876.638,4.883,-34.180,-17.090,970.703,0.000
1737552876.642,27.344,-56.641,-16.602,970.703,0.000
1737552876.646,-1.953,-16.602,-17.090,970.703,0.000
1737552876.650,-46.875,-12.207,11.230,970.703,0.000
1737552876.654,-60.059,-52.246,-24.902,970.703,0.000
1737552876.657,-81.055,-67.871,-67.383,970.703,0.000
1737552876.661,-80.566,-22.949,-7.812,970.703,0.000
1737552876.665,-62.012,10.742,29.785,970.703,0.000
1737552876.669,-50.293,-7.324,10.254,970.703,0.000
1737552876.673,-23.926,-22.461,-18.555,970.703,0.000
1737552876.677,-23.438,-32.715,-46.875,970.703,0.000
1737552876.681,-53.223,-45.898,-53.223,970.703,0.000
1737552876.685,-22.461,-69.824,-17.578,970.703,0.000
1737552876.689,-37.598,-48.828,-5.859,972.656,0.000
1737552876.693,-59.570,-0.977,-37.598,961.426,0.000
1737552876.696,-23.438,15.137,-12.207,982.422,0.000
1737552876.700,-17.578,-5.859,6.348,959.961,0.000
1737552876.704,-23.926,-27.344,-20.508,774.414,0.000
1737552876.708,-28.809,-11.230,-6.348,904.785,0.000
1737552876.712,-33.203,-8.789,-34.180,939.453,0.000
1737552876.716,-34.180,-4.883,-30.273,999.512,0.000
1737552876.720,-29.785,-22.949,12.207,871.582,0.000
1737552876.724,-56.152,-40.039,-25.879,-692.871,0.000
1737552876.728,-53.223,-25.879,-26.367,-1000.000,0.000
1737552876.732,-7.812,-42.480,5.371,562.012,0.000
1737552876.736,13.184,-26.367,-7.812,999.512,0.000
1737552876.739,-15.625,-7.324,-28.809,912.598,0.000
1737552876.743,-91.797,-41.992,-10.742,-489.258,0.000
1737552876.747,-93.262,-33.203,-19.043,-1000.000,0.000
1737552876.751,-18.555,-1.953,-21.484,612.305,0.000
1737552876.755,-7.812,-18.066,-7.324,999.512,0.000
1737552876.759,-20.996,-20.508,-17.090,896.484,0.000
1737552876.763,-32.715,-40.527,-46.387,985.352,0.000
1737552876.767,-21.973,-36.621,-27.832,970.703,0.000
1737552876.771,-18.555,3.418,18.066,970.703,0.000
1737552876.775,-52.734,-17.090,7.812,970.703,0.000
1737552876.779,-47.852,-25.391,-13.184,970.703,0.000
1737552876.782,-36.621,-29.297,-24.902,970.703,0.000
1737552876.786,-25.879,-26.855,-50.781,970.703,0.000
1737552876.790,-20.996,-0.488,-35.645,970.703,0.000
1737552876.794,-25.879,-3.906,2.930,968.262,0.000
1737552876.798,-13.184,-30.762,3.906,979.980,0.000
1737552876.802,-17.090,-28.320,-11.719,926.270,0.000
1737552876.806,-11.230,-3.906,-21.484,929.688,0.000
1737552876.810,-0.977,-2.441,-20.996,948.242,0.000
1737552876.814,14.648,-8.789,-23.438,964.355,0.000
1737552876.818,1.465,-25.879,-32.715,991.211,0.000
1737552876.822,-96.191,-50.293,-34.180,-202.148,0.000
1737552876.825,-129.395,-32.715,-22.461,-1000.000,0.000
1737552876.829,-82.520,-15.625,-0.977,-949.707,0.000
1737552876.833,-43.945,-21.973,-15.625,223.633,0.000
1737552876.837,-22.461,-10.742,-23.926,999.512,0.000
1737552876.841,-50.293,-19.531,-40.527,373.047,0.000
1737552876.845,-80.078,-47.852,-86.426,-1000.000,0.000
1737552876.849,-61.035,-49.316,-22.461,-748.047,0.000
1737552876.853,-25.879,-18.066,20.996,693.848,0.000
1737552876.857,-6.836,0.000,4.883,999.512,0.000
1737552876.861,-10.742,-16.113,-26.367,852.051,0.000
1737552876.864,-49.805,-25.391,-29.785,-569.824,0.000
1737552876.868,-53.223,-28.809,3.418,-1000.000,0.000
1737552876.872,13.184,-30.273,-17.578,420.410,0.000
1737552876.876,20.020,-18.555,-19.043,999.512,0.000
1737552876.880,-36.621,-18.555,-22.949,641.113,0.000
1737552876.884,-80.078,-34.180,-50.781,-685.547,0.000
1737552876.888,-99.609,-28.320,-20.508,-1000.000,0.000
1737552876.892,-62.012,-12.695,-6.836,-197.754,0.000
1737552876.896,1.465,-33.691,-24.902,999.512,0.000
1737552876.900,-12.207,-37.109,-48.340,378.906,0.000
1737552876.904,-65.430,-21.484,-37.598,-917.480,0.000
1737552876.907,-44.434,-24.902,-18.555,-1000.000,0.000
1737552876.911,-13.672,-22.949,-33.203,-972.168,0.000
1737552876.915,1.465,-8.301,-30.762,438.477,0.000
1737552876.919,10.254,0.977,0.488,999.512,0.000
1737552876.923,-42.480,-57.617,-41.016,-542.969,0.000
1737552876.927,-54.199,-74.219,-71.289,-1000.000,0.000
1737552876.931,-16.113,-1.465,-11.230,-480.469,0.000
1737552876.935,23.438,13.672,14.160,744.141,0.000
1737552876.939,40.039,-19.043,-43.457,999.512,0.000
1737552876.943,-20.020,-25.879,-55.176,434.082,0.000
1737552876.947,-83.008,-2.930,5.859,-889.160,0.000
1737552876.950,-26.367,18.066,18.555,-139.160,0.000
1737552876.954,12.695,14.160,-2.441,999.512,0.000
1737552876.958,-3.906,-26.855,-11.719,919.434,0.000
1737552876.962,-32.227,-55.176,-37.598,-430.664,0.000
1737552876.966,-36.621,-28.809,-31.738,-1000.000,0.000
1737552876.970,-36.621,-6.836,-24.902,-957.520,0.000
1737552876.974,-46.875,-17.090,-40.039,-902.832,0.000
1737552876.978,-21.484,-41.016,-44.922,-833.008,0.000
1737552876.982,-7.812,-12.207,-27.344,-1000.000,0.000
1737552876.986,-4.395,4.883,-18.555,-1000.000,0.000
1737552876.989,8.789,-3.906,-10.742,-994.629,0.000
1737552876.993,2.930,-12.695,-11.719,-1000.000,0.000
1737552876.997,-19.531,-19.043,-10.742,-1000.000,0.000
1737552877.001,-21.973,-33.691,-13.184,-964.844,0.000
1737552877.005,6.348,-64.453,-42.969,-1000.000,0.000
1737552877.009,3.906,-58.105,-54.688,-1000.000,0.000
1737552877.013,0.000,-24.414,-48.828,209.961,0.000
1737552877.017,54.688,-3.906,10.254,999.512,0.000
1737552877.021,22.461,5.859,32.715,589.844,0.000
1737552877.025,-71.777,-3.418,-20.996,-866.699,0.000
1737552877.029,-45.898,-18.066,-37.109,-927.734,0.000
1737552877.032,29.785,-1.953,-20.020,656.738,0.000
1737552877.036,29.297,-3.906,-18.066,999.512,0.000
1737552877.040,1.465,-19.043,-19.531,897.461,0.000
1737552877.044,3.418,-32.227,-36.621,986.816,0.000
1737552877.048,-20.996,-47.363,-48.828,970.703,0.000
1737552877.052,-57.617,-20.996,-36.133,970.703,0.000
1737552877.056,-46.875,2.930,-33.203,970.703,0.000
1737552877.060,-7.324,-13.672,-28.809,970.703,0.000
1737552877.064,10.254,-43.945,-16.602,970.703,0.000
1737552877.068,14.160,-24.414,-24.902,970.703,0.000
1737552877.072,-17.578,-11.230,-32.227,970.703,0.000
1737552877.075,-58.105,-29.297,-23.926,970.703,0.000
1737552877.079,-40.527,-39.062,-29.785,970.703,0.000
1737552877.083,-32.227,-18.555,-44.922,970.703,0.000
1737552877.087,-21.973,-2.441,-24.414,970.703,0.000
1737552877.091,-11.230,-81.055,-5.371,970.703,0.000
1737552877.095,-44.922,-57.129,-62.988,970.703,0.000
1737552877.099,-32.227,31.738,-38.574,970.703,0.000
1737552877.103,-58.105,23.438,-1.465,970.703,0.000
1737552877.107,-52.246,16.113,-10.254,970.703,0.000
1737552877.111,-14.648,-1.953,7.812,970.703,0.000
1737552877.115,-29.297,-38.086,-7.324,970.703,0.000
1737552877.118,-58.105,-48.340,-41.016,970.703,0.000
1737552877.122,-58.105,-24.902,-33.691,970.703,0.000
1737552877.126,-48.340,-21.484,-18.555,970.703,0.000
1737552877.130,-33.691,-67.383,-10.742,970.703,0.000
1737552877.134,-16.602,-44.434,-10.254,970.703,0.000
1737552877.138,-9.277,1.465,-29.785,970.703,0.000
1737552877.142,1.953,0.977,-64.453,970.703,0.000
1737552877.146,-18.066,-12.695,-33.691,970.703,0.000
1737552877.150,-41.504,-28.809,-7.324,970.703,0.000
1737552877.154,-34.668,-21.973,-2.441,970.703,0.000
1737552877.157,-25.879,-7.812,0.977,970.703,0.000
1737552877.161,-36.621,-12.207,2.441,970.703,0.000
1737552877.165,-20.020,-23.926,-14.648,970.703,0.000
1737552877.169,10.742,-68.359,-44.434,970.215,0.000
1737552877.173,-21.484,-61.523,-25.391,970.703,0.000
1737552877.177,-60.547,12.695,-10.742,970.703,0.000
1737552877.181,-43.945,12.695,-21.484,970.703,0.000
1737552877.185,-12.695,-14.648,-37.598,970.703,0.000
1737552877.189,-32.715,-29.297,-71.289,970.703,0.000
1737552877.193,-62.500,-28.320,-20.996,970.703,0.000
1737552877.197,-51.758,-27.344,13.672,970.703,0.000
1737552877.200,-26.367,-11.230,-11.719,970.703,0.000
1737552877.204,-14.648,-7.324,-26.855,970.703,0.000
1737552877.208,-19.043,-25.391,-20.020,970.703,0.000
1737552877.212,-15.137,-26.855,-24.902,970.703,0.000
1737552877.216,-7.812,-40.039,-19.043,970.703,0.000
1737552877.220,-1.953,-27.832,-14.648,970.703,0.000
1737552877.224,-30.273,-24.902,-24.414,970.703,0.000
1737552877.228,-46.387,-65.918,-43.945,970.703,0.000
1737552877.232,-52.734,-30.273,-55.664,970.703,0.000
1737552877.236,-79.102,0.000,-32.227,970.703,0.000
1737552877.240,-87.891,-9.766,-23.438,970.703,0.000
1737552877.243,-65.430,-26.367,-39.551,970.215,0.000
1737552877.247,-47.363,-34.668,-26.855,970.703,0.000
1737552877.251,-40.527,-21.484,9.277,970.703,0.000
1737552877.255,-30.762,-30.762,3.906,970.703,0.000
1737552877.259,-30.273,-37.109,-25.879,970.703,0.000
1737552877.263,-41.016,-25.879,-36.621,970.703,0.000
1737552877.267,-33.203,-38.086,-40.039,970.703,0.000
1737552877.271,-40.527,-45.898,-55.176,970.703,0.000
1737552877.275,-53.711,-10.254,-43.945,970.703,0.000
1737552877.279,-37.109,-8.789,-38.574,970.703,0.000
1737552877.283,-9.277,-28.809,-39.062,970.703,0.000
1737552877.286,-19.043,-35.645,-13.672,970.703,0.000
1737552877.290,-33.691,-37.109,-21.484,970.703,0.000
1737552877.294,-18.555,-19.531,-22.461,970.703,0.000
1737552877.298,-11.719,-25.879,-6.348,970.703,0.000
1737552877.302,-8.789,-41.504,-14.160,970.703,0.000
1737552877.306,-18.066,-17.090,-57.129,970.703,0.000
1737552877.310,-42.969,-8.301,-72.754,970.703,0.000
1737552877.314,-71.289,-7.812,-44.434,970.703,0.000
1737552877.318,-60.547,-19.531,-25.879,970.703,0.000
1737552877.322,-40.527,-24.902,-25.879,970.703,0.000
1737552877.325,-38.086,-42.969,-12.695,970.703,0.000
1737552877.329,-45.410,-86.426,-18.555,970.703,0.000
1737552877.333,-59.082,-43.457,-44.922,970.703,0.000
1737552877.337,-52.734,15.137,-45.410,970.703,0.000
1737552877.341,-42.480,13.672,-12.695,970.703,0.000
1737552877.345,-32.227,-6.836,-34.180,970.703,0.000
1737552877.349,-18.555,-42.969,-37.598,970.703,0.000
1737552877.353,-23.438,-42.480,-22.949,970.703,0.000
1737552877.357,-38.086,-15.625,-13.184,970.703,0.000
1737552877.361,-41.504,-13.672,-23.926,970.703,0.000
1737552877.365,-19.531,-29.785,-42.969,986.816,0.000
1737552877.368,3.906,-34.180,-34.668,914.062,0.000
1737552877.372,-3.418,-33.691,-33.691,999.512,0.000
1737552877.376,0.488,-39.551,-40.527,871.094,0.000
1737552877.380,-19.043,-29.785,-40.039,-580.078,0.000
1737552877.384,-38.574,-11.230,-21.484,-1000.000,0.000
1737552877.388,-52.246,-4.883,-22.461,-925.781,0.000
1737552877.392,-63.477,-17.578,-30.762,-1000.000,0.000
1737552877.396,-37.598,-35.156,-43.457,-1000.000,0.000
1737552877.400,-21.973,-39.551,-44.434,-1000.000,0.000
1737552877.404,-36.133,-41.016,-21.973,-1000.000,0.000
1737552877.408,-33.203,-42.969,-34.180,-1000.000,0.000
1737552877.411,-33.203,-33.203,-44.922,-1000.000,0.000
1737552877.415,-21.484,5.859,-13.184,-1000.000,0.000
1737552877.419,-23.438,-8.789,-5.859,-1000.000,0.000
1737552877.423,-21.973,-32.715,-18.066,-1000.000,0.000
1737552877.427,-8.301,-18.066,-14.648,-1000.000,0.000
1737552877.431,-34.180,2.930,-16.602,-1000.000,0.000
1737552877.435,-16.113,-0.488,-23.438,-1000.000,0.000
1737552877.439,17.090,-23.926,-48.828,-1000.000,0.000
1737552877.443,-10.742,-16.602,-57.617,-1000.000,0.000
1737552877.447,-10.742,-11.719,-43.945,-1000.000,0.000
1737552877.450,-3.418,-33.203,-45.410,-1000.000,0.000
1737552877.454,-9.277,-62.988,-26.367,-1000.000,0.000
1737552877.458,-7.812,-53.223,-12.695,-1000.000,0.000
1737552877.462,-4.883,-14.160,-14.648,-939.941,0.000
1737552877.466,-1.953,-16.113,-16.602,-1000.000,0.000
1737552877.470,15.137,-37.598,-29.785,-645.996,0.000
1737552877.474,68.848,-16.602,-39.551,753.906,0.000
1737552877.478,53.711,0.977,-38.574,999.512,0.000
1737552877.482,46.875,5.859,-13.672,911.133,0.000
1737552877.486,62.012,0.488,0.488,989.746,0.000
1737552877.490,23.926,-20.020,-17.578,959.473,0.000
1737552877.493,-15.625,-33.203,-40.527,933.594,0.000
1737552877.497,3.906,-33.203,-35.156,999.512,0.000
1737552877.501,-7.812,-29.785,-15.625,123.535,0.000
1737552877.505,-63.477,-23.926,-10.742,-1000.000,0.000
1737552877.509,-60.059,-27.344,-42.480,-935.059,0.000
1737552877.513,-15.625,-41.016,-28.320,386.719,0.000
1737552877.517,3.906,-15.625,-18.555,999.512,0.000
1737552877.521,-27.344,-19.531,-42.480,500.977,0.000
1737552877.525,-49.316,-40.527,-29.785,-806.152,0.000
1737552877.529,-35.156,-23.926,-30.273,-1000.000,0.000
1737552877.533,1.465,-11.230,-32.715,100.098,0.000
1737552877.536,58.594,-6.348,-23.926,999.512,0.000
1737552877.540,31.738,-20.996,-32.227,821.777,0.000
1737552877.544,-14.648,-29.785,-31.738,-509.766,0.000
1737552877.548,-5.859,-38.086,-38.574,-1000.000,0.000
1737552877.552,14.160,-30.762,-40.039,-701.172,0.000
1737552877.556,49.805,-18.066,-33.203,790.039,0.000
1737552877.560,24.902,-24.414,-21.973,528.320,0.000
1737552877.564,-27.832,-15.625,-3.906,-973.633,0.000
1737552877.568,-51.758,-26.367,-35.645,-1000.000,0.000
1737552877.572,-48.340,-55.664,-34.180,-952.148,0.000
1737552877.576,-39.551,-28.809,-8.789,-1000.000,0.000
1737552877.579,-36.133,0.000,-15.137,-1000.000,0.000
1737552877.583,-17.578,-14.160,-9.766,-1000.000,0.000
1737552877.587,0.000,-14.648,-11.719,-1000.000,0.000
1737552877.591,-2.930,-21.973,-34.668,-1000.000,0.000
1737552877.595,-20.996,-30.762,-34.668,-1000.000,0.000
1737552877.599,-40.527,-23.926,-24.414,-1000.000,0.000
1737552877.603,-26.855,-20.508,-21.484,-941.406,0.000
1737552877.607,-4.395,-24.414,-33.691,-1000.000,0.000
1737552877.611,-11.719,-29.785,-51.270,-868.652,0.000
1737552877.615,34.180,-24.902,-29.297,586.426,0.000
1737552877.618,51.270,-56.641,-22.949,999.512,0.000
1737552877.622,18.066,-60.059,-10.742,891.602,0.000
1737552877.626,28.320,-7.324,4.395,983.398,0.000
1737552877.630,40.527,-7.324,-24.902,972.168,0.000
1737552877.634,40.039,-20.508,-21.973,970.215,0.000
1737552877.638,25.391,-15.625,-33.691,970.703,0.000
1737552877.642,16.602,-12.207,-47.363,970.703,0.000
1737552877.646,18.066,-21.484,-20.020,970.703,0.000
1737552877.650,15.137,-24.414,-10.254,970.703,0.000
1737552877.654,16.602,-17.578,-40.039,970.703,0.000
1737552877.658,9.766,-24.414,-53.711,970.703,0.000
1737552877.661,-18.066,-35.156,-27.344,970.703,0.000
1737552877.665,-20.020,-33.691,-12.207,970.703,0.000
1737552877.669,13.184,-37.109,-1.465,970.703,0.000
1737552877.673,35.645,-41.016,-14.160,970.703,0.000
1737552877.677,-4.395,-27.344,-36.621,970.703,0.000
1737552877.681,-39.062,-20.996,-43.457,970.703,0.000
1737552877.685,-5.859,-16.113,-51.758,970.703,0.000
1737552877.689,-4.395,-17.090,-33.203,970.703,0.000
1737552877.693,-5.371,-30.762,-23.926,970.703,0.000
1737552877.697,-15.137,-52.246,-45.410,970.703,0.000
1737552877.701,-20.020,-34.668,-22.949,970.703,0.000
1737552877.704,-1.465,-0.977,8.301,970.703,0.000
1737552877.708,-32.715,-10.742,-10.254,970.703,0.000
1737552877.712,-24.902,-17.090,-22.949,970.703,0.000
1737552877.716,0.000,-14.160,-27.344,970.703,0.000
1737552877.720,5.859,-37.598,-45.410,970.703,0.000
1737552877.724,-9.766,-41.992,-51.270,970.703,0.000
1737552877.728,-13.184,-19.531,-35.645,980.957,0.000
1737552877.732,-38.574,-13.184,-49.316,933.105,0.000
1737552877.736,-61.035,-24.414,-34.668,975.586,0.000
1737552877.740,-47.363,-34.668,-11.719,979.004,0.000
1737552877.743,-53.711,-37.598,-17.090,-291.016,0.000
1737552877.747,-66.406,-43.457,-13.184,-1000.000,0.000
1737552877.751,-36.133,-32.227,-13.184,-79.102,0.000
1737552877.755,8.789,-7.812,-22.949,985.840,0.000
1737552877.759,10.254,-18.066,-46.387,972.656,0.000
1737552877.763,-12.695,-43.945,-58.594,852.051,0.000
1737552877.767,-22.949,-43.457,-43.945,896.973,0.000
1737552877.771,-19.043,-39.062,-35.645,990.234,0.000
1737552877.775,-35.156,-18.066,-40.527,954.590,0.000
1737552877.779,-41.504,-9.277,-39.551,997.559,0.000
1737552877.783,-33.203,-23.438,-36.621,880.371,0.000
1737552877.786,-34.180,-28.809,-28.809,800.293,0.000
1737552877.790,-25.879,-13.672,-21.973,955.078,0.000
1737552877.794,-31.250,-15.625,-27.344,947.754,0.000
1737552877.798,-15.137,-18.555,-29.297,999.512,0.000
1737552877.802,-25.391,-21.973,-28.809,99.121,0.000
1737552877.806,-52.734,-41.016,-31.250,-1000.000,0.000
1737552877.810,-39.551,-33.203,-41.504,-767.578,0.000
1737552877.814,-15.137,-21.973,-44.922,678.223,0.000
1737552877.818,-12.695,-25.879,-44.434,999.512,0.000
1737552877.822,-18.555,-32.227,-53.711,-136.719,0.000
1737552877.826,-47.852,-33.691,-37.598,-985.840,0.000
1737552877.829,-79.590,-15.625,-34.668,-1000.000,0.000
1737552877.833,-54.688,-10.742,-29.785,-789.551,0.000
1737552877.837,2.441,-11.719,-17.090,639.648,0.000
1737552877.841,-24.414,-21.484,-33.691,-199.707,0.000
1737552877.845,-61.523,-24.902,-43.457,-1000.000,0.000
1737552877.849,-12.207,-19.531,-24.414,-924.316,0.000
1737552877.853,-5.371,-18.066,-24.902,-1000.000,0.000
1737552877.857,-7.812,-29.297,-54.199,-1000.000,0.000
1737552877.861,-4.883,-36.133,-55.664,-1000.000,0.000
1737552877.865,12.695,-37.109,-31.738,-1000.000,0.000
1737552877.868,13.184,-42.969,-21.973,-1000.000,0.000
1737552877.872,-23.926,-24.414,-24.902,-1000.000,0.000
1737552877.876,-36.621,-2.930,-22.949,-1000.000,0.000
1737552877.880,-22.461,-5.371,-20.996,-1000.000,0.000
1737552877.884,-35.156,-28.320,-22.461,-1000.000,0.000
1737552877.888,-36.621,-17.090,-24.902,-1000.000,0.000
1737552877.892,3.906,-1.465,-29.297,-1000.000,0.000
1737552877.896,21.484,-8.789,-54.199,-1000.000,0.000
1737552877.900,36.133,-22.949,-53.711,-1000.000,0.000
1737552877.904,19.531,-29.785,-51.758,-945.312,0.000
1737552877.908,-20.508,-19.531,-38.086,-1000.000,0.000
1737552877.911,-11.230,-19.531,-18.555,-441.895,0.000
1737552877.915,36.133,-19.531,-23.926,869.141,0.000
1737552877.919,41.016,-38.086,-14.648,999.512,0.000
1737552877.923,20.508,-50.293,-26.855,924.805,0.000
1737552877.927,18.555,-25.391,-42.480,982.910,0.000
1737552877.931,-5.859,-1.465,-33.203,970.703,0.000
1737552877.935,-37.109,-20.996,-16.602,970.703,0.000
1737552877.939,-35.156,-41.992,-25.391,970.703,0.000
1737552877.943,-45.410,-34.668,-33.203,970.703,0.000
1737552877.947,-24.902,-37.598,-28.320,970.703,0.000
1737552877.951,-14.160,-48.340,-37.109,970.703,0.000
1737552877.954,-34.180,-31.250,-38.086,970.703,0.000
1737552877.958,-60.547,-4.883,-39.062,970.703,0.000
1737552877.962,-69.824,-28.320,-30.762,970.703,0.000
1737552877.966,-39.062,-36.133,-39.551,970.703,0.000
1737552877.970,-30.273,-18.555,-37.598,970.703,0.000
1737552877.974,-58.594,-27.344,-28.809,970.703,0.000
1737552877.978,-30.762,-33.691,-47.852,970.703,0.000
1737552877.982,-29.785,-45.410,-36.621,970.703,0.000
1737552877.986,-50.293,-52.734,-14.160,971.191,0.000
1737552877.990,-37.109,-33.203,-17.090,984.375,0.000
1737552877.994,-38.086,-27.344,-20.508,909.180,0.000
1737552877.997,-31.250,-25.879,-35.156,999.512,0.000
1737552878.001,-49.805,-45.898,-46.875,682.129,0.000
1737552878.005,-83.008,-53.711,-39.062,-675.781,0.000
1737552878.009,-66.895,-14.648,-16.113,-1000.000,0.000
1737552878.013,-51.270,-6.348,-19.531,-661.621,0.000
1737552878.017,-22.461,-17.090,-29.297,791.016,0.000
1737552878.021,-29.785,-19.043,-31.250,765.137,0.000
1737552878.025,-62.012,-18.066,-26.855,-747.559,0.000
1737552878.029,-33.691,-33.691,-24.902,-1000.000,0.000
1737552878.033,8.301,-50.781,-38.086,-435.059,0.000
1737552878.036,39.551,-23.926,-36.621,916.992,0.000
1737552878.040,21.484,-24.902,-38.574,726.074,0.000
1737552878.044,-34.668,-27.832,-37.109,-787.598,0.000
1737552878.048,-35.645,-1.465,-22.461,-1000.000,0.000
1737552878.052,-38.574,-15.625,-35.645,-936.523,0.000
1737552878.056,-54.688,-40.039,-59.570,-1000.000,0.000
1737552878.060,-48.828,-21.973,-40.527,-997.559,0.000
1737552878.064,-36.621,0.000,-14.160,-1000.000,0.000
1737552878.068,-6.348,1.465,-22.949,-1000.000,0.000
1737552878.072,-22.461,-12.695,-39.551,-1000.000,0.000
1737552878.076,-41.016,-25.879,-38.574,-1000.000,0.000
1737552878.079,-38.574,-23.926,-32.715,-1000.000,0.000
1737552878.083,-28.809,-31.738,-31.250,-997.559,0.000
1737552878.087,4.883,-39.551,-34.180,-985.352,0.000
1737552878.091,-13.184,-27.832,-23.926,-1000.000,0.000
1737552878.095,-11.719,-31.250,-50.781,-663.574,0.000
1737552878.099,3.906,-33.691,-66.406,-571.777,0.000
1737552878.103,-24.902,-9.277,-29.785,-1000.000,0.000
1737552878.107,-21.973,-9.277,-16.113,-1000.000,0.000
1737552878.111,4.395,-21.973,-23.926,-987.793,0.000
1737552878.115,5.859,-31.738,-35.156,-1000.000,0.000
1737552878.119,7.812,-35.156,-47.363,-1000.000,0.000
1737552878.122,20.020,-29.297,-41.992,-1000.000,0.000
1737552878.126,4.883,-9.766,-25.879,-945.312,0.000
1737552878.130,-15.137,-9.277,-24.414,-1000.000,0.000
1737552878.134,-32.227,-35.645,-32.715,-907.715,0.000
1737552878.138,12.207,-25.879,-39.062,647.949,0.000
1737552878.142,0.977,-9.766,-56.152,689.941,0.000
1737552878.146,-44.922,-36.133,-40.039,-866.699,0.000
1737552878.150,-18.555,-46.387,-25.391,-1000.000,0.000
1737552878.154,-12.207,-25.391,-21.973,-3.906,0.000
1737552878.158,7.812,-4.395,-13.672,999.512,0.000
1737552878.161,3.906,-9.277,-19.531,764.160,0.000
1737552878.165,-43.945,-36.133,-29.785,-686.035,0.000
1737552878.169,-32.227,-45.410,-41.992,-1000.000,0.000
1737552878.173,-0.488,-39.062,-44.922,67.871,0.000
1737552878.177,24.902,-32.227,-38.574,999.512,0.000
1737552878.181,7.812,-40.527,-28.809,434.570,0.000
1737552878.185,-65.430,-28.320,-33.203,-899.414,0.000
1737552878.189,-66.406,2.441,-29.785,-1000.000,0.000
1737552878.193,-63.477,-3.906,-20.508,-950.684,0.000
1737552878.197,-57.617,-20.020,-14.160,-1000.000,0.000
1737552878.201,-17.090,-19.043,-18.555,-1000.000,0.000
1737552878.204,20.508,-20.508,-32.227,-1000.000,0.000
1737552878.208,22.949,-30.273,-37.598,-1000.000,0.000
1737552878.212,-8.301,-36.133,-36.133,-1000.000,0.000
1737552878.216,-41.016,-51.270,-49.316,-1000.000,0.000
1737552878.220,-31.738,-58.105,-56.641,-1000.000,0.000
1737552878.224,-25.879,-41.016,-53.223,-1000.000,0.000
1737552878.228,-46.875,-27.344,-49.805,-1000.000,0.000
1737552878.232,-59.082,-12.207,-26.367,-1000.000,0.000
1737552878.236,-47.852,-16.602,-10.254,-1000.000,0.000
1737552878.240,-30.762,-26.855,-9.766,-1000.000,0.000
1737552878.244,-12.207,-22.461,-15.137,-980.957,0.000
1737552878.247,2.441,-52.246,-27.344,-969.238,0.000
1737552878.251,-26.855,-55.176,-36.621,-1000.000,0.000
1737552878.255,-22.949,-36.621,-28.320,17.578,0.000
1737552878.259,10.254,-29.297,-36.133,991.211,0.000
1737552878.263,-28.320,-27.832,-59.570,-438.477,0.000
1737552878.267,-52.246,-39.062,-48.340,-1000.000,0.000
1737552878.271,-47.363,-16.602,-32.715,-944.336,0.000
1737552878.275,-41.504,0.977,-24.902,-928.223,0.000
1737552878.279,-27.832,-9.766,-11.719,-884.277,0.000
1737552878.283,-19.531,-19.531,-22.461,-1000.000,0.000
1737552878.287,-6.836,-37.598,-41.504,-1000.000,0.000
1737552878.290,-17.090,-32.227,-45.410,-997.070,0.000
1737552878.294,-18.555,-22.949,-30.273,-1000.000,0.000
1737552878.298,12.695,-36.621,-28.320,-1000.000,0.000
1737552878.302,-4.883,-22.461,-35.156,-1000.000,0.000
1737552878.306,-7.812,-12.207,-37.598,-947.754,0.000
1737552878.310,5.859,-19.043,-43.457,-1000.000,0.000
1737552878.314,0.000,-36.133,-43.945,-705.078,0.000
1737552878.318,17.090,-28.809,-40.039,689.941,0.000
1737552878.322,-20.996,-18.555,-21.973,-39.551,0.000
1737552878.326,-63.965,-43.945,-15.137,-1000.000,0.000
1737552878.329,-40.039,-40.039,-22.461,-947.266,0.000
1737552878.333,-43.945,-12.207,-22.949,-991.699,0.000
1737552878.337,-50.781,-14.160,-33.203,-1000.000,0.000
1737552878.341,-36.133,-56.641,-43.457,-965.332,0.000
1737552878.345,-28.320,-60.059,-40.527,-1000.000,0.000
1737552878.349,-34.668,-24.902,-38.086,-993.652,0.000
1737552878.353,9.277,-4.883,-21.484,201.172,0.000
1737552878.357,26.855,-8.789,-18.555,999.512,0.000
1737552878.361,-27.832,-7.324,-24.414,589.844,0.000
1737552878.365,-55.176,-15.137,-26.855,-766.113,0.000
1737552878.369,-33.691,-23.926,-28.809,-1000.000,0.000
1737552878.372,-51.270,-22.949,-36.133,-938.965,0.000
1737552878.376,-69.824,-21.973,-33.691,-1000.000,0.000
1737552878.380,-54.688,-34.668,-34.668,-1000.000,0.000
1737552878.384,-22.949,-48.828,-38.086,-1000.000,0.000
1737552878.388,-7.324,-43.457,-29.785,-1000.000,0.000
1737552878.392,-25.879,-18.555,-34.668,-1000.000,0.000
1737552878.396,-50.781,-19.043,-36.133,-1000.000,0.000
1737552878.400,-50.781,-33.691,-30.273,-1000.000,0.000
1737552878.404,-52.734,-23.438,-44.434,-951.172,0.000
1737552878.408,-59.082,-22.949,-57.129,-1000.000,0.000
1737552878.412,-58.594,-39.062,-42.480,-925.293,0.000
1737552878.415,-6.348,-30.273,-35.156,405.762,0.000
1737552878.419,21.484,-19.531,-40.039,999.512,0.000
1737552878.423,-17.090,-27.832,-27.344,594.727,0.000
1737552878.427,-51.758,-37.598,-25.391,-826.660,0.000
1737552878.431,-46.387,-55.664,-47.363,-822.266,0.000
1737552878.435,-4.883,-52.246,-29.785,717.285,0.000
1737552878.439,-3.418,-24.902,-11.719,999.512,0.000
1737552878.443,-28.809,-2.441,-21.484,26.367,0.000
1737552878.447,-35.645,0.977,-24.902,-1000.000,0.000
1737552878.451,-29.297,-19.531,-41.016,-989.258,0.000
1737552878.455,-20.996,-40.527,-60.059,-976.074,0.000
1737552878.458,-19.531,-26.367,-47.852,-1000.000,0.000
1737552878.462,-42.969,-1.953,-37.109,-1000.000,0.000
1737552878.466,-15.137,-22.461,-22.949,-1000.000,0.000
1737552878.470,3.906,-41.016,-6.348,-1000.000,0.000
1737552878.474,-32.227,-29.297,-22.949,-1000.000,0.000
1737552878.478,-45.898,-24.414,-23.926,-1000.000,0.000
1737552878.482,-33.691,-23.926,-14.160,-1000.000,0.000
1737552878.486,-10.254,-22.461,-23.926,-1000.000,0.000
1737552878.490,4.395,-16.602,-32.715,-1000.000,0.000
1737552878.494,-8.301,-14.160,-28.809,-1000.000,0.000
1737552878.497,-23.926,-43.945,-44.434,-1000.000,0.000
1737552878.501,-20.996,-55.664,-38.574,-1000.000,0.000
1737552878.505,-4.883,-33.691,-13.672,-965.820,0.000
1737552878.509,-10.254,-35.645,-40.527,-996.582,0.000
1737552878.513,-32.715,-20.508,-29.297,-1000.000,0.000
1737552878.517,8.789,0.977,-3.418,319.336,0.000
1737552878.521,0.977,8.301,-27.832,629.883,0.000
1737552878.525,-52.734,1.465,-31.250,-866.699,0.000
1737552878.529,-18.555,-20.020,-3.418,-1000.000,0.000
1737552878.533,-33.203,-35.645,-14.648,-1000.000,0.000
1737552878.537,-15.137,-25.391,-30.762,-80.566,0.000
1737552878.540,20.508,-18.066,-23.926,788.574,0.000
1737552878.544,-34.668,-23.438,-32.227,-644.531,0.000
1737552878.548,-34.180,-16.113,-37.109,-1000.000,0.000
1737552878.552,-16.113,-13.672,-31.738,-1000.000,0.000
1737552878.556,3.418,-13.184,-28.809,-127.441,0.000
1737552878.560,38.574,-7.324,-16.113,887.207,0.000
1737552878.564,-25.879,-24.414,-26.367,-519.531,0.000
1737552878.568,-58.594,-29.297,-49.316,-1000.000,0.000
1737552878.572,-59.570,-29.297,-41.016,-918.457,0.000
1737552878.576,-66.406,-30.762,-22.949,-1000.000,0.000
1737552878.579,-46.387,-25.391,-23.438,-1000.000,0.000
1737552878.583,-52.734,-21.973,-39.551,-1000.000,0.000
1737552878.587,-42.969,-10.742,-41.016,-1000.000,0.000
1737552878.591,-26.855,-8.301,-41.016,-1000.000,0.000
1737552878.595,-32.227,-22.461,-29.785,-1000.000,0.000
1737552878.599,-26.855,-37.109,-18.555,-1000.000,0.000
1737552878.603,-17.090,-42.480,-28.320,-966.797,0.000
1737552878.607,-6.348,-41.016,-23.438,-999.512,0.000
1737552878.611,-18.555,-26.855,-23.926,-1000.000,0.000
1737552878.615,0.488,-11.719,-47.852,201.660,0.000
1737552878.619,26.367,-16.602,-45.898,999.512,0.000
1737552878.622,-8.789,-27.832,-17.090,119.629,0.000
1737552878.626,-45.410,-20.996,-20.996,-971.191,0.000
1737552878.630,-35.645,-11.230,-28.320,-1000.000,0.000
1737552878.634,-16.113,-20.020,-22.949,-202.148,0.000
1737552878.638,19.531,-33.203,-28.809,999.512,0.000
1737552878.642,11.719,-39.551,-39.062,211.426,0.000
1737552878.646,-20.020,-39.062,-34.180,-961.914,0.000
1737552878.650,-8.301,-29.297,-24.414,-1000.000,0.000
1737552878.654,-14.160,-7.812,-21.973,-596.680,0.000
1737552878.658,16.602,-10.742,-10.254,870.605,0.000
1737552878.662,5.371,-17.090,-22.461,397.461,0.000
1737552878.665,-42.480,-19.531,-32.227,-1000.000,0.000
1737552878.669,-35.156,-36.133,-30.273,-1000.000,0.000
1737552878.673,-43.457,-46.875,-40.527,-959.961,0.000
1737552878.677,-48.828,-23.438,-48.340,-1000.000,0.000
1737552878.681,-39.062,-15.625,-48.340,-1000.000,0.000
1737552878.685,-25.879,-17.578,-14.648,-1000.000,0.000
1737552878.689,-20.508,-29.785,-13.184,-1000.000,0.000
1737552878.693,-20.508,-41.504,-16.113,-1000.000,0.000
1737552878.697,-11.230,-23.926,-14.648,-1000.000,0.000
1737552878.701,-24.902,-24.902,-24.414,-1000.000,0.000
1737552878.705,-14.160,-27.344,-29.785,-996.582,0.000
1737552878.708,-3.418,-3.418,-39.062,-1000.000,0.000
1737552878.712,-25.879,-3.906,-37.598,-1000.000,0.000
1737552878.716,-55.664,-27.344,-28.320,-874.512,0.000
1737552878.720,-53.711,-28.320,-26.367,-926.758,0.000
1737552878.724,-36.621,-26.367,-39.551,-964.844,0.000
1737552878.728,-36.621,-37.109,-43.457,-1000.000,0.000
1737552878.732,-22.461,-45.410,-41.016,-507.812,0.000
1737552878.736,21.484,-34.668,-34.180,789.062,0.000
1737552878.740,12.695,-14.160,-28.809,999.512,0.000
1737552878.744,-26.855,-2.930,-39.551,310.547,0.000
1737552878.748,-44.922,-11.230,-36.621,-875.977,0.000
1737552878.751,-6.836,-13.184,-20.020,94.238,0.000
1737552878.755,25.391,-15.625,-11.719,999.512,0.000
1737552878.759,12.207,-21.973,-20.996,823.242,0.000
1737552878.763,-34.180,-42.969,-34.668,-561.035,0.000
1737552878.767,-27.832,-73.242,-33.203,-1000.000,0.000
1737552878.771,-11.719,-46.875,-43.945,-925.781,0.000
1737552878.775,-46.387,-7.812,-51.270,-1000.000,0.000
1737552878.779,-72.266,-8.789,-29.785,-1000.000,0.000
1737552878.783,-70.312,-19.531,-14.160,-1000.000,0.000
1737552878.787,-38.086,-20.996,-24.902,-1000.000,0.000
1737552878.790,-21.973,-30.273,-39.062,-1000.000,0.000
1737552878.794,-52.246,-31.738,-35.645,-1000.000,0.000
1737552878.798,-57.129,-41.016,-23.926,-1000.000,0.000
1737552878.802,-31.250,-48.340,-31.738,-1000.000,0.000
1737552878.806,-20.996,-32.715,-33.203,-1000.000,0.000
1737552878.810,-6.348,-24.414,-15.625,-1000.000,0.000
1737552878.814,2.930,-24.902,-31.738,-1000.000,0.000
1737552878.818,-5.859,-17.090,-54.199,-1000.000,0.000
1737552878.822,-22.949,-23.926,-40.527,-1000.000,0.000
1737552878.826,-31.250,-30.273,-32.227,-1000.000,0.000
1737552878.830,-24.414,-20.020,-20.508,-1000.000,0.000
1737552878.833,-18.555,-25.879,-15.137,-1000.000,0.000
1737552878.837,-27.832,-34.180,-36.133,-1000.000,0.000
1737552878.841,-35.156,-29.297,-42.480,-1000.000,0.000
1737552878.845,-19.531,-22.461,-26.855,-980.469,0.000
1737552878.849,8.789,-26.367,-20.508,-975.098,0.000
1737552878.853,-8.301,-25.879,-35.645,-1000.000,0.000
1737552878.857,-17.090,-23.438,-42.969,28.320,0.000
1737552878.861,-17.578,-22.461,-41.504,709.961,0.000
1737552878.865,-41.016,-15.625,-39.551,-713.379,0.000
1737552878.869,-30.762,-19.043,-22.949,-1000.000,0.000
1737552878.873,-26.367,-40.039,-17.090,-925.293,0.000
1737552878.876,-42.969,-41.504,-24.902,-1000.000,0.000
1737552878.880,-46.387,-23.926,-23.438,-1000.000,0.000
1737552878.884,-16.113,-27.344,-33.203,-1000.000,0.000
1737552878.888,8.301,-23.438,-36.133,-1000.000,0.000
1737552878.892,-20.508,-19.531,-15.137,-1000.000,0.000
1737552878.896,-45.410,-32.227,-2.930,-1000.000,0.000
1737552878.900,-23.438,-58.105,-17.090,-1000.000,0.000
1737552878.904,-15.625,-28.809,-31.250,-1000.000,0.000
1737552878.908,-14.648,7.812,-24.902,-1000.000,0.000
1737552878.912,-24.902,-6.836,-19.531,-1000.000,0.000
1737552878.915,-26.367,-26.855,-28.809,-1000.000,0.000
1737552878.919,-15.625,-31.250,-41.016,-1000.000,0.000
1737552878.923,-17.090,-27.832,-33.203,-993.652,0.000
1737552878.927,-0.977,-49.805,-28.809,-955.078,0.000
1737552878.931,-9.277,-42.480,-41.016,-1000.000,0.000
1737552878.935,-21.484,-19.531,-36.621,-260.742,0.000
1737552878.939,5.371,-42.480,-34.180,999.512,0.000
1737552878.943,-6.348,-46.387,-38.086,83.008,0.000
1737552878.947,-38.086,-15.625,-42.480,-1000.000,0.000
1737552878.951,-19.531,-5.371,-44.922,-1000.000,0.000
1737552878.955,0.000,-14.648,-28.320,-458.984,0.000
1737552878.958,22.949,-15.137,-9.766,807.129,0.000
1737552878.962,-19.043,-27.832,-27.832,-280.273,0.000
1737552878.966,-50.781,-37.598,-38.086,-1000.000,0.000
1737552878.970,-40.039,-12.695,-22.949,-924.805,0.000
1737552878.974,-33.691,-2.930,-25.879,-1000.000,0.000
1737552878.978,-24.902,-15.625,-41.992,-1000.000,0.000
1737552878.982,-38.086,-24.902,-33.691,-1000.000,0.000
1737552878.986,-23.438,-27.832,-30.273,-1000.000,0.000
1737552878.990,-17.578,-27.344,-20.508,-1000.000,0.000
1737552878.994,-26.367,-29.297,-14.160,-1000.000,0.000
1737552878.998,-23.926,-40.039,-36.621,-1000.000,0.000
1737552879.001,-44.434,-31.738,-47.363,-1000.000,0.000
1737552879.005,-26.367,-17.578,-37.598,-1000.000,0.000
1737552879.009,-14.648,-8.301,-36.621,-1000.000,0.000
1737552879.013,-45.410,-13.184,-22.461,-1000.000,0.000
1737552879.017,-38.086,-24.902,-19.043,-1000.000,0.000
1737552879.021,-25.391,-17.578,-22.461,-1000.000,0.000
1737552879.025,-40.039,-21.484,-21.484,-1000.000,0.000
1737552879.029,-48.340,-36.621,-31.738,-1000.000,0.000
1737552879.033,-21.973,-38.086,-49.316,-1000.000,0.000
1737552879.037,-16.113,-32.227,-49.805,-1000.000,0.000
1737552879.040,-34.668,-28.320,-30.762,-1000.000,0.000
1737552879.044,-29.297,-25.879,-21.484,-1000.000,0.000
1737552879.048,-30.762,-28.320,-34.180,-1000.000,0.000
1737552879.052,-21.484,-28.809,-40.039,-1000.000,0.000
1737552879.056,-20.996,-31.738,-41.016,-1000.000,0.000
1737552879.060,-40.039,-48.340,-36.133,-1000.000,0.000
1737552879.064,-33.691,-43.457,-19.043,-1000.000,0.000
1737552879.068,-10.742,-18.066,-35.156,-1000.000,0.000
1737552879.072,-20.508,-11.230,-22.461,-1000.000,0.000
1737552879.076,-31.738,-20.996,-20.020,-1000.000,0.000
1737552879.080,-24.902,-29.785,-30.273,-1000.000,0.000
1737552879.083,-15.625,-42.480,-44.922,-1000.000,0.000
1737552879.087,-12.207,-41.504,-64.941,-1000.000,0.000
1737552879.091,-20.020,-19.531,-33.691,-1000.000,0.000
1737552879.095,-1.953,-30.273,-18.066,-1000.000,0.000
1737552879.099,2.441,-45.898,-33.691,-1000.000,0.000
1737552879.103,2.441,-15.137,-26.367,-1000.000,0.000
1737552879.107,2.441,-3.906,-28.320,-1000.000,0.000
1737552879.111,-16.113,-21.973,-27.344,-1000.000,0.000
1737552879.115,-44.434,-29.297,-40.527,-1000.000,0.000
1737552879.119,-54.688,-33.691,-72.266,-1000.000,0.000
1737552879.123,-28.809,-35.156,-45.898,-1000.000,0.000
1737552879.126,-27.832,-31.250,-8.789,-1000.000,0.000
1737552879.130,-36.621,-34.180,-11.719,-1000.000,0.000
1737552879.134,-49.316,-27.344,-14.160,-1000.000,0.000
1737552879.138,-54.688,-31.738,-18.066,-1000.000,0.000
1737552879.142,-35.645,-47.852,-39.062,-1000.000,0.000
1737552879.146,-25.391,-20.996,-33.691,-1000.000,0.000
1737552879.150,-30.762,-5.371,-28.809,-1000.000,0.000
1737552879.154,-34.180,-5.859,-30.762,-1000.000,0.000
1737552879.158,-24.414,-21.484,-34.668,-1000.000,0.000
1737552879.162,-15.625,-39.062,-49.805,-1000.000,0.000
1737552879.166,-17.578,-12.695,-18.555,-1000.000,0.000
1737552879.169,-12.207,0.000,2.930,-1000.000,0.000
1737552879.173,-11.719,-15.137,-10.742,-1000.000,0.000
1737552879.177,-28.320,-32.715,-30.762,-1000.000,0.000
1737552879.181,-27.832,-44.434,-35.156,-1000.000,0.000
1737552879.185,-0.488,-28.809,-36.133,-984.375,0.000
1737552879.189,2.930,-21.973,-41.992,-968.750,0.000
1737552879.193,-14.160,-22.949,-35.156,-1000.000,0.000
1737552879.197,5.859,-18.555,-39.551,-75.195,0.000
1737552879.201,-9.277,-21.484,-31.738,655.273,0.000
1737552879.205,-52.246,-20.020,-15.137,-702.148,0.000
1737552879.209,-20.508,-17.090,-10.742,-1000.000,0.000
1737552879.212,-17.090,-30.762,-14.648,-926.270,0.000
1737552879.216,-35.156,-34.180,-36.621,-1000.000,0.000
1737552879.220,-39.551,-35.156,-36.133,-1000.000,0.000
1737552879.224,-28.320,-35.645,-41.016,-1000.000,0.000
1737552879.228,-18.066,-27.832,-39.551,-1000.000,0.000
1737552879.232,-27.344,-35.156,-5.371,-1000.000,0.000
1737552879.236,-35.645,-40.527,-30.273,-1000.000,0.000
1737552879.240,-30.273,-27.344,-45.410,-1000.000,0.000
1737552879.244,-19.043,-25.879,-19.043,-1000.000,0.000
1737552879.248,-22.461,-20.996,-9.766,-1000.000,0.000
1737552879.251,-38.086,-19.043,-17.090,-1000.000,0.000
1737552879.255,-34.180,-41.016,-28.320,-1000.000,0.000
1737552879.259,-36.133,-35.156,-33.203,-1000.000,0.000
1737552879.263,-50.293,-8.789,-34.180,-1000.000,0.000
1737552879.267,-32.715,-4.883,-32.227,-1000.000,0.000
1737552879.271,-27.344,-21.973,-28.809,-1000.000,0.000
1737552879.275,-61.523,-31.250,-32.715,-1000.000,0.000
1737552879.279,-61.035,-42.969,-39.551,-1000.000,0.000
1737552879.283,-44.434,-33.691,-46.875,-1000.000,0.000
1737552879.287,-30.762,-16.602,-37.109,-1000.000,0.000
1737552879.291,-37.109,-27.344,-29.785,-1000.000,0.000
1737552879.294,-35.645,-54.199,-42.480,-1000.000,0.000
1737552879.298,-20.020,-63.477,-31.738,-1000.000,0.000
1737552879.302,-29.297,-19.043,-15.137,-966.309,0.000
1737552879.306,-6.348,3.906,-10.254,-1000.000,0.000
1737552879.310,16.602,-16.602,-22.949,-1000.000,0.000
1737552879.314,1.953,-22.461,-41.504,185.547,0.000
1737552879.318,12.695,-28.320,-52.246,999.512,0.000
1737552879.322,-6.348,-21.973,-41.504,452.637,0.000
1737552879.326,-60.059,-1.953,-26.367,-804.199,0.000
1737552879.330,-57.617,-10.742,-19.531,-1000.000,0.000
1737552879.333,-35.156,-27.344,-24.414,-980.957,0.000
1737552879.337,14.648,-19.531,-23.926,381.836,0.000
1737552879.341,14.160,-17.578,-21.973,505.859,0.000
1737552879.345,-40.039,-23.438,-28.809,-973.145,0.000
1737552879.349,-37.598,-33.691,-21.973,-1000.000,0.000
1737552879.353,-24.902,-30.273,-20.508,-952.637,0.000
1737552879.357,-26.367,-12.207,-16.113,-1000.000,0.000
1737552879.361,-26.367,-19.531,-16.602,-1000.000,0.000
1737552879.365,-46.387,-25.391,-39.062,-1000.000,0.000
1737552879.369,-54.199,-16.113,-45.410,-1000.000,0.000
1737552879.373,-42.969,-24.902,-25.391,-1000.000,0.000
1737552879.376,-52.246,-22.949,-20.508,-1000.000,0.000
1737552879.380,-60.059,-12.207,-25.879,-1000.000,0.000
1737552879.384,-38.574,-24.902,-30.273,-1000.000,0.000
1737552879.388,-4.395,-42.480,-34.180,-1000.000,0.000
1737552879.392,-36.621,-53.223,-33.691,-1000.000,0.000
1737552879.396,-49.316,-52.246,-21.484,-1000.000,0.000
1737552879.400,-14.160,-29.785,-7.324,-1000.000,0.000
1737552879.404,-20.996,5.371,-12.695,-943.848,0.000
1737552879.408,-38.086,-1.465,-31.738,-1000.000,0.000
1737552879.412,-34.180,-20.020,-49.805,-857.910,0.000
1737552879.416,12.207,-16.113,-44.922,511.230,0.000
1737552879.419,25.879,-27.344,-29.785,999.512,0.000
1737552879.423,6.348,-17.578,-25.391,720.703,0.000
1737552879.427,-38.086,-14.160,-19.531,-746.094,0.000
1737552879.431,-41.992,-40.039,-22.461,-757.324,0.000
1737552879.435,17.090,-42.480,-24.902,749.512,0.000
1737552879.439,14.648,-21.484,-41.504,999.512,0.000
1737552879.443,-25.391,-34.668,-49.805,428.711,0.000
1737552879.447,-45.898,-43.945,-32.715,-775.879,0.000
1737552879.451,-60.547,-10.742,-26.855,-1000.000,0.000
1737552879.455,-65.918,-8.789,-24.414,-564.453,0.000
1737552879.459,-13.672,-13.184,-20.996,709.473,0.000
1737552879.462,-21.484,-8.789,-17.090,-248.047,0.000
1737552879.466,-50.293,-26.367,-11.230,-1000.000,0.000
1737552879.470,-24.902,-32.227,-26.855,-924.316,0.000
1737552879.474,-28.809,-35.645,-44.434,-1000.000,0.000
1737552879.478,-42.480,-48.828,-15.137,-1000.000,0.000
1737552879.482,-51.270,-32.227,-8.789,-1000.000,0.000
1737552879.486,-42.969,-16.113,-20.508,-1000.000,0.000
1737552879.490,-20.020,-26.855,-22.461,-1000.000,0.000
1737552879.494,-33.203,-32.227,-21.973,-1000.000,0.000
1737552879.498,-48.340,-21.973,-22.949,-1000.000,0.000
1737552879.502,-32.715,-11.230,-31.250,-1000.000,0.000
1737552879.505,-19.531,-8.301,-41.504,-954.102,0.000
1737552879.509,-44.922,-7.812,-31.738,-1000.000,0.000
1737552879.513,-59.082,-19.043,-23.926,-1000.000,0.000
1737552879.517,-1.953,-25.879,-29.785,479.004,0.000
1737552879.521,30.273,-21.973,-28.320,964.355,0.000
1737552879.525,-13.672,-42.969,-34.668,-602.539,0.000
1737552879.529,-29.785,-58.105,-29.297,-1000.000,0.000
1737552879.533,-13.672,-36.133,-25.879,-618.164,0.000
1737552879.537,12.207,3.906,-23.926,683.594,0.000
1737552879.541,20.020,0.488,-26.367,999.512,0.000
1737552879.544,6.348,-23.438,-31.738,35.156,0.000
1737552879.548,-22.461,-18.066,-19.531,-1000.000,0.000
1737552879.552,-40.039,-13.672,-20.020,-980.957,0.000
1737552879.556,-10.254,-9.766,-33.691,458.496,0.000
1737552879.560,23.438,-14.648,-37.598,999.512,0.000
1737552879.564,-13.184,-27.832,-33.203,-484.375,0.000
1737552879.568,-20.996,-30.273,-28.320,-1000.000,0.000
1737552879.572,8.789,-47.363,-26.367,-1000.000,0.000
1737552879.576,2.441,-46.387,-34.668,-293.457,0.000
1737552879.580,-5.371,-8.301,-35.645,789.062,0.000
1737552879.584,-62.012,0.000,-26.367,-529.785,0.000
1737552879.587,-79.102,-19.043,-23.926,-1000.000,0.000
1737552879.591,-60.059,-9.766,-27.832,-915.527,0.000
1737552879.595,-59.082,-10.254,-33.691,-1000.000,0.000
1737552879.599,-40.039,-44.434,-29.297,-1000.000,0.000
1737552879.603,-37.109,-43.945,-29.785,-1000.000,0.000
1737552879.607,-39.062,-24.902,-41.992,-1000.000,0.000
1737552879.611,-26.367,-37.109,-49.805,-1000.000,0.000
1737552879.615,-17.090,-38.086,-43.457,-998.535,0.000
1737552879.619,-3.906,-20.508,-41.504,-1000.000,0.000
1737552879.623,-13.184,-25.879,-40.039,-936.523,0.000
1737552879.627,-24.902,-26.855,-22.949,-1000.000,0.000
1737552879.630,-12.207,-13.184,-21.973,-667.969,0.000
1737552879.634,26.367,-4.883,-22.949,756.836,0.000
1737552879.638,14.160,-11.230,-18.066,999.512,0.000
1737552879.642,-23.926,-17.090,-20.996,909.180,0.000
1737552879.646,-4.883,-22.461,-23.438,985.840,0.000
1737552879.650,14.648,-44.922,-30.273,970.703,0.000
1737552879.654,12.207,-45.898,-48.828,970.703,0.000
1737552879.658,14.160,-30.762,-49.316,970.703,0.000
1737552879.662,11.719,-17.578,-21.484,970.703,0.000
1737552879.666,-15.625,-7.812,-5.859,970.703,0.000
1737552879.669,-29.297,-12.695,-24.902,986.816,0.000
1737552879.673,-37.109,-18.555,-48.828,911.621,0.000
1737552879.677,-34.180,-24.414,-31.738,999.512,0.000
1737552879.681,-35.156,-37.598,-24.414,839.355,0.000
1737552879.685,-60.547,-45.898,-25.879,-617.188,0.000
1737552879.689,-70.801,-17.578,-16.113,-1000.000,0.000
1737552879.693,-67.871,7.812,-26.855,-926.758,0.000
1737552879.697,-45.410,2.930,-43.457,-1000.000,0.000
1737552879.701,-31.250,-12.207,-41.992,-1000.000,0.000
1737552879.705,-48.340,-34.668,-30.273,-1000.000,0.000
1737552879.709,-58.594,-32.715,-30.762,-1000.000,0.000
1737552879.712,-53.711,-25.391,-20.020,-1000.000,0.000
1737552879.716,-60.547,-42.480,-14.648,-1000.000,0.000
1737552879.720,-65.430,-30.762,-28.320,-1000.000,0.000
1737552879.724,-39.551,-10.254,-33.203,-1000.000,0.000
1737552879.728,-13.672,-14.160,-39.551,-1000.000,0.000
1737552879.732,-11.230,-19.531,-33.203,-1000.000,0.000
1737552879.736,-24.414,-22.949,-23.438,-1000.000,0.000
1737552879.740,-24.902,-22.461,-29.297,-1000.000,0.000
1737552879.744,10.742,-22.949,-28.320,-1000.000,0.000
1737552879.748,12.207,-31.738,-23.438,-1000.000,0.000
1737552879.752,-9.766,-29.297,-31.250,-1000.000,0.000
1737552879.755,-7.324,-31.250,-47.852,-1000.000,0.000
1737552879.759,-27.344,-31.250,-43.457,-1000.000,0.000
1737552879.763,-39.551,-20.508,-35.645,-982.910,0.000
1737552879.767,-28.320,-24.902,-36.621,-972.168,0.000
1737552879.771,-25.391,-25.879,-21.484,-1000.000,0.000
1737552879.775,0.000,-10.254,-2.441,-47.363,0.000
1737552879.779,20.020,-39.551,-13.184,990.234,0.000
1737552879.783,-23.438,-56.641,-28.809,-208.496,0.000
1737552879.787,-41.992,-11.719,-35.156,-1000.000,0.000
1737552879.791,-40.527,0.977,-40.527,-952.148,0.000
1737552879.794,-48.340,-13.184,-47.363,-992.676,0.000
1737552879.798,-40.039,-15.625,-53.711,-1000.000,0.000
1737552879.802,-54.199,-33.203,-41.504,-1000.000,0.000
1737552879.806,-40.527,-39.551,-9.277,-1000.000,0.000
1737552879.810,-26.367,-26.367,1.465,-1000.000,0.000
1737552879.814,-27.344,-28.809,-11.719,-1000.000,0.000
1737552879.818,-17.578,-53.223,-25.879,-1000.000,0.000
1737552879.822,-13.184,-29.297,-26.855,-1000.000,0.000
1737552879.826,-13.184,8.301,-20.996,-1000.000,0.000
1737552879.830,-7.812,-5.371,-20.996,-1000.000,0.000
1737552879.834,-24.902,-16.113,-60.059,-1000.000,0.000
1737552879.837,-29.297,-20.020,-55.664,-1000.000,0.000
1737552879.841,-16.602,-12.695,-14.160,-1000.000,0.000
1737552879.845,-9.766,-22.461,-18.066,-955.566,0.000
1737552879.849,-1.465,-31.738,-37.598,-1000.000,0.000
1737552879.853,-30.273,-17.578,-23.926,-983.398,0.000
1737552879.857,-1.465,-24.414,-14.648,379.395,0.000
1737552879.861,51.270,-34.180,-32.715,999.512,0.000
1737552879.865,-0.488,-21.484,-42.480,-143.555,0.000
1737552879.869,-46.387,-24.902,-24.414,-1000.000,0.000
1737552879.873,13.672,-21.973,-40.527,218.750,0.000
1737552879.877,49.805,-0.977,-51.758,999.512,0.000
1737552879.880,32.715,6.836,-8.301,916.992,0.000
1737552879.884,14.160,-12.207,-0.488,929.199,0.000
1737552879.888,0.488,-30.762,-8.789,964.844,0.000
1737552879.892,-9.766,-19.531,-18.066,917.480,0.000
1737552879.896,-39.551,-27.832,-25.391,999.512,0.000
1737552879.900,-45.898,-36.621,-31.250,829.590,0.000
1737552879.904,-81.543,-29.297,-36.621,-634.766,0.000
1737552879.908,-78.125,-24.414,-33.691,-1000.000,0.000
1737552879.912,-43.945,-25.391,-49.316,-926.758,0.000
1737552879.916,-47.363,-21.973,-35.645,-1000.000,0.000
1737552879.920,-43.457,-9.277,-29.785,-1000.000,0.000
1737552879.923,-40.039,-20.996,-20.508,-1000.000,0.000
1737552879.927,-24.902,-33.203,4.395,-1000.000,0.000
1737552879.931,-15.625,-23.926,-5.371,-1000.000,0.000
1737552879.935,-25.879,-23.438,-26.855,-1000.000,0.000
1737552879.939,-22.949,-39.062,-38.574,-1000.000,0.000
1737552879.943,-24.902,-28.320,-46.387,-1000.000,0.000
1737552879.947,-14.648,-5.371,-31.250,-1000.000,0.000
1737552879.951,-31.738,-0.488,-2.441,-1000.000,0.000
1737552879.955,-40.039,-9.766,-2.930,-1000.000,0.000
1737552879.959,-16.113,-30.273,-13.672,-1000.000,0.000
1737552879.962,-28.809,-37.598,-35.156,-1000.000,0.000
1737552879.966,-44.434,-30.762,-43.945,-1000.000,0.000
1737552879.970,-35.645,-47.363,-27.832,-1000.000,0.000
1737552879.974,-20.996,-49.316,-34.668,-1000.000,0.000
1737552879.978,-24.902,-24.902,-41.992,-1000.000,0.000
1737552879.982,-41.016,-7.324,-39.062,-1000.000,0.000
1737552879.986,-18.066,-6.348,-46.387,-1000.000,0.000
1737552879.990,15.137,-0.488,-27.344,-1000.000,0.000
1737552879.994,13.672,-0.488,-16.602,-1000.000,0.000
1737552879.998,-16.113,-13.672,-27.344,-1000.000,0.000
1737552880.002,-25.391,-31.738,-45.410,-1000.000,0.000
1737552880.005,1.465,-60.059,-33.691,-1000.000,0.000
1737552880.009,19.531,-44.434,-23.926,-1000.000,0.000
1737552880.013,1.465,-7.324,-47.852,-1000.000,0.000
1737552880.017,-33.203,2.441,-24.414,-1000.000,0.000
1737552880.021,-42.969,2.441,-11.719,-1000.000,0.000
1737552880.025,-43.457,-5.371,-38.574,-1000.000,0.000
1737552880.029,-42.480,-19.043,-40.039,-1000.000,0.000
1737552880.033,-48.828,-31.738,-39.551,-1000.000,0.000
1737552880.037,-40.527,-26.855,-41.504,-1000.000,0.000
1737552880.041,-22.461,-34.180,-14.648,-1000.000,0.000
1737552880.045,-15.625,-47.363,-14.648,-1000.000,0.000
1737552880.048,-2.441,-31.738,-41.992,-1000.000,0.000
1737552880.052,-12.207,-2.441,-45.898,-1000.000,0.000
1737552880.056,-20.020,-5.859,-50.293,-1000.000,0.000
1737552880.060,-16.113,-33.203,-22.949,-1000.000,0.000
1737552880.064,-27.344,-36.621,-5.371,-999.023,0.000
1737552880.068,-39.062,-36.133,-36.621,-949.219,0.000
1737552880.072,-46.387,-24.414,-36.621,-1000.000,0.000
1737552880.076,-28.320,-27.832,-11.719,-383.789,0.000
1737552880.080,19.043,-39.062,-7.812,922.852,0.000
1737552880.084,-12.695,-30.762,-19.531,-22.461,0.000
1737552880.088,-45.898,-20.508,-31.250,-1000.000,0.000
1737552880.091,-32.227,-18.066,-34.668,-938.965,0.000
1737552880.095,1.953,-18.555,-31.250,315.918,0.000
1737552880.099,22.461,-23.438,-24.902,999.512,0.000
1737552880.103,-5.371,-23.438,-4.883,207.520,0.000
1737552880.107,-16.113,-19.043,-15.137,-986.328,0.000
1737552880.111,24.902,-22.461,-17.090,-993.652,0.000
1737552880.115,51.758,-26.855,-7.812,333.008,0.000
1737552880.119,40.039,-22.461,-30.762,999.512,0.000
1737552880.123,-46.875,-27.344,-33.203,102.051,0.000
1737552880.127,-116.699,-35.645,-20.508,-941.895,0.000
1737552880.130,-90.820,-21.484,-26.855,-1000.000,0.000
1737552880.134,-58.105,-20.020,-15.625,-620.605,0.000
1737552880.138,-1.953,-37.109,-25.391,836.914,0.000
1737552880.142,-12.695,-33.691,-33.203,213.867,0.000
1737552880.146,-51.758,-38.086,-11.719,-1000.000,0.000
1737552880.150,-28.320,-41.992,-31.738,-979.004,0.000
1737552880.154,-21.973,-22.949,-36.133,-973.145,0.000
1737552880.158,-8.789,-6.348,-24.414,-1000.000,0.000
1737552880.162,-16.113,-12.207,-34.180,-1000.000,0.000
1737552880.166,-18.066,-33.203,-32.227,-1000.000,0.000
1737552880.170,4.883,-34.668,-26.855,-1000.000,0.000
1737552880.173,-7.812,-33.691,-37.598,-1000.000,0.000
1737552880.177,-20.508,-30.273,-33.203,-1000.000,0.000
1737552880.181,-6.348,-4.883,-16.113,-968.262,0.000
1737552880.185,-2.441,4.883,-1.465,-999.512,0.000
1737552880.189,4.883,-5.859,-23.926,-1000.000,0.000
1737552880.193,49.316,-14.648,-38.574,226.074,0.000
1737552880.197,70.312,-14.648,-18.555,999.512,0.000
1737552880.201,43.457,-14.160,-17.578,919.434,0.000
1737552880.205,-11.230,-16.113,-41.016,950.195,0.000
1737552880.209,-27.344,-34.668,-42.969,954.102,0.000
1737552880.213,-16.602,-43.457,-6.836,974.609,0.000
1737552880.216,-36.133,-32.715,-1.465,967.773,0.000
1737552880.220,-43.945,-32.715,-19.043,976.074,0.000
1737552880.224,-32.715,-6.836,-29.297,945.801,0.000
1737552880.228,-23.926,2.930,-15.625,958.496,0.000
1737552880.232,-33.203,-16.602,-18.555,920.898,0.000
1737552880.236,-37.598,-29.297,-25.391,999.512,0.000
1737552880.240,-18.555,-43.945,-8.789,886.719,0.000
1737552880.244,-44.922,-39.551,-31.738,-552.734,0.000
1737552880.248,-70.801,-20.020,-49.805,-1000.000,0.000
1737552880.252,-46.875,-20.996,-27.832,-925.781,0.000
1737552880.256,-41.016,-24.414,-11.719,-1000.000,0.000
1737552880.259,-38.086,-9.766,-25.879,-1000.000,0.000
1737552880.263,-28.320,-17.578,-43.457,-1000.000,0.000
1737552880.267,-18.555,-9.766,-21.973,-1000.000,0.000
1737552880.271,-16.602,-13.184,-20.996,-1000.000,0.000
1737552880.275,-33.691,-40.039,-42.480,-1000.000,0.000
1737552880.279,-26.855,-37.109,-22.461,-1000.000,0.000
1737552880.283,-6.836,-23.926,-11.719,-1000.000,0.000
1737552880.287,20.020,-12.207,-30.273,-981.934,0.000
1737552880.291,47.852,-21.973,-43.945,-965.332,0.000
1737552880.295,29.785,-34.180,-34.180,-1000.000,0.000
1737552880.298,16.602,-15.625,-23.926,-1.953,0.000
1737552880.302,16.602,-19.043,-30.273,893.066,0.000
1737552880.306,-61.035,-37.598,-13.672,-702.637,0.000
1737552880.310,-93.750,-27.344,-4.395,-984.863,0.000
1737552880.314,-23.926,-8.301,-16.602,681.152,0.000
1737552880.318,-1.465,-2.441,-26.855,999.512,0.000
1737552880.322,-10.254,-11.719,-42.969,897.949,0.000
1737552880.326,-13.184,-37.598,-61.523,986.328,0.000
1737552880.330,-18.555,-43.945,-36.133,979.980,0.000
1737552880.334,-19.043,-33.691,-18.066,937.988,0.000
1737552880.338,-40.039,-43.457,-26.367,970.215,0.000
1737552880.341,-54.199,-37.109,-24.902,974.609,0.000
1737552880.345,-61.523,-13.184,-26.367,-191.895,0.000
1737552880.349,-76.660,-6.836,-10.254,-1000.000,0.000
1737552880.353,-51.758,-15.137,-9.766,-608.887,0.000
1737552880.357,4.883,-19.043,-20.996,838.867,0.000
1737552880.361,-3.906,-23.438,-33.203,880.859,0.000
1737552880.365,-66.406,-22.949,-36.133,-690.430,0.000
1737552880.369,-49.805,-23.926,-35.156,-1000.000,0.000
1737552880.373,-25.879,-54.199,-36.621,-1000.000,0.000
1737552880.377,-5.859,-41.504,-23.438,-243.164,0.000
1737552880.381,25.391,-12.207,-23.438,808.105,0.000
1737552880.384,-24.902,0.000,-47.852,-548.828,0.000
1737552880.388,-33.203,-0.488,-38.574,-1000.000,0.000
1737552880.392,-34.180,-22.461,-8.789,-1000.000,0.000
1737552880.396,2.441,-37.598,-10.742,-114.258,0.000
1737552880.400,29.785,-30.762,-26.367,977.051,0.000
1737552880.404,-32.715,-12.207,-20.996,-362.793,0.000
1737552880.408,-58.105,-17.578,-18.066,-1000.000,0.000
1737552880.412,-55.664,-27.832,-28.809,-1000.000,0.000
1737552880.416,-35.645,-20.996,-29.297,-781.250,0.000
1737552880.420,22.461,-12.207,-26.855,505.371,0.000
1737552880.424,-24.414,-17.578,-38.574,-396.973,0.000
1737552880.427,-72.266,-27.344,-37.598,-1000.000,0.000
1737552880.431,-33.203,-52.246,-26.855,-916.504,0.000
1737552880.435,-26.367,-47.852,-30.762,-1000.000,0.000
1737552880.439,-44.434,-12.695,-13.184,-1000.000,0.000
1737552880.443,-34.668,-0.488,-7.812,-1000.000,0.000
1737552880.447,-21.484,-6.836,-26.367,-994.629,0.000
1737552880.451,-29.297,-26.367,-29.297,-1000.000,0.000
1737552880.455,-29.785,-26.855,-11.719,-986.328,0.000
1737552880.459,-20.508,-11.230,-14.648,-915.527,0.000
1737552880.463,5.859,-21.973,-25.391,-921.875,0.000
1737552880.466,11.230,-16.602,-36.621,-1000.000,0.000
1737552880.470,-7.324,-17.090,-43.945,-912.109,0.000
1737552880.474,20.996,-18.066,-25.391,510.254,0.000
1737552880.478,7.812,-9.766,-16.602,999.512,0.000
1737552880.482,-44.434,-20.020,-5.859,896.973,0.000
1737552880.486,-35.645,-25.391,-6.836,984.375,0.000
1737552880.490,-22.949,-42.969,-33.203,971.191,0.000
1737552880.494,-33.203,-56.641,-41.992,968.750,0.000
1737552880.498,-31.738,-29.785,-31.738,973.633,0.000
1737552880.502,-20.020,-12.695,-4.883,967.285,0.000
1737552880.506,-12.695,-9.277,-1.465,936.035,0.000
1737552880.509,-20.996,-9.766,-9.766,974.609,0.000
1737552880.513,-30.273,-19.043,-15.625,913.086,0.000
1737552880.517,-26.367,-15.625,-25.879,999.512,0.000
1737552880.521,-9.277,-24.902,-32.227,697.754,0.000
1737552880.525,-39.062,-44.922,-43.457,-710.938,0.000
1737552880.529,-44.434,-50.781,-31.250,-1000.000,0.000
1737552880.533,-26.855,-26.367,-6.836,-1000.000,0.000
1737552880.537,-33.691,4.883,0.977,40.039,0.000
1737552880.541,-13.184,0.488,-12.695,999.512,0.000
1737552880.545,-51.758,-23.926,-16.113,-295.898,0.000
1737552880.549,-81.543,-39.551,-12.207,-1000.000,0.000
1737552880.552,-57.129,-36.133,-70.312,-594.238,0.000
1737552880.556,-28.809,-39.551,-99.121,674.805,0.000
1737552880.560,-36.621,-24.414,-11.230,999.512,0.000
1737552880.564,-89.355,-9.277,17.090,477.051,0.000
1737552880.568,-161.133,-21.973,-17.090,-906.738,0.000
1737552880.572,-141.113,-11.230,-26.855,-802.246,0.000
1737552880.576,-58.594,-19.531,-31.250,676.758,0.000
1737552880.580,-77.148,-18.555,-40.527,999.512,0.000
1737552880.584,-93.262,0.000,-28.320,787.598,0.000
1737552880.588,-106.934,-6.348,-38.086,-661.133,0.000
1737552880.591,-101.562,-14.648,-32.227,-870.605,0.000
1737552880.595,-46.875,1.465,-2.930,747.070,0.000
1737552880.599,-30.762,10.254,1.953,999.512,0.000
1737552880.603,-33.203,7.812,-6.836,902.832,0.000
1737552880.607,-26.367,5.859,-20.996,986.816,0.000
1737552880.611,-31.738,-12.695,-42.480,970.703,0.000
1737552880.615,-49.805,-44.922,-32.715,970.703,0.000
1737552880.619,-23.926,-24.414,-18.066,970.703,0.000
1737552880.623,-9.766,6.836,-41.016,970.703,0.000
1737552880.627,-9.766,0.488,-28.320,970.703,0.000
1737552880.631,-10.742,-12.207,-9.277,970.703,0.000
1737552880.634,-3.418,-26.367,-17.090,970.703,0.000
1737552880.638,-4.395,-21.973,-29.297,970.703,0.000
1737552880.642,-13.184,-27.832,-34.668,970.703,0.000
1737552880.646,-13.672,-32.715,-29.785,970.703,0.000
1737552880.650,-18.066,2.441,-24.414,970.703,0.000
1737552880.654,-25.879,-11.719,-0.977,970.703,0.000
1737552880.658,-3.906,-12.207,5.859,970.703,0.000
1737552880.662,25.391,6.836,-8.789,970.703,0.000
1737552880.666,9.766,-19.043,-32.715,970.703,0.000
1737552880.670,-7.812,-35.645,-33.691,970.703,0.000
1737552880.674,-22.461,-20.996,-49.805,970.703,0.000
1737552880.677,-19.531,-28.809,-26.367,970.703,0.000
1737552880.681,-10.254,-44.922,16.113,970.703,0.000
1737552880.685,-16.602,-40.527,-9.277,970.703,0.000
1737552880.689,-26.367,-28.809,-25.391,970.703,0.000
1737552880.693,-19.043,-25.879,-39.062,970.703,0.000
1737552880.697,-2.930,-13.184,-54.688,970.703,0.000
1737552880.701,4.883,-16.602,-25.879,970.703,0.000
1737552880.705,0.000,-25.391,0.488,970.703,0.000
1737552880.709,-5.371,-18.066,-21.484,973.145,0.000
1737552880.713,-13.672,-7.324,-7.324,972.168,0.000
1737552880.717,-47.852,-8.789,0.977,921.387,0.000
1737552880.720,-41.016,-23.926,-23.438,999.512,0.000
1737552880.724,-36.133,-41.504,-32.715,459.961,0.000
1737552880.728,-68.848,-51.758,-33.203,-932.129,0.000
1737552880.732,-71.777,-28.320,-23.926,-910.645,0.000
1737552880.736,-25.879,-16.113,-21.973,691.895,0.000
1737552880.740,5.859,-6.348,-21.973,999.512,0.000
1737552880.744,-23.926,-4.395,-32.715,-519.531,0.000
1737552880.748,-33.691,-28.320,-46.875,-1000.000,0.000
1737552880.752,-28.320,-29.785,-41.992,-928.711,0.000
1737552880.756,-22.949,-15.625,-46.387,-1000.000,0.000
1737552880.759,3.906,-15.137,-41.016,-1000.000,0.000
1737552880.763,7.812,-4.395,-45.410,-1000.000,0.000
1737552880.767,-6.836,13.672,-59.570,-1000.000,0.000
1737552880.771,-14.160,4.883,-57.129,-1000.000,0.000
1737552880.775,-16.113,3.906,-40.527,-1000.000,0.000
1737552880.779,-9.766,-6.348,-28.809,-1000.000,0.000
1737552880.783,19.043,-24.414,-20.508,-1000.000,0.000
1737552880.787,21.973,-11.230,-20.996,-1000.000,0.000
1737552880.791,-5.371,-22.949,-38.086,-1000.000,0.000
1737552880.795,8.301,-41.504,-64.941,-1000.000,0.000
1737552880.799,30.762,-26.855,-64.941,-1000.000,0.000
1737552880.802,-12.207,-1.465,-25.391,-1000.000,0.000
1737552880.806,-27.344,-5.371,-12.695,-1000.000,0.000
1737552880.810,-23.438,-1.953,-31.250,-1000.000,0.000
1737552880.814,-31.738,-2.930,-22.461,-1000.000,0.000
1737552880.818,-11.230,-17.090,-20.508,-1000.000,0.000
1737552880.822,7.812,-8.789,-38.574,-1000.000,0.000
1737552880.826,-15.137,-9.766,-43.945,-958.008,0.000
1737552880.830,-13.672,-8.301,-50.293,-1000.000,0.000
1737552880.834,-2.441,-34.668,-42.969,-1000.000,0.000
1737552880.838,32.715,-54.688,-26.367,456.543,0.000
1737552880.842,35.156,-9.766,-28.320,862.305,0.000
1737552880.845,-32.715,-4.395,-29.297,-769.531,0.000
1737552880.849,-46.387,-13.184,-20.020,-1000.000,0.000
1737552880.853,-26.855,3.906,-15.625,-931.152,0.000
1737552880.857,-34.668,-2.441,-20.020,-1000.000,0.000
1737552880.861,-30.273,-20.996,-29.785,-1000.000,0.000
1737552880.865,-3.418,-25.879,-38.086,-1000.000,0.000
1737552880.869,-5.859,-24.414,-27.832,-1000.000,0.000
1737552880.873,10.254,-23.926,-39.551,-1000.000,0.000
1737552880.877,16.113,-38.574,-59.570,-1000.000,0.000
1737552880.881,-16.602,-31.738,-24.902,-1000.000,0.000
1737552880.885,-15.137,-6.348,-1.953,-941.895,0.000
1737552880.888,-4.395,-9.766,-12.207,-1000.000,0.000
1737552880.892,-17.090,-7.812,-26.367,-615.723,0.000
1737552880.896,27.832,0.488,-34.180,695.801,0.000
1737552880.900,46.875,-21.484,-37.598,999.512,0.000
1737552880.904,14.648,-36.621,-32.715,768.555,0.000
1737552880.908,-33.203,-26.367,-32.227,-721.680,0.000
1737552880.912,-46.387,-18.555,-29.785,-844.238,0.000
1737552880.916,3.418,-13.672,-17.090,730.469,0.000
1737552880.920,-6.836,-37.109,-16.602,999.512,0.000
1737552880.924,-22.461,-29.297,-21.973,915.039,0.000
1737552880.927,-18.066,-15.625,-35.156,316.406,0.000
1737552880.931,-29.785,-27.344,-29.297,323.730,0.000
1737552880.935,-23.926,-16.113,-28.809,983.398,0.000
1737552880.939,-19.043,-16.113,-33.203,999.512,0.000
1737552880.943,-37.109,-29.297,-31.250,-124.512,0.000
1737552880.947,-70.312,-27.344,-27.832,-1000.000,0.000
1737552880.951,-44.922,-24.414,-18.066,-957.031,0.000
1737552880.955,-18.555,-25.879,-23.438,-1000.000,0.000
1737552880.959,19.531,-21.973,-32.715,292.480,0.000
1737552880.963,17.578,-20.508,-20.508,638.672,0.000
1737552880.967,-36.133,-21.973,-27.344,-796.875,0.000
1737552880.970,-39.062,-14.160,-38.086,-1000.000,0.000
1737552880.974,-17.578,-11.230,-20.020,-720.215,0.000
1737552880.978,15.625,-14.160,-17.090,755.859,0.000
1737552880.982,3.418,-54.688,-29.297,833.496,0.000
1737552880.986,-44.922,-54.199,-43.457,-690.430,0.000
1737552880.990,-67.383,2.441,-41.992,-1000.000,0.000
1737552880.994,-50.781,7.812,-23.926,-718.750,0.000
1737552880.998,-5.371,0.000,1.953,683.594,0.000
1737552881.002,-11.230,0.977,0.488,999.512,0.000
1737552881.006,-62.012,-14.160,-19.531,-423.828,0.000
1737552881.009,-76.172,-59.570,-33.203,-1000.000,0.000
1737552881.013,-45.898,-57.129,-21.484,-1000.000,0.000
1737552881.017,3.906,-9.277,-32.227,245.605,0.000
1737552881.021,20.020,-14.160,-48.340,894.531,0.000
1737552881.025,-38.574,-3.418,-27.344,-699.219,0.000
1737552881.029,-56.641,-9.277,-6.348,-1000.000,0.000
1737552881.033,-30.762,-29.785,-16.602,-924.805,0.000
1737552881.037,-33.691,-11.230,-12.695,-1000.000,0.000
1737552881.041,-38.086,-8.789,-3.906,-1000.000,0.000
1737552881.045,3.906,-27.344,-33.203,-1000.000,0.000
1737552881.049,10.254,-19.531,-53.711,-1000.000,0.000
1737552881.052,-28.320,-10.254,-40.527,-1000.000,0.000
1737552881.056,-25.391,-16.602,-36.133,-1000.000,0.000
1737552881.060,-7.324,-26.855,-20.996,-1000.000,0.000
1737552881.064,-18.555,-22.949,-7.324,-1000.000,0.000
1737552881.068,-37.109,-18.555,-14.160,-942.383,0.000
1737552881.072,-70.312,-27.832,-27.832,-1000.000,0.000
1737552881.076,-69.336,-30.273,-22.461,-669.434,0.000
1737552881.080,-25.879,-6.348,-17.578,834.473,0.000
1737552881.084,-67.871,-19.043,-49.316,454.102,0.000
1737552881.088,-130.859,-54.688,-44.434,-1000.000,0.000
1737552881.092,-104.980,-34.180,-12.695,-1000.000,0.000
1737552881.095,-76.660,-42.969,-20.508,296.387,0.000
1737552881.099,-70.312,-39.062,-16.602,999.512,0.000
1737552881.103,-98.145,-5.859,-7.812,330.078,0.000
1737552881.107,-119.629,-13.672,4.395,-882.812,0.000
1737552881.111,-99.609,-36.133,18.066,-1000.000,0.000
1737552881.115,-67.871,-41.504,-7.812,-74.707,0.000
1737552881.119,-24.902,-28.809,-31.738,999.512,0.000
1737552881.123,-33.691,-33.691,-15.625,418.945,0.000
1737552881.127,-61.523,-36.621,-26.855,-862.793,0.000
1737552881.131,-54.199,-23.438,-51.270,-1000.000,0.000
1737552881.135,-44.434,-25.879,-30.762,-840.332,0.000
1737552881.138,-20.020,-34.180,-12.207,571.777,0.000
1737552881.142,-57.129,-14.648,-20.020,883.789,0.000
1737552881.146,-94.238,3.906,-4.883,-670.410,0.000
1737552881.150,-78.613,-12.695,-0.977,-1000.000,0.000
1737552881.154,-57.129,-23.438,0.488,-693.359,0.000
1737552881.158,-3.418,-17.090,-9.766,758.789,0.000
1737552881.162,0.000,-21.484,-35.645,907.715,0.000
1737552881.166,-57.617,-27.832,-17.090,-698.242,0.000
1737552881.170,-69.336,-16.113,-5.371,-1000.000,0.000
1737552881.174,-59.082,-24.414,-16.602,-927.246,0.000
1737552881.177,-49.805,-37.109,-23.438,-1000.000,0.000
1737552881.181,-48.340,-33.691,-31.738,-1000.000,0.000
1737552881.185,-25.391,-39.062,-18.066,-952.148,0.000
1737552881.189,-17.578,-47.852,-32.715,-1000.000,0.000
1737552881.193,-59.082,-31.250,-29.297,-979.492,0.000
1737552881.197,-19.531,1.465,-0.488,441.406,0.000
1737552881.201,3.418,3.418,-10.742,999.512,0.000
1737552881.205,-27.344,-23.438,-16.602,-267.090,0.000
1737552881.209,-30.762,-29.297,-30.762,-1000.000,0.000
1737552881.213,-16.113,-29.785,-62.988,-977.539,0.000
1737552881.217,0.977,-34.668,-37.109,-917.969,0.000
1737552881.220,13.672,-14.648,-12.695,-855.469,0.000
1737552881.224,-7.324,-17.578,-27.832,-979.004,0.000
1737552881.228,-35.156,-28.320,-26.855,-977.051,0.000
1737552881.232,-33.203,-27.832,-27.832,-1000.000,0.000
1737552881.236,-11.719,-21.484,-13.672,57.129,0.000
1737552881.240,6.836,-11.719,-8.301,999.512,0.000
1737552881.244,-28.320,-27.344,-23.438,-452.637,0.000
1737552881.248,-62.500,-25.879,-38.086,-1000.000,0.000
1737552881.252,-52.246,-19.531,-37.598,-956.055,0.000
1737552881.256,-29.785,-13.672,-7.324,-963.867,0.000
1737552881.260,-19.531,0.000,-5.859,-626.953,0.000
1737552881.263,-38.086,-16.113,-22.461,-895.020,0.000
1737552881.267,-26.367,-28.320,-23.438,-991.211,0.000
1737552881.271,-17.090,-29.297,-27.832,-1000.000,0.000
1737552881.275,-26.855,-30.762,-29.785,-854.980,0.000
1737552881.279,28.320,-20.020,-17.578,718.750,0.000
1737552881.283,34.668,-38.086,-13.184,728.516,0.000
1737552881.287,-30.762,-37.598,-32.715,-793.945,0.000
1737552881.291,-26.855,-22.461,-34.180,-1000.000,0.000
1737552881.295,8.301,-20.020,-7.324,-465.332,0.000
1737552881.299,55.176,-9.766,-19.531,915.039,0.000
1737552881.302,15.137,-12.207,-48.340,622.559,0.000
1737552881.306,-70.312,-12.207,-30.273,-787.598,0.000
1737552881.310,-61.523,-25.879,-1.953,-1000.000,0.000
1737552881.314,-45.898,-30.762,-7.812,-817.871,0.000
1737552881.318,-4.883,-30.273,-27.344,685.547,0.000
1737552881.322,14.648,-33.203,-14.648,827.637,0.000
1737552881.326,-13.184,-27.344,-13.184,-728.027,0.000
1737552881.330,-24.414,-16.113,-32.715,-1000.000,0.000
1737552881.334,-28.809,0.488,-28.320,-907.715,0.000
1737552881.338,17.578,-2.441,-23.438,520.020,0.000
1737552881.342,21.973,-10.254,-28.320,979.004,0.000
1737552881.345,-17.090,-16.602,-34.668,-660.156,0.000
1737552881.349,-13.672,-20.996,-38.574,-1000.000,0.000
1737552881.353,-36.133,-34.668,-30.273,-947.754,0.000
1737552881.357,-51.270,-36.621,-20.508,-895.996,0.000
1737552881.361,-36.621,-12.207,-14.648,-876.465,0.000
1737552881.365,-31.250,0.977,-7.324,-982.910,0.000
1737552881.369,-22.949,2.441,-8.789,-989.746,0.000
1737552881.373,-23.926,-4.883,-25.391,-1000.000,0.000
1737552881.377,4.395,-3.906,-22.461,321.289,0.000
1737552881.381,8.301,-13.184,-19.531,984.863,0.000
1737552881.385,-57.129,-34.180,-37.598,-624.512,0.000
1737552881.388,-49.316,-48.340,-40.527,-1000.000,0.000
1737552881.392,-27.344,-44.434,-34.668,-924.316,0.000
1737552881.396,-27.832,-28.320,-30.273,-1000.000,0.000
1737552881.400,-14.160,-12.695,-14.160,-1000.000,0.000
1737552881.404,-11.719,-17.090,-16.113,-1000.000,0.000
1737552881.408,-2.930,-23.438,-18.555,-939.941,0.000
1737552881.412,-0.488,-20.020,-16.602,-1000.000,0.000
1737552881.416,-11.230,-19.531,-17.090,-871.582,0.000
1737552881.420,36.621,-9.277,-19.531,711.426,0.000
1737552881.424,19.043,-9.277,-16.113,493.652,0.000
1737552881.428,-72.266,-9.277,-17.090,-941.895,0.000
1737552881.431,-76.172,-25.879,-15.625,-1000.000,0.000
1737552881.435,-65.430,-33.691,-13.672,-949.219,0.000
1737552881.439,-33.203,-17.578,-20.020,202.148,0.000
1737552881.443,-28.320,-19.531,-32.715,0.977,0.000
1737552881.447,-61.523,-25.879,-37.598,-1000.000,0.000
1737552881.451,-44.922,-27.832,-19.043,-1000.000,0.000
1737552881.455,-32.715,-29.297,1.953,-549.316,0.000
1737552881.459,2.930,-30.273,-15.625,882.324,0.000
1737552881.463,16.113,-36.133,-44.434,816.895,0.000
1737552881.467,-32.715,-37.109,-46.387,-699.219,0.000
1737552881.470,-46.875,-24.902,-36.133,-1000.000,0.000
1737552881.474,-26.855,-21.484,-26.367,-212.402,0.000
1737552881.478,8.789,-19.531,-24.414,999.512,0.000
1737552881.482,0.977,-15.137,-40.527,753.418,0.000
1737552881.486,-43.945,-10.254,-27.344,-727.051,0.000
1737552881.490,-55.176,-16.113,-7.324,-1000.000,0.000
1737552881.494,-51.270,-28.320,-16.602,-932.129,0.000
1737552881.498,-40.527,-30.273,-27.832,-1000.000,0.000
1737552881.502,-41.016,-20.996,-34.668,-1000.000,0.000
1737552881.506,-41.504,-26.855,-34.180,-1000.000,0.000
1737552881.510,-27.344,-32.715,-23.926,-1000.000,0.000
1737552881.513,-43.457,-20.996,-21.484,-1000.000,0.000
1737552881.517,-55.664,-13.672,-35.156,-1000.000,0.000
1737552881.521,-32.715,-22.461,-41.016,-1000.000,0.000
1737552881.525,-29.785,-49.805,-31.738,-1000.000,0.000
1737552881.529,-30.273,-41.504,-28.809,-1000.000,0.000
1737552881.533,-45.898,-12.695,-22.949,-1000.000,0.000
1737552881.537,-59.082,-11.230,-18.066,-1000.000,0.000
1737552881.541,-38.086,-22.461,-15.137,-1000.000,0.000
1737552881.545,-21.973,-38.086,-42.480,-1000.000,0.000
1737552881.549,-14.648,-45.410,-56.641,-1000.000,0.000
1737552881.553,-5.371,-49.805,-8.301,-1000.000,0.000
1737552881.556,-26.855,-42.969,1.465,-1000.000,0.000
1737552881.560,-33.691,-11.230,-17.090,-1000.000,0.000
1737552881.564,-13.672,-1.953,-31.250,-1000.000,0.000
1737552881.568,-1.953,-21.484,-39.551,-1000.000,0.000
1737552881.572,20.020,-21.973,-29.785,-1000.000,0.000
1737552881.576,12.695,-20.508,-14.160,-1000.000,0.000
1737552881.580,-17.090,-37.598,-32.227,-1000.000,0.000
1737552881.584,-49.805,-31.738,-50.781,-1000.000,0.000
1737552881.588,-48.828,-39.551,-39.062,-1000.000,0.000
1737552881.592,-30.762,-41.504,-14.648,-1000.000,0.000
1737552881.596,-38.574,-13.672,-7.324,-1000.000,0.000
1737552881.599,-41.992,-0.977,-12.207,-1000.000,0.000
1737552881.603,-33.691,-6.836,-19.531,-1000.000,0.000
1737552881.607,-42.480,-14.160,-22.949,-1000.000,0.000
1737552881.611,-52.246,-14.648,-27.832,-1000.000,0.000
1737552881.615,-26.855,-15.625,-20.020,-1000.000,0.000
1737552881.619,-20.020,-22.461,-22.949,-1000.000,0.000
1737552881.623,-39.062,-31.250,-31.250,-1000.000,0.000
1737552881.627,-27.832,-39.062,-20.020,-1000.000,0.000
1737552881.631,-12.695,-40.527,-22.461,-1000.000,0.000
1737552881.635,-25.879,-30.762,-14.160,-1000.000,0.000
1737552881.638,-53.223,-32.227,-7.324,-1000.000,0.000
1737552881.642,-56.641,-29.785,-23.438,-1000.000,0.000
1737552881.646,-51.758,-2.930,-26.367,-1000.000,0.000
1737552881.650,-79.102,-3.418,-19.043,-1000.000,0.000
1737552881.654,-93.750,-19.043,-19.531,-1000.000,0.000
1737552881.658,-63.477,-12.207,-20.508,-1000.000,0.000
1737552881.662,-69.336,-25.879,-23.438,-1000.000,0.000
1737552881.666,-81.543,-39.551,-27.832,-1000.000,0.000
1737552881.670,-66.406,-12.695,-26.855,-1000.000,0.000
1737552881.674,-80.078,-12.207,-19.043,-1000.000,0.000
1737552881.678,-80.566,-41.504,-16.113,-1000.000,0.000
1737552881.681,-71.777,-27.344,-28.809,-1000.000,0.000
1737552881.685,-66.895,-9.277,-37.109,-1000.000,0.000
1737552881.689,-77.148,-13.184,-22.461,-1000.000,0.000
1737552881.693,-82.520,-14.160,-11.230,-1000.000,0.000
1737552881.697,-68.359,-19.531,-23.438,-1000.000,0.000
1737552881.701,-69.336,-32.227,-31.738,-1000.000,0.000
1737552881.705,-85.449,-20.020,-28.809,-1000.000,0.000
1737552881.709,-92.285,-4.883,-28.809,-1000.000,0.000
1737552881.713,-90.820,-26.855,-20.508,-1000.000,0.000
1737552881.717,-80.566,-44.434,-34.180,-1000.000,0.000
1737552881.721,-79.590,-31.250,-31.738,-1000.000,0.000
1737552881.724,-82.520,-20.996,-11.719,-1000.000,0.000
1737552881.728,-86.426,-17.090,-22.461,-1000.000,0.000
1737552881.732,-80.078,-18.066,-25.879,-1000.000,0.000
1737552881.736,-83.496,-23.438,-18.555,-1000.000,0.000
1737552881.740,-86.914,-17.090,-14.160,-1000.000,0.000
1737552881.744,-87.402,-15.137,-16.602,-1000.000,0.000
1737552881.748,-75.684,-11.719,-26.367,-1000.000,0.000
1737552881.752,-62.012,-22.461,-21.973,-1000.000,0.000
1737552881.756,-74.219,-54.199,-23.926,-1000.000,0.000
1737552881.760,-69.336,-51.758,-37.109,-1000.000,0.000
1737552881.763,-80.566,-22.949,-58.105,-1000.000,0.000
1737552881.767,-97.656,-5.859,-33.691,-1000.000,0.000
1737552881.771,-93.750,-7.812,6.836,-1000.000,0.000
1737552881.775,-83.984,-28.809,0.977,-1000.000,0.000
1737552881.779,-76.660,-23.926,-13.184,-1000.000,0.000
1737552881.783,-70.801,-8.789,-19.043,-1000.000,0.000
1737552881.787,-60.059,-18.066,-26.855,-1000.000,0.000
1737552881.791,-88.379,-41.992,-30.273,-1000.000,0.000
1737552881.795,-76.660,-43.457,-48.340,-1000.000,0.000
1737552881.799,-37.598,-37.109,-57.129,-1000.000,0.000
1737552881.803,-70.312,-42.480,-12.695,-1000.000,0.000
1737552881.806,-80.078,-30.273,14.648,-1000.000,0.000
1737552881.810,-53.223,-9.277,-1.953,-1000.000,0.000
1737552881.814,-47.363,-6.836,-8.789,-1000.000,0.000
1737552881.818,-46.875,-20.020,-3.906,-1000.000,0.000
1737552881.822,-51.270,-37.598,-27.832,-1000.000,0.000
1737552881.826,-33.203,-32.227,-34.668,-1000.000,0.000
1737552881.830,-23.438,-28.320,-24.902,-1000.000,0.000
1737552881.834,-20.020,-37.598,-45.898,-1000.000,0.000
1737552881.838,-7.812,-22.949,-39.551,-1000.000,0.000
1737552881.842,-13.672,-6.836,-1.465,-939.453,0.000
1737552881.846,-18.555,-2.930,0.488,-1000.000,0.000
1737552881.849,-2.441,-13.184,-11.719,-854.492,0.000
1737552881.853,55.176,-22.949,-19.531,608.398,0.000
1737552881.857,65.918,-19.531,-46.387,999.512,0.000
1737552881.861,40.527,-12.695,-38.574,897.461,0.000
1737552881.865,50.293,-9.277,-19.043,987.305,0.000
1737552881.869,72.266,-21.484,-24.414,970.703,0.000
1737552881.873,54.688,-44.434,-24.414,970.703,0.000
1737552881.877,24.902,-37.109,-18.066,970.703,0.000
1737552881.881,11.230,3.418,-17.090,970.703,0.000
1737552881.885,0.488,11.719,-9.766,970.703,0.000
1737552881.889,17.090,1.953,-15.625,970.703,0.000
1737552881.892,46.875,-15.137,-24.414,970.703,0.000
1737552881.896,51.758,-27.344,-5.371,970.703,0.000
1737552881.900,42.969,-31.738,-0.488,970.703,0.000
1737552881.904,39.062,-16.602,-9.277,970.703,0.000
1737552881.908,50.781,-2.441,-19.531,970.703,0.000
1737552881.912,57.129,-8.301,-18.066,970.703,0.000
1737552881.916,48.828,-6.348,-18.066,970.703,0.000
1737552881.920,39.062,-11.719,-28.809,970.703,0.000
1737552881.924,41.016,-15.625,-26.367,970.703,0.000
1737552881.928,70.312,-3.418,-9.766,984.375,0.000
1737552881.931,48.340,6.348,-12.695,923.340,0.000
1737552881.935,11.719,0.488,-23.438,999.023,0.000
1737552881.939,4.395,-7.812,-20.996,932.617,0.000
1737552881.943,-44.434,-17.578,-22.949,-467.285,0.000
1737552881.947,-69.336,-13.672,-30.273,-1000.000,0.000
1737552881.951,-70.801,-2.441,-37.109,-927.734,0.000
1737552881.955,-91.309,-7.812,-24.414,-1000.000,0.000
1737552881.959,-105.957,-12.207,-16.113,-1000.000,0.000
1737552881.963,-120.605,-7.812,-20.996,-1000.000,0.000
1737552881.967,-140.625,-7.324,-28.320,-947.754,0.000
1737552881.971,-135.742,-28.320,-48.828,-1000.000,0.000
1737552881.974,-122.559,-43.457,-35.645,-927.734,0.000
1737552881.978,-74.707,-0.977,4.883,500.488,0.000
1737552881.982,-38.574,9.277,3.418,999.512,0.000
1737552881.986,-89.844,-16.113,-18.066,896.973,0.000
1737552881.990,-131.348,-22.461,-38.086,984.375,0.000
1737552881.994,-123.047,-6.348,-15.625,970.703,0.000
1737552881.998,-112.305,17.578,2.930,970.703,0.000
1737552882.002,-104.492,30.762,-29.785,970.703,0.000
1737552882.006,-108.398,24.902,-30.273,970.703,0.000
1737552882.010,-97.168,0.488,-15.625,970.703,0.000
1737552882.014,-71.777,-4.883,-17.090,970.703,0.000
1737552882.017,-31.738,-9.277,-20.020,970.703,0.000
1737552882.021,-10.742,-16.602,-33.203,970.703,0.000
1737552882.025,-15.137,-11.230,-40.039,970.703,0.000
1737552882.029,1.465,-28.320,-21.973,971.191,0.000
1737552882.033,14.648,-46.875,-42.969,976.562,0.000
1737552882.037,0.488,-27.832,-45.898,931.641,0.000
1737552882.041,7.812,-5.859,-3.906,999.512,0.000
1737552882.045,33.203,-18.555,-3.906,769.531,0.000
1737552882.049,17.578,-21.484,-36.133,185.547,0.000
1737552882.053,10.254,-17.090,-33.691,771.484,0.000
1737552882.057,31.738,-8.789,-11.719,999.512,0.000
1737552882.060,39.062,-10.254,-19.043,926.758,0.000
1737552882.064,46.387,-28.320,-19.531,979.492,0.000
1737552882.068,61.035,-46.875,-20.508,970.703,0.000
1737552882.072,81.055,-51.758,-43.457,970.215,0.000
1737552882.076,75.684,-26.855,-26.855,970.703,0.000
1737552882.080,39.062,-18.555,-1.465,970.703,0.000
1737552882.084,32.227,-16.602,-21.484,970.703,0.000
1737552882.088,41.016,-16.113,-30.273,970.703,0.000
1737552882.092,26.855,-14.160,-21.973,986.328,0.000
1737552882.096,3.418,-24.414,-19.531,913.574,0.000
1737552882.099,4.395,-44.922,-9.766,999.512,0.000
1737552882.103,12.207,-14.160,-14.160,901.367,0.000
1737552882.107,-25.391,-5.371,-25.879,-630.859,0.000
1737552882.111,-40.527,-13.672,-23.926,-1000.000,0.000
1737552882.115,28.809,-0.977,-23.438,487.793,0.000
1737552882.119,63.477,-19.531,-18.555,999.512,0.000
1737552882.123,24.902,-51.758,-1.465,823.242,0.000
1737552882.127,-33.691,-42.969,-18.066,-585.938,0.000
1737552882.131,-27.832,-20.020,-34.180,-1000.000,0.000
1737552882.135,20.020,-15.625,-34.180,383.301,0.000
1737552882.139,20.996,-15.137,-35.645,999.512,0.000
1737552882.142,4.883,-13.672,-20.508,906.738,0.000
1737552882.146,-2.930,-20.996,-19.531,975.586,0.000
1737552882.150,-8.301,-21.973,-11.719,971.680,0.000
1737552882.154,-6.836,-20.508,-22.461,970.215,0.000
1737552882.158,-7.812,-33.691,-34.668,970.215,0.000
1737552882.162,-30.273,-40.039,-10.254,974.121,0.000
1737552882.166,-36.133,-30.762,-4.395,949.707,0.000
1737552882.170,-20.020,-11.719,-13.672,959.961,0.000
1737552882.174,-22.949,0.000,-18.555,914.062,0.000
1737552882.178,-21.973,-15.625,-30.762,999.512,0.000
1737552882.182,-29.297,-22.949,-36.133,440.918,0.000
1737552882.185,-66.406,-26.855,-29.297,-909.668,0.000
1737552882.189,-50.781,-39.062,-26.855,-1000.000,0.000
1737552882.193,-41.504,-39.062,-27.344,-952.148,0.000
1737552882.197,-35.645,-29.785,-33.691,-1000.000,0.000
1737552882.201,-22.461,-28.320,-35.156,-1000.000,0.000
1737552882.205,-5.859,-32.227,-17.090,-1000.000,0.000
1737552882.209,6.348,-33.691,-32.715,-1000.000,0.000
1737552882.213,-7.324,-42.480,-36.133,-1000.000,0.000
1737552882.217,-26.367,-30.273,-15.137,-1000.000,0.000
1737552882.221,-46.387,-9.277,-9.277,-1000.000,0.000
1737552882.224,-47.363,-23.438,-16.113,-1000.000,0.000
1737552882.228,-42.969,-27.832,-16.602,-1000.000,0.000
1737552882.232,-45.410,-2.441,-23.438,-1000.000,0.000
1737552882.236,-43.945,6.348,-26.367,-1000.000,0.000
1737552882.240,-33.691,-8.789,-44.922,-1000.000,0.000
1737552882.244,-32.715,-43.457,-52.734,-1000.000,0.000
1737552882.248,-25.391,-51.758,-27.832,-940.918,0.000
1737552882.252,-18.066,-13.672,-8.789,-1000.000,0.000
1737552882.256,-5.371,9.766,3.906,-454.590,0.000
1737552882.260,9.277,10.254,-5.859,805.664,0.000
1737552882.264,-41.504,-8.789,-15.137,-346.191,0.000
1737552882.267,-56.641,-21.973,-18.555,-1000.000,0.000
1737552882.271,-20.020,-42.969,-15.137,-919.922,0.000
1737552882.275,-27.832,-45.410,-40.039,-1000.000,0.000
1737552882.279,-53.223,-14.648,-70.801,-1000.000,0.000
1737552882.283,-37.598,-25.391,-31.250,-1000.000,0.000
1737552882.287,-18.066,-49.316,2.930,-1000.000,0.000
1737552882.291,-21.484,-36.133,-12.207,-1000.000,0.000
1737552882.295,-31.250,-18.555,-37.598,-1000.000,0.000
1737552882.299,-33.691,-6.836,-32.715,-1000.000,0.000
1737552882.303,-20.996,-6.348,-15.625,-1000.000,0.000
1737552882.307,-23.926,-10.254,-18.555,-1000.000,0.000
1737552882.310,-27.832,-15.625,-19.531,-1000.000,0.000
1737552882.314,-34.668,-33.203,-19.043,-1000.000,0.000
1737552882.318,-51.758,-30.273,-17.578,-1000.000,0.000
1737552882.322,-56.152,-8.789,-12.695,-1000.000,0.000
1737552882.326,-51.270,-4.883,-10.254,-996.094,0.000
1737552882.330,-46.875,-10.742,-21.973,-972.656,0.000
1737552882.334,-51.270,-8.789,-29.297,-1000.000,0.000
1737552882.338,-41.992,-5.859,-23.926,-494.629,0.000
1737552882.342,-31.250,-4.883,-31.250,-183.105,0.000
1737552882.346,-43.945,-2.441,-36.133,-952.637,0.000
1737552882.350,-64.941,-5.859,-28.809,-1000.000,0.000
1737552882.353,-103.027,-8.301,-25.391,-966.797,0.000
1737552882.357,-151.855,-1.465,-23.438,-1000.000,0.000
1737552882.361,-166.016,9.277,-22.949,-1000.000,0.000
1737552882.365,-190.918,1.953,-22.949,-1000.000,0.000
1737552882.369,-190.430,-14.648,-41.992,-1000.000,0.000
1737552882.373,-180.664,-32.715,-39.062,-1000.000,0.000
1737552882.377,-229.980,-34.180,-11.230,-1000.000,0.000
1737552882.381,-241.699,-19.531,14.648,-1000.000,0.000
1737552882.385,-230.469,-4.883,3.906,-1000.000,0.000
1737552882.389,-276.855,2.930,-9.766,-1000.000,0.000
1737552882.392,-292.969,10.742,-8.789,-1000.000,0.000
1737552882.396,-298.828,0.000,-18.555,-1000.000,0.000
1737552882.400,-308.594,-31.738,-9.277,-1000.000,0.000
1737552882.404,-280.273,-27.832,-3.418,-1000.000,0.000
1737552882.408,-250.488,-1.465,5.371,-1000.000,0.000
1737552882.412,-243.164,9.766,5.859,-1000.000,0.000
1737552882.416,-223.145,5.371,1.953,-1000.000,0.000
1737552882.420,-188.965,-25.391,-6.836,-1000.000,0.000
1737552882.424,-170.410,-24.414,-16.602,-950.195,0.000
1737552882.428,-120.117,-7.812,10.254,-1000.000,0.000
1737552882.432,-89.355,-24.414,16.602,-943.359,0.000
1737552882.435,-49.805,-3.418,0.000,472.168,0.000
1737552882.439,-22.461,16.113,-13.184,999.512,0.000
1737552882.443,-23.926,-14.160,-6.348,897.461,0.000
1737552882.447,-3.906,-39.551,18.555,983.398,0.000
1737552882.451,-3.906,-36.621,18.555,970.703,0.000
1737552882.455,-2.441,-39.062,-17.090,970.703,0.000
1737552882.459,20.020,-49.805,-19.531,970.703,0.000
1737552882.463,22.461,-44.922,-2.441,970.703,0.000
1737552882.467,47.363,-37.598,-5.371,970.703,0.000
1737552882.471,78.613,-45.898,-2.930,970.703,0.000
1737552882.475,79.590,-41.992,-0.488,970.703,0.000
1737552882.478,77.637,-32.715,-12.207,970.703,0.000
1737552882.482,78.125,-42.480,-13.672,970.703,0.000
1737552882.486,93.262,-40.527,-7.324,970.703,0.000
1737552882.490,100.586,-25.879,-15.625,970.703,0.000
1737552882.494,116.699,-28.320,-19.531,970.703,0.000
1737552882.498,128.906,-50.781,-13.184,970.703,0.000
1737552882.502,100.586,-52.734,-22.461,970.703,0.000
1737552882.506,91.309,-38.086,-41.992,970.703,0.000
1737552882.510,92.285,-30.762,-22.461,970.703,0.000
1737552882.514,83.008,-31.250,-10.742,970.703,0.000
1737552882.517,82.520,-29.297,-21.973,970.703,0.000
1737552882.521,76.172,-33.691,-22.949,970.703,0.000
1737552882.525,75.684,-34.668,-23.438,970.703,0.000
1737552882.529,95.703,-49.316,-19.043,983.887,0.000
1737552882.533,99.609,-56.152,-35.156,923.340,0.000
1737552882.537,77.637,-28.809,-37.598,999.512,0.000
1737552882.541,65.918,-20.508,-26.855,929.199,0.000
1737552882.545,45.410,-13.184,-17.578,-468.750,0.000
1737552882.549,31.738,-21.484,-19.531,-1000.000,0.000
1737552882.553,44.922,-60.547,-20.508,-928.223,0.000
1737552882.557,48.340,-54.688,-30.273,-1000.000,0.000
1737552882.560,40.527,-24.902,-39.062,-1000.000,0.000
1737552882.564,25.879,-12.695,-13.184,-1000.000,0.000
1737552882.568,26.855,-10.742,4.395,-1000.000,0.000
1737552882.572,33.691,-23.926,-6.836,-1000.000,0.000
1737552882.576,29.297,-36.133,-21.484,-1000.000,0.000
1737552882.580,29.297,-25.391,-25.879,-1000.000,0.000
1737552882.584,25.879,-24.414,-27.344,-1000.000,0.000
1737552882.588,33.691,-20.996,-23.926,-1000.000,0.000
1737552882.592,46.875,-9.277,-4.883,-1000.000,0.000
1737552882.596,40.527,-15.625,-17.090,-1000.000,0.000
1737552882.600,35.156,-27.832,-45.898,-1000.000,0.000
1737552882.603,46.875,-24.902,-27.344,-937.988,0.000
1737552882.607,50.781,-20.508,-16.113,-1000.000,0.000
1737552882.611,54.199,-21.484,-12.695,-795.410,0.000
1737552882.615,92.773,-33.203,-12.207,659.668,0.000
1737552882.619,96.680,-23.926,-24.414,999.512,0.000
1737552882.623,76.660,2.441,-27.832,901.367,0.000
1737552882.627,70.801,-5.859,-34.180,986.328,0.000
1737552882.631,51.758,-22.949,-34.180,970.703,0.000
1737552882.635,22.949,-36.621,-19.043,970.703,0.000
1737552882.639,25.879,-45.410,-14.160,970.703,0.000
1737552882.643,17.578,-26.855,-16.113,970.703,0.000
1737552882.646,20.508,-21.484,-21.484,970.703,0.000
1737552882.650,31.738,-35.156,-24.902,983.887,0.000
1737552882.654,24.902,-23.438,-29.297,923.340,0.000
1737552882.658,20.508,-20.508,-24.414,999.512,0.000
1737552882.662,20.508,-18.555,-20.020,929.199,0.000
1737552882.666,-5.371,-14.160,-20.508,-466.309,0.000
1737552882.670,-50.293,-19.531,-31.738,-1000.000,0.000
1737552882.674,-59.082,-30.762,-38.086,-928.223,0.000
1737552882.678,-41.016,-48.828,-20.020,-1000.000,0.000
1737552882.682,-24.414,-46.875,-8.301,-979.980,0.000
1737552882.685,5.371,-24.414,-28.809,-980.957,0.000
1737552882.689,9.277,-15.625,-45.898,-1000.000,0.000
1737552882.693,8.301,-26.367,-26.367,21.973,0.000
1737552882.697,48.828,-32.715,-22.949,999.512,0.000
1737552882.701,38.574,-21.973,-20.508,942.871,0.000
1737552882.705,19.531,-3.906,-7.324,956.055,0.000
1737552882.709,36.621,-8.301,-7.324,976.074,0.000
1737552882.713,24.902,-18.066,-10.254,970.703,0.000
1737552882.717,19.531,-17.090,-16.113,970.703,0.000
1737552882.721,30.273,-22.461,-22.461,970.703,0.000
1737552882.725,5.371,-22.949,-29.297,970.703,0.000
1737552882.728,3.418,-17.090,-22.461,970.703,0.000
1737552882.732,-1.465,-21.484,-8.301,970.703,0.000
1737552882.736,-16.113,-27.344,-9.277,970.703,0.000
1737552882.740,-0.488,-24.414,-25.391,970.703,0.000
1737552882.744,0.000,-21.484,-39.062,970.703,0.000
1737552882.748,-6.836,-30.762,-43.457,970.703,0.000
1737552882.752,-7.812,-13.672,-30.762,970.703,0.000
1737552882.756,-14.160,0.488,-7.812,970.703,0.000
1737552882.760,4.883,-19.043,-8.789,970.703,0.000
1737552882.764,11.719,-43.945,-15.625,970.703,0.000
1737552882.768,22.949,-25.879,-10.254,970.703,0.000
1737552882.771,7.812,0.977,-19.043,970.703,0.000
1737552882.775,-36.621,-9.766,-17.578,970.703,0.000
1737552882.779,-40.527,-16.602,-16.113,970.703,0.000
1737552882.783,-44.434,-19.043,-34.180,970.703,0.000
1737552882.787,-23.926,-35.156,-26.855,970.703,0.000
1737552882.791,7.324,-33.691,-34.180,970.703,0.000
1737552882.795,-21.484,-13.184,-42.969,970.703,0.000
1737552882.799,-43.945,-14.648,-13.672,970.703,0.000
1737552882.803,-23.926,-21.484,-0.977,970.703,0.000
1737552882.807,2.441,-22.461,-8.301,970.703,0.000
1737552882.811,-18.066,-20.020,-16.113,985.840,0.000
1737552882.814,-55.176,-25.391,-26.855,915.039,0.000
1737552882.818,-46.875,-7.812,-23.926,999.512,0.000
1737552882.822,-25.879,-2.441,-16.602,865.234,0.000
1737552882.826,-56.152,-27.832,-37.598,-574.707,0.000
1737552882.830,-63.477,-38.574,-55.176,-1000.000,0.000
1737552882.834,-74.219,-41.504,-29.297,-927.246,0.000
1737552882.838,-91.797,-23.438,-16.602,-1000.000,0.000
1737552882.842,-72.754,-4.395,-37.109,-1000.000,0.000
1737552882.846,-69.824,-1.953,-40.039,-1000.000,0.000
1737552882.850,-63.477,9.277,-27.832,-1000.000,0.000
1737552882.853,-45.898,-6.348,-25.879,-1000.000,0.000
1737552882.857,-65.430,-30.762,-26.367,-1000.000,0.000
1737552882.861,-75.684,-24.902,-38.574,-1000.000,0.000
1737552882.865,-57.129,-37.109,-50.293,-993.164,0.000
1737552882.869,-45.410,-38.574,-35.645,-958.008,0.000
1737552882.873,-39.551,-5.859,-11.230,-1000.000,0.000
1737552882.877,-20.996,0.488,2.930,-324.707,0.000
1737552882.881,5.859,-1.953,-7.324,768.555,0.000
1737552882.885,-35.156,-14.648,-26.855,-382.812,0.000
1737552882.889,-61.035,-39.062,-25.879,-1000.000,0.000
1737552882.893,-51.270,-28.320,-17.578,-917.969,0.000
1737552882.896,-21.484,-18.555,-20.020,273.926,0.000
1737552882.900,6.348,-20.996,-28.809,999.512,0.000
1737552882.904,-10.254,-27.344,-21.484,912.109,0.000
1737552882.908,-5.371,-42.969,-36.133,973.145,0.000
1737552882.912,-4.395,-26.855,-43.457,972.168,0.000
1737552882.916,-6.836,-11.230,-18.555,970.703,0.000
1737552882.920,-13.184,-9.766,-2.441,970.703,0.000
1737552882.924,-29.785,-1.465,-11.230,970.703,0.000
1737552882.928,-17.578,1.465,-21.973,970.703,0.000
1737552882.932,-20.020,-9.277,-27.344,970.703,0.000
1737552882.936,-45.898,-33.691,-33.691,970.703,0.000
1737552882.939,-54.199,-30.273,-31.738,970.703,0.000
1737552882.943,-17.090,-17.090,-15.137,970.703,0.000
1737552882.947,23.926,-41.016,-7.812,970.703,0.000
1737552882.951,-5.371,-34.668,-8.301,970.703,0.000
1737552882.955,-28.320,-10.254,-28.320,970.703,0.000
1737552882.959,-25.391,-15.625,-24.414,970.703,0.000
1737552882.963,-27.832,-12.207,-14.648,970.703,0.000
1737552882.967,-38.086,-3.418,-6.836,971.191,0.000
1737552882.971,-40.039,2.930,-15.137,984.375,0.000
1737552882.975,-46.875,-4.883,-17.578,909.180,0.000
1737552882.978,-38.086,-21.484,-5.371,999.512,0.000
1737552882.982,-32.715,-29.297,-17.090,698.730,0.000
1737552882.986,-83.496,-24.902,-26.855,-731.445,0.000
1737552882.990,-81.055,-17.578,-29.297,-1000.000,0.000
1737552882.994,-51.270,-19.043,-39.062,-935.547,0.000
1737552882.998,-46.387,-36.133,-26.367,-1000.000,0.000
1737552883.002,-31.738,-39.551,-32.715,-1000.000,0.000
1737552883.006,-11.230,-40.527,-49.316,-1000.000,0.000
1737552883.010,-2.441,-43.457,-26.855,-1000.000,0.000
1737552883.014,-22.461,-9.277,-3.418,-1000.000,0.000
1737552883.018,-52.246,11.719,-26.367,-1000.000,0.000
1737552883.021,-22.949,-3.418,-37.598,-949.219,0.000
1737552883.025,6.348,-13.672,-15.137,-1000.000,0.000
1737552883.029,-12.207,-2.441,-13.184,-927.734,0.000
1737552883.033,-3.906,7.812,-12.695,492.676,0.000
1737552883.037,0.000,5.371,-12.695,999.512,0.000
1737552883.041,-20.020,-14.648,-27.344,980.957,0.000
1737552883.045,-46.387,-53.223,-48.828,746.582,0.000
1737552883.049,-74.707,-41.504,-40.039,-84.961,0.000
1737552883.053,-58.105,20.508,-23.438,636.719,0.000
1737552883.057,-46.875,28.320,-32.715,999.512,0.000
1737552883.061,-51.758,14.648,-44.434,912.109,0.000
1737552883.064,-49.805,15.137,-32.715,980.469,0.000
1737552883.068,-20.508,0.000,-41.992,971.680,0.000
1737552883.072,-22.949,-12.207,-41.504,973.145,0.000
1737552883.076,-57.129,-16.602,-36.621,917.480,0.000
1737552883.080,-69.824,-42.969,-42.969,999.512,0.000
1737552883.084,-61.035,-29.297,-36.621,451.660,0.000
1737552883.088,-76.172,4.395,-31.250,-971.680,0.000
1737552883.092,-62.500,-4.883,-19.043,-403.320,0.000
1737552883.096,-13.672,8.301,-18.555,945.312,0.000
1737552883.100,-16.602,9.766,-32.715,983.887,0.000
1737552883.103,-29.297,-6.348,-29.785,930.176,0.000
1737552883.107,-21.973,-13.184,-31.738,982.422,0.000
1737552883.111,-23.438,-16.113,-25.879,982.422,0.000
1737552883.115,-55.176,-23.438,-19.043,910.156,0.000
1737552883.119,-38.574,-12.695,-23.438,999.512,0.000
1737552883.123,-22.949,7.324,-32.715,619.629,0.000
1737552883.127,-83.496,-3.418,-31.738,-714.844,0.000
1737552883.131,-85.449,-5.371,-16.602,-1000.000,0.000
1737552883.135,-52.246,-6.348,-19.531,-770.020,0.000
1737552883.139,-5.859,-7.812,-23.438,556.152,0.000
1737552883.143,16.113,-16.602,-22.949,999.512,0.000
1737552883.146,-16.113,-15.625,-21.973,41.016,0.000
1737552883.150,-55.176,-6.836,-22.461,-922.852,0.000
1737552883.154,-36.133,-7.324,-4.395,263.184,0.000
1737552883.158,-6.348,-13.672,-3.418,999.512,0.000
1737552883.162,-15.137,-19.043,-41.504,919.922,0.000
1737552883.166,-35.156,-20.996,-37.109,-197.754,0.000
1737552883.170,-47.363,-13.184,-21.484,-1000.000,0.000
1737552883.174,-62.500,-1.953,-35.156,-1000.000,0.000
1737552883.178,-38.086,-7.324,-16.113,-368.652,0.000
1737552883.182,27.832,-22.949,-7.324,859.375,0.000
1737552883.186,-8.301,-14.160,-19.531,-104.004,0.000
1737552883.189,-58.105,-24.414,-23.438,-1000.000,0.000
1737552883.193,-57.129,-31.250,-28.809,-560.059,0.000
1737552883.197,-18.066,-25.879,-34.668,710.449,0.000
1737552883.201,10.254,-14.648,-31.250,999.512,0.000
1737552883.205,-1.465,-4.395,-31.738,765.625,0.000
1737552883.209,-56.152,2.930,-37.598,-514.160,0.000
1737552883.213,-96.191,0.977,-27.832,-1000.000,0.000
1737552883.217,-82.520,-20.996,-8.789,-937.012,0.000
1737552883.221,-56.641,-39.062,-10.254,-1000.000,0.000
1737552883.225,-52.246,-35.156,-25.879,-1000.000,0.000
1737552883.229,-43.457,-23.926,-29.297,-1000.000,0.000
1737552883.232,-32.715,-20.996,-33.691,-1000.000,0.000
1737552883.236,-34.668,-38.574,-28.320,-1000.000,0.000
1737552883.240,-29.297,-37.109,-32.715,-1000.000,0.000
1737552883.244,-7.324,-4.395,-38.574,-1000.000,0.000
1737552883.248,9.277,14.160,-18.555,-946.777,0.000
1737552883.252,-32.715,2.930,-5.371,-1000.000,0.000
1737552883.256,-66.406,-11.230,5.371,-686.035,0.000
1737552883.260,-23.926,-11.230,7.812,812.012,0.000
1737552883.264,-16.113,-20.508,-10.742,701.660,0.000
1737552883.268,-48.340,-21.973,-21.973,-783.203,0.000
1737552883.271,-45.410,-3.906,-28.809,-1000.000,0.000
1737552883.275,-42.480,-6.348,-19.043,-919.922,0.000
1737552883.279,13.672,-21.973,-15.625,388.672,0.000
1737552883.283,21.484,-13.672,-41.504,353.516,0.000
1737552883.287,-38.574,-16.113,-32.227,-1000.000,0.000
1737552883.291,-59.570,-26.855,-5.371,-1000.000,0.000
1737552883.295,-83.984,-14.648,0.977,-961.426,0.000
1737552883.299,-78.613,-23.438,-8.301,-1000.000,0.000
1737552883.303,-52.734,-27.344,-19.043,-1000.000,0.000
1737552883.307,-6.836,-3.906,-17.090,-965.332,0.000
1737552883.311,4.395,-13.672,-31.738,-991.699,0.000
1737552883.314,-41.504,-37.598,-50.781,-1000.000,0.000
1737552883.318,-26.855,-22.949,-27.832,323.730,0.000
1737552883.322,6.348,-3.906,-9.277,896.973,0.000
1737552883.326,-45.410,0.000,-14.160,-711.426,0.000
1737552883.330,-58.105,-3.906,-2.441,-1000.000,0.000
1737552883.334,-56.641,-19.531,-8.789,-926.270,0.000
1737552883.338,-65.918,-18.555,-41.016,-1000.000,0.000
1737552883.342,-43.945,0.977,-27.832,-1000.000,0.000
1737552883.346,-23.926,-5.859,-15.137,-1000.000,0.000
1737552883.350,-13.184,-30.762,-23.926,-1000.000,0.000
1737552883.354,-15.137,-47.852,-21.973,-1000.000,0.000
1737552883.357,-41.504,-29.785,-28.809,-1000.000,0.000
1737552883.361,-38.574,-14.648,-38.086,-1000.000,0.000
1737552883.365,9.277,-15.137,-21.973,-939.941,0.000
1737552883.369,23.438,-7.324,-7.812,-1000.000,0.000
1737552883.373,-1.465,-12.695,-20.020,-763.184,0.000
1737552883.377,19.043,-5.371,-20.020,606.934,0.000
1737552883.381,24.902,-1.953,-20.508,999.512,0.000
1737552883.385,13.672,-16.113,-17.090,540.527,0.000
1737552883.389,-27.832,-21.973,-10.742,-838.379,0.000
1737552883.393,-25.879,-21.973,-20.996,-361.816,0.000
1737552883.397,-13.184,-17.578,-39.062,917.480,0.000
1737552883.400,-5.371,-9.277,-40.527,999.512,0.000
1737552883.404,9.766,-9.277,-18.066,727.539,0.000
1737552883.408,-34.668,-29.785,-15.625,-735.352,0.000
1737552883.412,-58.105,-46.387,-29.297,-855.469,0.000
1737552883.416,-24.902,-6.348,-20.996,718.750,0.000
1737552883.420,-11.230,12.207,-22.949,999.512,0.000
1737552883.424,-13.184,-10.742,-26.367,879.395,0.000
1737552883.428,-36.133,-27.344,-27.344,644.531,0.000
1737552883.432,-21.973,-34.668,-32.227,838.867,0.000
1737552883.436,-9.766,-35.156,-31.738,961.426,0.000
1737552883.439,-14.648,-15.137,-10.254,999.512,0.000
1737552883.443,-15.137,-10.742,-2.441,573.242,0.000
1737552883.447,-35.156,-14.648,-20.996,-814.941,0.000
1737552883.451,-55.176,-16.113,-26.855,-1000.000,0.000
1737552883.455,-39.551,-17.090,-18.066,172.852,0.000
1737552883.459,-16.113,-16.602,-23.438,999.512,0.000
1737552883.463,-10.254,-22.949,-22.461,926.758,0.000
1737552883.467,-7.812,-32.227,-28.320,931.641,0.000
1737552883.471,-2.441,-52.734,-21.484,973.145,0.000
1737552883.475,0.000,-41.992,-6.348,915.039,0.000
1737552883.479,-17.578,-17.578,-19.043,999.512,0.000
1737552883.482,-56.152,-10.742,-29.297,526.367,0.000
1737552883.486,-104.492,-17.090,-17.578,-846.680,0.000
1737552883.490,-75.684,-17.578,-22.949,-1000.000,0.000
1737552883.494,-64.453,-18.066,-29.785,-946.777,0.000
1737552883.498,-73.242,-22.461,-17.578,-1000.000,0.000
1737552883.502,-76.660,-35.156,-3.906,-1000.000,0.000
1737552883.506,-67.383,-41.016,-1.465,-978.027,0.000
1737552883.510,-45.410,-62.500,-16.602,-983.887,0.000
1737552883.514,-41.016,-62.012,-24.414,-1000.000,0.000
1737552883.518,-11.719,-22.461,-23.438,54.199,0.000
1737552883.522,18.555,-23.926,-29.785,999.512,0.000
1737552883.525,-10.254,-10.742,-10.254,928.711,0.000
1737552883.529,-18.555,13.672,-13.184,952.637,0.000
1737552883.533,-28.809,-4.883,-17.090,977.539,0.000
1737552883.537,-22.461,-16.113,-5.859,970.215,0.000
1737552883.541,-30.762,-24.902,-14.160,970.703,0.000
1737552883.545,-46.387,-46.387,-23.926,970.703,0.000
1737552883.549,-28.809,-44.434,-11.719,970.703,0.000
1737552883.553,-28.809,-21.973,-2.930,970.703,0.000
1737552883.557,-23.926,-30.762,-14.160,970.703,0.000
1737552883.561,-18.555,-47.363,-22.461,970.703,0.000
1737552883.565,-50.781,-11.719,-15.137,970.703,0.000
1737552883.568,-63.477,-2.930,-4.883,970.703,0.000
1737552883.572,-62.988,-31.250,-3.906,970.703,0.000
1737552883.576,-60.059,-33.691,-13.672,970.703,0.000
1737552883.580,-55.664,-24.902,-6.348,970.703,0.000
1737552883.584,-50.781,-22.949,3.906,970.703,0.000
1737552883.588,-15.625,-20.508,-8.301,981.934,0.000
1737552883.592,-13.672,-39.062,-16.113,929.199,0.000
1737552883.596,-38.574,-47.852,-20.020,986.816,0.000
1737552883.600,-30.273,-31.738,-32.227,960.938,0.000
1737552883.604,-56.641,-24.414,-20.508,-389.648,0.000
1737552883.607,-70.312,-24.414,-4.395,-1000.000,0.000
1737552883.611,-30.273,-26.855,-1.953,-932.129,0.000
1737552883.615,2.930,-39.551,3.418,-1000.000,0.000
1737552883.619,-12.207,-41.504,2.441,-1000.000,0.000
1737552883.623,-23.926,-16.113,-12.207,-1000.000,0.000
1737552883.627,-15.625,0.488,-13.672,-1000.000,0.000
1737552883.631,-36.133,-11.230,-7.812,-1000.000,0.000
1737552883.635,-55.176,-34.668,-18.555,-1000.000,0.000
1737552883.639,-83.008,-49.805,-22.461,-1000.000,0.000
1737552883.643,-68.848,-22.949,-13.672,-1000.000,0.000
1737552883.647,-33.691,-22.461,-15.625,-1000.000,0.000
1737552883.650,-27.344,-46.875,-16.113,-1000.000,0.000
1737552883.654,-29.785,-31.738,-18.555,-1000.000,0.000
1737552883.658,-30.762,-17.090,-23.438,-1000.000,0.000
1737552883.662,-32.715,-5.859,-8.301,-937.988,0.000
1737552883.666,-43.945,-5.859,-3.906,-1000.000,0.000
1737552883.670,-28.809,-14.160,-22.461,-713.867,0.000
1737552883.674,21.484,-6.348,-26.367,715.332,0.000
1737552883.678,14.648,1.465,-24.414,999.512,0.000
1737552883.682,13.184,-15.137,-20.508,939.453,0.000
1737552883.686,9.766,-7.812,-24.902,838.379,0.000
1737552883.690,-19.043,9.766,-35.645,765.625,0.000
1737552883.693,-34.668,6.348,-42.480,918.457,0.000
1737552883.697,-47.852,-10.254,-45.898,999.512,0.000
1737552883.701,-41.504,-24.902,-53.223,798.340,0.000
1737552883.705,-75.195,-22.461,-33.691,-646.973,0.000
1737552883.709,-68.848,-12.695,-10.254,-1000.000,0.000
1737552883.713,-38.086,-14.160,-19.531,-1000.000,0.000
1737552883.717,-35.645,-28.320,-26.367,-497.070,0.000
1737552883.721,-16.602,-29.785,-26.855,280.762,0.000
1737552883.725,-36.621,-35.156,-39.062,-698.730,0.000
1737552883.729,-35.156,-14.648,-39.062,-1000.000,0.000
1737552883.732,-28.809,10.742,-17.578,-936.035,0.000
1737552883.736,-35.156,-0.488,-16.602,-1000.000,0.000
1737552883.740,-35.156,-6.348,-32.227,-1000.000,0.000
1737552883.744,-65.430,-2.930,-26.855,-1000.000,0.000
1737552883.748,-43.945,-6.836,-26.367,-1000.000,0.000
1737552883.752,-33.203,-23.438,-22.461,-1000.000,0.000
1737552883.756,-55.176,-32.227,-16.113,-1000.000,0.000
1737552883.760,-53.711,-34.180,-29.785,-1000.000,0.000
1737552883.764,-46.387,-30.273,-33.691,-1000.000,0.000
1737552883.768,-19.531,-24.902,-20.508,-944.824,0.000
1737552883.772,-19.531,-16.113,-20.996,-1000.000,0.000
1737552883.775,-35.645,-7.324,-13.672,-652.832,0.000
1737552883.779,-6.836,-17.578,-13.184,845.703,0.000
1737552883.783,-15.137,-27.832,-30.762,682.617,0.000
1737552883.787,-58.105,-27.832,-20.020,-837.402,0.000
1737552883.791,-57.617,-17.578,-10.254,-1000.000,0.000
1737552883.795,-40.527,-13.184,-23.926,-940.918,0.000
1737552883.799,-17.578,-18.555,-23.926,-1000.000,0.000
1737552883.803,-2.441,-6.348,-23.926,-958.008,0.000
1737552883.807,-12.695,-2.930,-29.785,-1000.000,0.000
1737552883.811,-3.418,-20.508,-37.109,-948.242,0.000
1737552883.815,34.668,-30.273,-33.203,309.570,0.000
1737552883.818,27.832,-20.508,-14.160,999.512,0.000
1737552883.822,24.414,-13.672,-10.742,785.645,0.000
1737552883.826,5.371,-19.531,-18.555,-569.824,0.000
1737552883.830,-34.668,-30.273,-29.785,-1000.000,0.000
1737552883.834,-43.945,-32.715,-45.410,-990.723,0.000
1737552883.838,-38.574,-29.297,-41.016,-68.848,0.000
1737552883.842,-17.090,-16.113,-17.578,841.797,0.000
1737552883.846,-55.664,-20.996,-11.719,-493.652,0.000
1737552883.850,-78.613,-22.949,-18.555,-1000.000,0.000
1737552883.854,-49.805,-16.602,-17.090,-913.086,0.000
1737552883.857,2.441,-29.297,-22.949,416.992,0.000
1737552883.861,41.016,-29.785,-23.438,999.512,0.000
1737552883.865,-14.160,-23.438,-12.207,-443.359,0.000
1737552883.869,-65.918,-26.367,-18.066,-1000.000,0.000
1737552883.873,-51.758,-24.902,-24.902,-933.594,0.000
1737552883.877,-33.203,-31.738,-39.062,-1000.000,0.000
1737552883.881,-25.391,-3.418,-54.199,-1000.000,0.000
1737552883.885,-0.488,17.090,-38.574,-1000.000,0.000
1737552883.889,4.883,-2.441,-3.906,-1000.000,0.000
1737552883.893,-11.719,-11.719,-8.301,-1000.000,0.000
1737552883.897,-42.969,-39.551,-17.090,-1000.000,0.000
1737552883.900,-54.199,-65.430,-15.137,-1000.000,0.000
1737552883.904,-53.223,-36.133,-11.230,-1000.000,0.000
1737552883.908,-41.992,-19.531,-13.184,-1000.000,0.000
1737552883.912,-34.180,-23.926,-33.691,-1000.000,0.000
1737552883.916,-50.293,-25.391,-36.621,-1000.000,0.000
1737552883.920,-51.270,-1.953,-17.578,-1000.000,0.000
1737552883.924,-28.809,-3.906,-22.949,-1000.000,0.000
1737552883.928,-18.555,-20.020,-30.273,-994.629,0.000
1737552883.932,-29.297,-22.461,-30.273,-1000.000,0.000
1737552883.936,-24.414,-33.203,-23.438,-1000.000,0.000
1737552883.940,-8.789,-33.691,-8.301,-767.578,0.000
1737552883.943,-18.555,-29.297,-3.418,-825.684,0.000
1737552883.947,-3.906,-14.648,-7.324,-1000.000,0.000
1737552883.951,51.758,-8.301,-15.137,43.457,0.000
1737552883.955,62.988,-6.836,-24.902,999.512,0.000
1737552883.959,28.320,-3.418,-30.762,909.180,0.000
1737552883.963,-23.926,-10.742,-28.809,974.609,0.000
1737552883.967,-50.293,-16.602,-28.320,442.871,0.000
1737552883.971,-77.637,-27.344,-26.855,-838.867,0.000
1737552883.975,-84.473,-43.457,-18.066,-895.020,0.000
1737552883.979,-19.531,-43.945,-20.020,618.652,0.000
1737552883.983,-11.719,-10.742,-34.180,999.512,0.000
1737552883.986,-75.195,-1.953,-27.344,-235.840,0.000
1737552883.990,-73.242,-21.973,-10.742,-1000.000,0.000
1737552883.994,-32.227,-5.371,-4.395,352.539,0.000
1737552883.998,-33.691,-1.953,-9.766,999.512,0.000
1737552884.002,-15.625,-10.742,-13.672,975.586,0.000
1737552884.006,1.465,-2.441,-16.602,684.570,0.000
1737552884.010,3.906,-8.789,-20.508,200.195,0.000
1737552884.014,37.598,-31.250,-21.484,762.695,0.000
1737552884.018,23.438,-17.578,-29.297,999.512,0.000
1737552884.022,-10.254,-2.441,-25.879,901.367,0.000
1737552884.025,-27.832,-34.668,-27.344,-428.223,0.000
1737552884.029,-28.320,-53.223,-42.969,-1000.000,0.000
1737552884.033,-14.160,-24.902,-43.945,-930.176,0.000
1737552884.037,-28.809,0.977,-28.320,-1000.000,0.000
1737552884.041,-56.641,-8.789,-32.227,-1000.000,0.000
1737552884.045,-42.969,-9.766,-31.738,-1000.000,0.000
1737552884.049,19.043,1.465,-20.996,-1000.000,0.000
1737552884.053,40.527,0.000,-5.859,-1000.000,0.000
1737552884.057,31.738,-30.762,-8.301,-1000.000,0.000
1737552884.061,-1.465,-52.734,-14.648,-1000.000,0.000
1737552884.065,-39.062,4.883,-21.484,-1000.000,0.000
1737552884.068,-34.180,23.438,-35.645,-1000.000,0.000
1737552884.072,8.789,0.000,-33.691,-1000.000,0.000
1737552884.076,13.184,-28.320,-35.156,-1000.000,0.000
1737552884.080,-41.504,-56.641,-40.039,-1000.000,0.000
1737552884.084,-41.504,-23.438,-23.926,-953.125,0.000
1737552884.088,-27.344,19.531,-3.418,-1000.000,0.000
1737552884.092,-11.719,5.371,-8.789,-412.598,0.000
1737552884.096,27.832,-27.832,-14.648,883.301,0.000
1737552884.100,7.324,-28.809,-10.742,999.512,0.000
1737552884.104,-52.734,-9.766,-19.043,-347.656,0.000
1737552884.108,-48.828,-3.418,-21.484,-1000.000,0.000
1737552884.111,-18.555,-10.254,-30.762,-938.965,0.000
1737552884.115,-34.180,-26.855,-41.016,-1000.000,0.000
1737552884.119,-5.859,-31.250,-34.668,-1000.000,0.000
1737552884.123,-6.348,-27.832,-37.598,-1000.000,0.000
1737552884.127,-38.086,-27.832,-25.879,-1000.000,0.000
1737552884.131,-18.555,-25.391,-12.695,-949.707,0.000
1737552884.135,-10.254,-9.766,-20.508,-1000.000,0.000
1737552884.139,18.066,8.789,-29.297,-422.363,0.000
1737552884.143,60.547,10.254,-21.973,862.793,0.000
1737552884.147,34.180,-21.484,-15.137,999.512,0.000
1737552884.150,14.160,-44.922,-12.207,926.270,0.000
1737552884.154,7.812,-17.090,-12.695,982.422,0.000
1737552884.158,-26.367,-0.488,-10.254,970.703,0.000
1737552884.162,-38.574,-16.113,-16.113,970.703,0.000
1737552884.166,-24.414,-15.137,-9.277,970.703,0.000
1737552884.170,-11.230,-11.719,-10.742,970.703,0.000
1737552884.174,-7.812,-10.742,-24.414,970.703,0.000
1737552884.178,-6.836,-2.441,-27.832,970.703,0.000
1737552884.182,-2.930,-13.672,-20.996,970.703,0.000
1737552884.186,-18.555,-23.926,-40.527,970.703,0.000
1737552884.190,-18.555,-25.879,-46.875,970.703,0.000
1737552884.193,-20.996,-39.551,-10.254,970.703,0.000
1737552884.197,-21.484,-36.621,-12.207,970.703,0.000
1737552884.201,-16.602,-2.930,-30.762,970.703,0.000
1737552884.205,-3.418,-2.930,-15.625,970.703,0.000
1737552884.209,13.672,-18.066,-6.348,970.703,0.000
1737552884.213,-15.625,-14.648,-15.137,970.703,0.000
1737552884.217,-65.918,-14.648,-25.879,970.703,0.000
1737552884.221,-73.242,-8.301,-21.484,970.703,0.000
1737552884.225,-35.645,-7.812,-15.137,970.703,0.000
1737552884.229,-16.602,-27.344,-11.230,977.051,0.000
1737552884.233,0.488,-20.020,-6.836,950.195,0.000
1737552884.236,-1.465,-14.160,-24.414,949.707,0.000
1737552884.240,-46.875,-17.578,-26.367,999.512,0.000
1737552884.244,-80.566,-25.879,-33.203,-76.660,0.000
1737552884.248,-78.125,-37.109,-25.879,-1000.000,0.000
1737552884.252,-65.918,-18.066,0.977,-964.844,0.000
1737552884.256,-82.520,5.859,5.859,-988.281,0.000
1737552884.260,-85.449,14.160,-13.672,-1000.000,0.000
1737552884.264,-67.871,-1.953,-31.250,-1000.000,0.000
1737552884.268,-35.156,-36.621,-34.180,-1000.000,0.000
1737552884.272,-8.789,-33.203,-44.434,-1000.000,0.000
1737552884.276,-11.230,-5.371,-29.297,-1000.000,0.000
1737552884.279,-39.062,-28.320,-2.930,-1000.000,0.000
1737552884.283,-23.438,-28.809,-10.254,-1000.000,0.000
1737552884.287,-12.695,14.160,-19.531,-1000.000,0.000
1737552884.291,-28.320,0.977,-14.648,-1000.000,0.000
1737552884.295,-47.363,-23.438,-21.973,-1000.000,0.000
1737552884.299,-66.895,-37.109,-29.297,-1000.000,0.000
1737552884.303,-73.242,-34.668,-32.715,-1000.000,0.000
1737552884.307,-46.875,-8.301,-11.230,-1000.000,0.000
1737552884.311,-29.785,-19.531,-20.020,-1000.000,0.000
1737552884.315,-30.273,-42.969,-40.039,-1000.000,0.000
1737552884.318,-47.852,-42.480,-12.207,-1000.000,0.000
1737552884.322,-62.988,-30.762,-15.625,-1000.000,0.000
1737552884.326,-39.062,-22.461,-25.879,-1000.000,0.000
1737552884.330,-20.020,-14.160,-20.020,-965.820,0.000
1737552884.334,-49.805,-7.812,-27.344,-1000.000,0.000
1737552884.338,-46.387,-6.836,-18.066,-953.613,0.000
1737552884.342,15.137,-15.137,-27.832,-153.809,0.000
1737552884.346,1.953,-28.809,-41.992,-703.613,0.000
1737552884.350,-18.066,-19.531,-20.996,-947.754,0.000
1737552884.354,20.508,-10.254,-4.883,659.180,0.000
1737552884.358,33.691,-26.855,-2.441,999.512,0.000
1737552884.361,26.855,-27.832,-23.926,898.926,0.000
1737552884.365,21.973,-9.277,-45.898,986.328,0.000
1737552884.369,21.484,2.930,-28.809,970.703,0.000
1737552884.373,-13.672,1.953,-15.137,970.703,0.000
1737552884.377,-54.688,-23.438,-27.832,970.703,0.000
1737552884.381,-55.664,-49.316,-6.348,970.703,0.000
1737552884.385,-64.453,-58.105,1.465,970.703,0.000
1737552884.389,-44.922,-25.391,-4.883,970.703,0.000
1737552884.393,-23.438,11.230,-3.418,970.703,0.000
1737552884.397,-27.344,-0.977,-17.578,970.703,0.000
1737552884.401,-35.156,-16.113,-22.461,970.215,0.000
1737552884.404,-24.414,-5.859,-23.926,970.215,0.000
1737552884.408,-31.250,-0.977,-31.250,971.680,0.000
1737552884.412,-57.129,-15.137,-22.461,981.445,0.000
1737552884.416,-68.848,-16.602,-29.785,911.133,0.000
1737552884.420,-68.359,-13.672,-30.762,999.512,0.000
1737552884.424,-73.730,-21.973,-15.625,596.680,0.000
1737552884.428,-90.820,-39.062,-10.742,-735.840,0.000
1737552884.432,-107.422,-26.855,-14.648,-1000.000,0.000
1737552884.436,-98.145,-20.996,-15.137,-661.621,0.000
1737552884.440,-59.570,-35.156,-7.324,691.406,0.000
1737552884.443,-73.242,-18.066,-25.879,999.512,0.000
1737552884.447,-100.098,-10.742,-51.270,-614.258,0.000
1737552884.451,-85.938,-19.531,-33.691,-968.262,0.000
1737552884.455,-46.387,-21.484,-8.301,654.785,0.000
1737552884.459,-15.625,-27.832,-15.625,999.512,0.000
1737552884.463,-32.227,-29.297,-22.949,897.949,0.000
1737552884.467,-33.691,-23.926,-2.930,986.328,0.000
1737552884.471,0.488,-40.039,5.859,970.703,0.000
1737552884.475,3.418,-32.715,-3.418,970.703,0.000
1737552884.479,-62.988,-8.789,-34.668,970.703,0.000
1737552884.483,-56.152,-0.977,-41.992,970.703,0.000
1737552884.486,-35.156,8.301,-5.371,970.703,0.000
1737552884.490,-35.156,-6.836,0.488,970.703,0.000
1737552884.494,-35.645,-12.207,-13.672,970.703,0.000
1737552884.498,-54.199,-6.348,-7.812,970.703,0.000
1737552884.502,-53.711,-24.414,-13.184,970.703,0.000
1737552884.506,-24.902,-38.574,-18.555,970.703,0.000
1737552884.510,-11.719,-15.137,-9.766,976.074,0.000
1737552884.514,-38.086,6.836,2.930,957.520,0.000
1737552884.518,-52.734,-0.488,-8.789,937.012,0.000
1737552884.522,-46.387,-31.250,-17.578,999.512,0.000
1737552884.526,-56.641,-31.738,-15.137,127.441,0.000
1737552884.529,-61.523,-15.625,-25.391,-1000.000,0.000
1737552884.533,-13.672,-29.785,-37.109,-120.117,0.000
1737552884.537,-0.977,-23.438,-41.992,999.512,0.000
1737552884.541,-32.715,-8.301,-22.461,957.031,0.000
1737552884.545,-36.621,6.836,-0.488,938.965,0.000
1737552884.549,-36.621,8.301,-0.488,972.168,0.000
1737552884.553,-38.086,-5.371,1.953,980.469,0.000
1737552884.557,-36.133,-18.555,-5.859,913.574,0.000
1737552884.561,-24.902,-29.297,-27.344,999.512,0.000
1737552884.565,-40.527,-24.902,-37.109,592.285,0.000
1737552884.569,-68.359,-32.227,-30.762,-775.879,0.000
1737552884.572,-27.832,-50.293,-18.555,-1000.000,0.000
1737552884.576,-24.902,-20.996,-17.090,-25.391,0.000
1737552884.580,-4.395,8.301,-34.668,999.512,0.000
1737552884.584,8.301,2.930,-33.691,511.230,0.000
1737552884.588,-70.801,-9.766,-1.953,-841.309,0.000
1737552884.592,-67.383,-5.371,6.348,-1000.000,0.000
1737552884.596,-28.809,-1.465,0.488,-947.266,0.000
1737552884.600,-55.664,-4.883,-8.301,-1000.000,0.000
1737552884.604,-59.570,-6.348,-27.344,-1000.000,0.000
1737552884.608,-27.832,-1.953,-34.180,-1000.000,0.000
1737552884.611,-7.812,-1.465,-27.344,-1000.000,0.000
1737552884.615,-37.109,-9.766,-27.832,-1000.000,0.000
1737552884.619,-75.195,-15.137,-29.785,-1000.000,0.000
1737552884.623,-110.352,-14.160,-37.109,-1000.000,0.000
1737552884.627,-147.949,2.930,-48.828,-1000.000,0.000
1737552884.631,-149.902,14.648,-46.387,-1000.000,0.000
1737552884.635,-117.676,-5.859,-60.059,-1000.000,0.000
1737552884.639,-114.746,-27.344,-69.336,-1000.000,0.000
1737552884.643,-139.648,-18.066,-67.871,-1000.000,0.000
1737552884.647,-161.133,-4.395,-60.059,-1000.000,0.000
1737552884.651,-192.383,32.715,-52.734,-1000.000,0.000
1737552884.654,-205.566,48.828,-40.039,-1000.000,0.000
1737552884.658,-172.363,49.805,-17.090,-1000.000,0.000
1737552884.662,-149.902,67.383,-37.598,-951.172,0.000
1737552884.666,-113.770,56.152,-47.852,-1000.000,0.000
1737552884.670,-59.570,7.324,-27.832,-937.500,0.000
1737552884.674,-46.875,-4.883,-30.273,463.379,0.000
1737552884.678,-50.781,26.855,-36.621,999.512,0.000
1737552884.682,-58.105,37.109,-26.855,899.414,0.000
1737552884.686,-54.688,37.598,-39.551,981.934,0.000
1737552884.690,-24.902,18.066,-43.457,972.656,0.000
1737552884.694,-5.859,-3.418,-13.672,975.586,0.000
1737552884.697,-8.301,-29.785,-17.090,919.434,0.000
1737552884.701,0.488,-16.113,-28.320,999.512,0.000
1737552884.705,24.414,0.000,-20.508,501.465,0.000
1737552884.709,7.324,-15.625,-17.090,-820.801,0.000
1737552884.713,-26.367,-27.344,-11.719,-1000.000,0.000
1737552884.717,-17.090,-30.273,-1.953,-948.730,0.000
1737552884.721,27.344,-8.789,-9.766,-1000.000,0.000
1737552884.725,35.156,-36.133,-18.555,-1000.000,0.000
1737552884.729,50.293,-49.805,-19.531,-1000.000,0.000
1737552884.733,79.590,-18.555,-27.832,-1000.000,0.000
1737552884.737,32.715,-31.250,-25.391,-1000.000,0.000
1737552884.740,-16.113,-45.410,-20.508,-990.234,0.000
1737552884.744,20.996,-28.809,-20.996,-965.332,0.000
1737552884.748,53.711,-20.996,-30.762,-1000.000,0.000
1737552884.752,78.125,-33.691,-20.508,-156.250,0.000
1737552884.756,137.207,-19.531,-3.906,946.777,0.000
1737552884.760,96.191,-35.645,-16.113,997.559,0.000
1737552884.764,22.949,-60.547,-14.160,916.992,0.000
1737552884.768,5.859,-50.293,-12.695,375.977,0.000
1737552884.772,6.836,-36.133,-23.438,668.457,0.000
1737552884.776,20.508,-16.113,-12.207,999.512,0.000
1737552884.779,22.949,-12.207,-5.859,935.547,0.000
1737552884.783,15.137,-24.414,-13.672,974.609,0.000
1737552884.787,26.367,-30.762,-16.602,970.703,0.000
1737552884.791,36.133,-29.297,-30.762,978.027,0.000
1737552884.795,43.945,-33.691,-13.672,949.219,0.000
1737552884.799,76.172,-28.809,13.672,957.520,0.000
1737552884.803,77.637,-18.555,1.465,992.676,0.000
1737552884.807,18.555,-30.762,-13.184,-41.992,0.000
1737552884.811,-26.855,-51.758,-16.602,-1000.000,0.000
1737552884.815,-8.789,-51.758,-30.273,-980.469,0.000
1737552884.819,1.953,-41.504,-17.578,-983.398,0.000
1737552884.822,-11.719,-42.969,1.953,-1000.000,0.000
1737552884.826,-3.418,-54.199,-20.508,-1000.000,0.000
1737552884.830,30.762,-18.555,-23.926,-1000.000,0.000
1737552884.834,4.883,0.488,-17.578,-1000.000,0.000
1737552884.838,4.395,-15.625,-7.812,-1000.000,0.000
1737552884.842,20.020,-35.645,11.230,-981.445,0.000
1737552884.846,9.766,-51.758,-10.742,-978.027,0.000
1737552884.850,-0.977,-22.461,-39.551,-1000.000,0.000
1737552884.854,37.598,-3.418,-31.250,0.000,0.000
1737552884.858,58.105,-32.715,-17.578,999.512,0.000
1737552884.862,49.316,-59.082,-17.578,944.824,0.000
1737552884.865,43.945,-49.316,-11.719,954.590,0.000
1737552884.869,15.625,-26.367,-10.254,976.074,0.000
1737552884.873,12.695,-10.254,-20.508,970.703,0.000
1737552884.877,35.645,-30.273,-13.184,970.703,0.000
1737552884.881,29.785,-40.527,-21.484,970.703,0.000
1737552884.885,18.555,-32.715,-24.414,970.703,0.000
1737552884.889,17.578,-41.016,-6.348,970.703,0.000
1737552884.893,25.391,-37.109,-8.301,970.703,0.000
1737552884.897,23.926,-45.898,-31.738,970.703,0.000
1737552884.901,-6.348,-39.062,-47.852,970.703,0.000
1737552884.904,-27.344,-20.508,-16.113,970.703,0.000
1737552884.908,-0.488,-10.742,-3.418,986.816,0.000
1737552884.912,12.207,-23.926,-40.039,911.133,0.000
1737552884.916,15.625,-21.484,-29.297,999.512,0.000
1737552884.920,11.719,5.371,-5.371,833.984,0.000
1737552884.924,-27.832,-7.324,-2.930,-624.023,0.000
1737552884.928,-38.086,-41.504,-17.578,-1000.000,0.000
1737552884.932,-22.949,-35.156,-34.668,-927.246,0.000
1737552884.936,-5.859,-23.926,-28.809,-1000.000,0.000
1737552884.940,0.000,-23.926,-28.809,-1000.000,0.000
1737552884.944,13.184,-41.016,-36.621,-1000.000,0.000
1737552884.947,43.945,-32.227,-36.621,-1000.000,0.000
1737552884.951,39.062,0.977,-18.066,-1000.000,0.000
1737552884.955,-7.812,-0.977,6.836,-1000.000,0.000
1737552884.959,-19.043,-24.414,-4.395,-991.211,0.000
1737552884.963,22.949,-17.578,-22.461,-961.426,0.000
1737552884.967,31.738,-10.742,-23.926,-1000.000,0.000
1737552884.971,9.277,-31.250,-23.926,-152.344,0.000
1737552884.975,12.695,-34.668,-35.645,993.164,0.000
1737552884.979,35.156,-25.879,-35.156,961.426,0.000
1737552884.983,25.879,-4.883,-24.414,945.312,0.000
1737552884.987,18.066,-22.949,-34.668,979.004,0.000
1737552884.990,-1.953,-34.180,-9.766,986.328,0.000
1737552884.994,-45.898,-11.230,7.324,910.156,0.000
1737552884.998,-38.086,-16.602,5.371,999.512,0.000
1737552885.002,-43.457,-37.109,-2.930,807.617,0.000
1737552885.006,-61.523,-35.156,-19.043,-657.715,0.000
1737552885.010,-45.410,2.930,-10.742,-1000.000,0.000
1737552885.014,-31.250,17.578,-6.836,-971.680,0.000
1737552885.018,-21.973,-9.766,-25.879,-844.238,0.000
1737552885.022,7.324,-20.996,-22.461,535.645,0.000
1737552885.026,30.273,-18.066,-21.484,999.512,0.000
1737552885.030,52.246,-19.531,-20.020,906.738,0.000
1737552885.033,48.828,-4.883,-3.906,981.445,0.000
1737552885.037,34.180,-5.371,-8.301,970.703,0.000
1737552885.041,22.949,-22.461,-18.555,970.703,0.000
1737552885.045,-38.574,-30.762,-8.301,970.703,0.000
1737552885.049,-49.805,-23.438,-15.625,970.703,0.000
1737552885.053,-31.250,-24.902,-24.902,982.910,0.000
1737552885.057,-54.199,-26.855,-9.766,914.062,0.000
1737552885.061,-34.180,-25.879,-8.789,999.512,0.000
1737552885.065,-43.945,-32.715,-7.324,691.895,0.000
1737552885.069,-64.453,-20.996,-20.508,-644.043,0.000
1737552885.072,-32.715,-15.137,-28.320,-1000.000,0.000
1737552885.076,-16.113,-11.230,-8.789,-712.402,0.000
1737552885.080,20.508,-12.207,-4.883,663.086,0.000
1737552885.084,38.574,-19.531,-7.812,979.980,0.000
1737552885.088,-4.395,-27.344,-11.230,-551.758,0.000
1737552885.092,-58.105,-23.438,-6.836,-1000.000,0.000
1737552885.096,-37.109,-8.301,-3.906,437.012,0.000
1737552885.100,3.906,-23.438,-14.648,999.512,0.000
1737552885.104,-7.324,-47.363,-36.621,917.480,0.000
1737552885.108,-25.391,-31.738,-43.457,-60.059,0.000
1737552885.112,-41.992,-12.695,-31.250,-317.383,0.000
1737552885.115,-13.672,-20.020,-29.297,851.074,0.000
1737552885.119,-5.859,-27.832,-14.648,999.512,0.000
1737552885.123,-3.418,-28.809,-1.465,923.828,0.000
1737552885.127,0.977,-25.879,-14.648,980.957,0.000
1737552885.131,-26.367,-25.879,-19.043,970.703,0.000
1737552885.135,-52.246,-26.855,-13.184,970.703,0.000
1737552885.139,-34.668,-43.457,-28.320,970.703,0.000
1737552885.143,-46.875,-54.199,-47.363,970.703,0.000
1737552885.147,-46.387,-18.066,-18.066,970.703,0.000
1737552885.151,-18.066,8.301,-16.602,973.633,0.000
1737552885.155,-24.414,1.465,-24.414,956.543,0.000
1737552885.158,-43.457,-6.348,-12.207,986.328,0.000
1737552885.162,-50.293,-20.508,-14.648,962.891,0.000
1737552885.166,-40.039,-18.555,-18.066,611.328,0.000
1737552885.170,-8.301,8.789,-14.648,784.180,0.000
1737552885.174,-35.645,6.836,-23.926,999.512,0.000
1737552885.178,-42.969,-15.625,-54.199,949.219,0.000
1737552885.182,6.348,-22.461,-48.828,973.633,0.000
1737552885.186,17.578,-33.691,-5.371,970.703,0.000
1737552885.190,3.906,-46.875,-3.418,982.422,0.000
1737552885.194,-24.414,-22.461,-23.438,929.688,0.000
1737552885.198,-51.270,-1.953,-30.273,986.816,0.000
1737552885.201,-67.383,-39.551,-38.086,957.031,0.000
1737552885.205,-82.031,-22.949,-49.805,-382.812,0.000
