timestamps,TP9,AF7,AF8,TP10,Right AUX
1737552022.988,-28.320,-11.719,-12.207,952.637,0.000
1737552022.992,-61.523,-33.691,-19.043,-592.773,0.000
1737552022.996,-54.688,-32.227,-31.738,-924.316,0.000
1737552023.000,-7.324,-32.715,-37.598,680.664,0.000
1737552023.004,12.695,-36.133,-31.250,999.512,0.000
1737552023.008,-2.441,-18.066,-19.531,966.309,0.000
1737552023.012,-29.297,-7.324,-39.551,-76.172,0.000
1737552023.015,-14.160,-16.113,-47.363,-1000.000,0.000
1737552023.019,16.113,-14.648,-18.066,214.355,0.000
1737552023.023,18.066,-6.836,-12.695,999.512,0.000
1737552023.027,-22.949,-10.254,-18.066,925.293,0.000
1737552023.031,-30.762,-15.625,-6.348,-163.574,0.000
1737552023.035,-31.250,-34.668,-19.531,-1000.000,0.000
1737552023.039,-38.574,-9.766,-36.133,-796.875,0.000
1737552023.043,-33.691,10.254,-32.227,510.742,0.000
1737552023.047,-12.207,-4.395,-27.344,999.512,0.000
1737552023.051,-1.465,-9.766,-11.719,-145.020,0.000
1737552023.055,-18.066,-19.531,-2.930,-1000.000,0.000
1737552023.058,-6.836,-24.902,-3.418,-650.879,0.000
1737552023.062,7.324,-20.020,-2.441,680.664,0.000
1737552023.066,-7.812,-18.066,-5.859,999.512,0.000
1737552023.070,-20.508,-30.762,-14.160,-485.840,0.000
1737552023.074,5.859,-37.109,-24.902,-1000.000,0.000
1737552023.078,-11.230,-17.090,-22.949,-938.477,0.000
1737552023.082,-27.344,0.488,-7.324,-735.840,0.000
1737552023.086,0.977,5.371,-14.648,538.574,0.000
1737552023.090,-4.395,9.277,-22.461,604.980,0.000
1737552023.094,4.883,-18.066,-32.227,-808.594,0.000
1737552023.097,12.695,-52.734,-23.438,-1000.000,0.000
1737552023.101,-19.531,-34.668,-0.977,-339.844,0.000
1737552023.105,-6.348,-12.695,0.000,910.645,0.000
1737552023.109,21.973,-33.691,-5.371,377.930,0.000
1737552023.113,-35.645,-22.949,-20.996,-968.750,0.000
1737552023.117,-79.102,2.930,-22.949,-1000.000,0.000
1737552023.121,-38.574,-5.859,-19.531,-959.473,0.000
1737552023.125,-12.207,-26.367,-10.742,-1000.000,0.000
1737552023.129,-14.648,-43.457,0.000,-946.289,0.000
1737552023.133,-13.184,-26.367,-1.953,-1000.000,0.000
1737552023.137,10.254,-29.297,-7.324,-818.848,0.000
1737552023.140,38.086,-42.969,-12.695,511.230,0.000
1737552023.144,-7.812,-8.301,-6.348,999.512,0.000
1737552023.148,-26.367,-6.836,-1.465,766.113,0.000
1737552023.152,-18.066,-24.414,0.977,-603.516,0.000
1737552023.156,-30.762,-2.930,0.977,-1000.000,0.000
1737552023.160,-18.555,3.906,-12.695,-938.965,0.000
1737552023.164,-11.719,-20.020,-8.789,-1000.000,0.000
1737552023.168,-15.625,-16.113,-10.742,-880.371,0.000
1737552023.172,-10.254,-15.625,-23.438,-1000.000,0.000
1737552023.176,0.977,-29.297,-28.809,-865.723,0.000
1737552023.180,17.578,-19.043,-19.531,564.941,0.000
1737552023.183,21.484,-3.418,-12.695,999.512,0.000
1737552023.187,20.996,-10.254,-16.113,960.938,0.000
1737552023.191,-32.715,-9.766,-11.230,254.883,0.000
1737552023.195,-83.984,-16.602,-12.207,-976.562,0.000
1737552023.199,-10.742,-35.156,-25.879,-740.723,0.000
1737552023.203,-24.414,-38.086,-44.922,573.730,0.000
1737552023.207,-77.148,-33.203,-22.949,999.512,0.000
1737552023.211,-41.504,-38.086,-11.230,-416.016,0.000
1737552023.215,-31.250,-16.602,-20.508,-1000.000,0.000
1737552023.219,-16.602,-11.719,-15.137,-17.090,0.000
1737552023.222,-13.184,-20.508,-16.602,937.500,0.000
1737552023.226,-15.625,-18.066,-22.461,999.512,0.000
1737552023.230,-9.766,-15.625,-21.484,315.918,0.000
1737552023.234,-63.965,-18.555,-22.461,-989.746,0.000
1737552023.238,-65.918,-25.391,-18.555,-747.559,0.000
1737552023.242,-27.344,-28.320,-12.695,640.137,0.000
1737552023.246,-17.090,-14.160,-14.648,999.512,0.000
1737552023.250,-35.645,0.000,-9.277,626.465,0.000
1737552023.254,-62.988,-19.043,-15.625,-821.289,0.000
1737552023.258,-33.691,-50.293,-39.551,-479.492,0.000
1737552023.262,-19.043,-41.504,-32.715,885.254,0.000
1737552023.265,-27.344,-4.395,-15.625,999.512,0.000
1737552023.269,-4.395,6.836,-12.207,931.152,0.000
1737552023.273,-25.879,-6.836,-12.207,-422.852,0.000
1737552023.277,-50.781,-13.184,-8.789,-733.887,0.000
1737552023.281,-40.527,-1.465,-6.836,779.297,0.000
1737552023.285,-27.832,-13.672,-7.812,999.512,0.000
1737552023.289,-16.602,-23.926,-7.324,901.855,0.000
1737552023.293,-31.738,-17.578,-15.137,682.129,0.000
1737552023.297,-23.926,-17.578,-11.719,834.473,0.000
1737552023.301,4.395,-26.367,-22.461,958.984,0.000
1737552023.304,-33.203,-26.367,-30.762,995.117,0.000
1737552023.308,-66.406,-5.859,-20.508,887.207,0.000
1737552023.312,-66.895,-5.859,-28.809,-685.059,0.000
1737552023.316,-65.918,-9.766,-29.785,-921.387,0.000
1737552023.320,-41.504,-13.672,-8.789,669.922,0.000
1737552023.324,8.301,-17.090,-2.441,999.512,0.000
1737552023.328,-13.672,-17.090,-16.113,969.238,0.000
1737552023.332,-52.734,-36.133,-27.344,-271.973,0.000
1737552023.336,-37.109,-49.316,-25.391,-965.332,0.000
1737552023.340,-0.488,-45.410,-17.578,598.145,0.000
1737552023.344,11.719,-28.320,-14.648,999.512,0.000
1737552023.347,-3.418,-1.953,-15.137,980.469,0.000
1737552023.351,-32.715,4.883,-28.809,209.961,0.000
1737552023.355,-18.066,-1.465,-41.504,-949.219,0.000
1737552023.359,29.785,-11.719,-23.438,196.289,0.000
1737552023.363,16.113,-6.348,-10.742,999.512,0.000
1737552023.367,-20.508,-15.625,-3.418,999.512,0.000
1737552023.371,-27.832,-25.879,0.000,425.293,0.000
1737552023.375,-49.805,-28.809,-23.438,-899.414,0.000
1737552023.379,-28.320,-52.246,-28.320,-82.031,0.000
1737552023.383,41.992,-10.254,-30.762,999.512,0.000
1737552023.387,38.574,9.766,-15.625,999.512,0.000
1737552023.390,0.488,-0.488,-3.418,326.172,0.000
1737552023.394,-15.137,-6.836,-31.250,-992.676,0.000
1737552023.398,-16.602,-26.367,-26.367,-671.875,0.000
1737552023.402,-12.695,-8.789,-5.859,702.637,0.000
1737552023.406,-4.883,-15.137,-11.230,999.512,0.000
1737552023.410,-16.602,-53.223,-13.184,527.344,0.000
1737552023.414,-47.852,-37.109,-8.789,-872.559,0.000
1737552023.418,-62.988,-14.648,-25.879,-579.102,0.000
1737552023.422,-24.902,-9.277,-42.480,790.039,0.000
1737552023.426,12.695,-12.695,-40.527,999.512,0.000
1737552023.429,20.996,-9.766,-19.043,791.992,0.000
1737552023.433,39.551,7.812,0.488,-624.512,0.000
1737552023.437,-8.789,-2.930,-14.648,-981.934,0.000
1737552023.441,-25.391,-27.344,-20.020,432.617,0.000
1737552023.445,2.930,-20.996,-12.695,999.512,0.000
1737552023.449,-16.113,-18.555,-29.785,558.594,0.000
1737552023.453,-32.227,-39.551,-10.742,-790.527,0.000
1737552023.457,-20.996,-8.789,-17.578,-1000.000,0.000
1737552023.461,-24.902,-0.488,-43.457,129.395,0.000
1737552023.465,-37.598,-14.160,-24.902,999.512,0.000
1737552023.469,-18.555,-21.484,-17.578,708.984,0.000
1737552023.472,-32.715,-17.090,-9.277,-691.406,0.000
1737552023.476,-36.133,-7.324,-3.418,-1000.000,0.000
1737552023.480,-20.508,-15.137,-12.207,-267.090,0.000
1737552023.484,-37.598,-20.508,-19.531,922.852,0.000
1737552023.488,-14.160,-10.254,-13.184,663.086,0.000
1737552023.492,-7.324,-17.090,-6.836,-801.270,0.000
1737552023.496,-20.020,-30.273,-20.996,-1000.000,0.000
1737552023.500,3.418,-25.391,-44.434,-939.453,0.000
1737552023.504,-3.906,-10.742,-55.664,-1000.000,0.000
1737552023.508,-24.902,-15.137,-41.992,-1000.000,0.000
1737552023.512,-19.043,-12.695,1.953,-976.074,0.000
1737552023.515,20.508,-41.016,0.977,-983.887,0.000
1737552023.519,25.879,-40.527,-27.344,-1000.000,0.000
1737552023.523,-39.062,-3.418,-29.785,91.797,0.000
1737552023.527,-53.711,-2.930,-31.250,876.953,0.000
1737552023.531,-50.781,-26.855,-20.996,-563.965,0.000
1737552023.535,-50.781,-32.715,-12.207,-1000.000,0.000
1737552023.539,-46.387,-29.785,-22.949,-920.410,0.000
1737552023.543,-72.266,-27.344,-35.156,-1000.000,0.000
1737552023.547,-77.637,-23.438,-27.344,-1000.000,0.000
1737552023.551,-54.688,-27.832,-39.062,-993.652,0.000
1737552023.554,-56.152,-24.414,-40.039,-975.586,0.000
1737552023.558,-44.922,-13.672,-17.090,-1000.000,0.000
1737552023.562,-31.738,-39.551,-4.395,-517.090,0.000
1737552023.566,0.000,-44.434,-11.230,686.035,0.000
1737552023.570,13.184,-14.648,-29.297,270.508,0.000
1737552023.574,-38.086,-17.090,-24.902,-976.074,0.000
1737552023.578,-29.785,-30.762,-20.996,-1000.000,0.000
1737552023.582,-21.973,-22.461,-14.160,-941.895,0.000
1737552023.586,-40.039,-0.488,-34.668,-790.039,0.000
1737552023.590,-20.020,0.977,-48.828,-854.492,0.000
1737552023.594,-35.156,-27.832,-29.785,-1000.000,0.000
1737552023.597,-24.414,-51.270,-35.156,-570.312,0.000
1737552023.601,-20.508,-29.297,-24.902,697.754,0.000
1737552023.605,2.441,6.348,-9.766,999.512,0.000
1737552023.609,25.879,-3.418,-20.020,527.832,0.000
1737552023.613,-58.105,-30.762,-8.789,-862.305,0.000
1737552023.617,-76.660,-15.137,-4.883,-879.395,0.000
1737552023.621,-28.320,-3.906,-27.832,558.105,0.000
1737552023.625,-2.441,-21.973,-30.273,999.512,0.000
1737552023.629,-4.395,-21.484,-29.297,592.285,0.000
1737552023.633,-26.855,-14.648,-42.969,-719.238,0.000
1737552023.636,-23.438,-21.973,-34.668,-1000.000,0.000
1737552023.640,-9.277,-53.223,-42.969,-178.223,0.000
1737552023.644,7.324,-33.203,-22.461,907.715,0.000
1737552023.648,6.836,1.953,5.859,999.023,0.000
1737552023.652,-28.320,1.465,-6.348,-408.203,0.000
1737552023.656,-23.438,4.395,-7.812,-1000.000,0.000
1737552023.660,-13.672,-11.719,-3.418,369.141,0.000
1737552023.664,-32.227,-31.738,-5.859,999.512,0.000
1737552023.668,-15.137,-30.762,-13.184,952.637,0.000
1737552023.672,-14.648,-35.156,-31.250,-160.645,0.000
1737552023.676,-30.273,-13.672,-41.992,-1000.000,0.000
1737552023.679,-12.695,-4.883,-34.180,108.887,0.000
1737552023.683,-0.977,-52.246,-22.461,979.004,0.000
1737552023.687,-17.578,-42.480,-3.418,999.512,0.000
1737552023.691,-34.180,2.930,5.859,454.590,0.000
1737552023.695,-37.109,-5.371,-5.859,-843.262,0.000
1737552023.699,-37.598,-19.043,-15.137,118.652,0.000
1737552023.703,-19.531,-20.508,-18.555,999.512,0.000
1737552023.707,10.254,-28.320,-21.973,958.008,0.000
1737552023.711,-26.855,-33.691,-18.555,882.812,0.000
1737552023.715,-65.430,-15.625,-27.832,410.645,0.000
1737552023.719,-16.602,-10.742,-51.270,752.441,0.000
1737552023.722,10.742,-22.461,-22.949,999.512,0.000
1737552023.726,33.691,-26.367,0.000,990.234,0.000
1737552023.730,47.363,-22.461,-12.695,119.141,0.000
1737552023.734,18.066,-13.184,-29.785,-1000.000,0.000
1737552023.738,-8.301,-16.113,-20.508,-417.480,0.000
1737552023.742,-56.641,-35.156,-11.719,826.660,0.000
1737552023.746,-73.242,-20.020,-10.742,999.512,0.000
1737552023.750,-41.504,5.371,-17.578,895.020,0.000
1737552023.754,-24.414,-1.465,-33.691,-245.605,0.000
1737552023.758,-30.273,-25.391,-15.625,-118.652,0.000
1737552023.761,-26.367,-35.645,-0.488,951.172,0.000
1737552023.765,-17.578,-29.297,-5.371,994.141,0.000
1737552023.769,-20.020,-17.578,-15.625,917.480,0.000
1737552023.773,-24.902,-13.672,-30.762,-512.207,0.000
1737552023.777,-16.602,-4.883,-34.180,-908.203,0.000
1737552023.781,-15.625,11.719,-25.391,596.191,0.000
1737552023.785,-46.875,7.324,-15.137,999.512,0.000
1737552023.789,-34.180,-44.922,-25.391,812.500,0.000
1737552023.793,-11.230,-43.457,-25.879,-616.699,0.000
1737552023.797,-19.531,-6.348,-8.789,-1000.000,0.000
1737552023.801,-9.277,13.184,-0.977,419.434,0.000
1737552023.804,-22.461,21.973,6.836,999.512,0.000
1737552023.808,-51.758,-11.230,1.953,790.527,0.000
1737552023.812,-31.250,-19.531,-22.949,-527.832,0.000
1737552023.816,-21.973,-4.883,-54.688,-1000.000,0.000
1737552023.820,-18.066,-19.531,-20.508,-497.070,0.000
1737552023.824,-7.812,-19.043,3.418,787.598,0.000
1737552023.828,-10.254,-17.090,-21.484,841.309,0.000
1737552023.832,-27.344,-38.086,-4.395,-583.008,0.000
1737552023.836,-34.668,-35.645,-0.488,-1000.000,0.000
1737552023.840,-11.230,-0.977,-27.344,-502.441,0.000
1737552023.844,-7.324,-5.371,-29.785,741.211,0.000
1737552023.847,-34.180,-15.137,-23.926,999.512,0.000
1737552023.851,-53.711,-7.812,-19.043,-229.980,0.000
1737552023.855,-56.152,-1.465,-2.930,-1000.000,0.000
1737552023.859,-33.691,-4.395,-12.207,-595.703,0.000
1737552023.863,3.906,-14.160,-30.762,660.645,0.000
1737552023.867,-4.395,-23.438,-19.043,999.512,0.000
1737552023.871,-37.598,-41.016,-18.555,350.586,0.000
1737552023.875,-59.570,-56.152,-24.414,-949.707,0.000
1737552023.879,-45.898,-22.949,-23.438,-589.844,0.000
1737552023.883,4.395,11.719,-9.766,747.559,0.000
1737552023.886,6.836,-7.812,1.953,999.512,0.000
1737552023.890,-8.301,-6.348,-2.930,334.961,0.000
1737552023.894,-2.441,-14.648,-28.809,-965.820,0.000
1737552023.898,13.672,-19.531,-39.551,-435.059,0.000
1737552023.902,-0.977,-0.488,-13.184,854.980,0.000
1737552023.906,-17.090,-8.789,-0.977,999.512,0.000
1737552023.910,-6.348,-24.414,2.441,329.102,0.000
1737552023.914,-9.766,-28.320,-4.883,-912.109,0.000
1737552023.918,-7.324,-14.160,-19.531,-979.492,0.000
1737552023.922,-11.719,-0.977,-20.020,166.504,0.000
1737552023.926,-26.367,-19.531,-30.762,999.512,0.000
1737552023.929,-43.945,-31.738,-38.086,507.324,0.000
1737552023.933,-52.246,-31.250,-18.066,-830.566,0.000
1737552023.937,-50.293,-48.340,-9.766,-1000.000,0.000
1737552023.941,-57.617,-27.344,-2.441,70.801,0.000
1737552023.945,-41.504,6.836,-2.441,999.512,0.000
1737552023.949,-20.508,1.953,-8.789,757.324,0.000
1737552023.953,-37.109,-24.414,-28.320,-630.859,0.000
1737552023.957,-48.828,-19.043,-50.293,-1000.000,0.000
1737552023.961,-34.180,-12.695,-16.113,-876.465,0.000
1737552023.965,-26.367,-4.395,0.977,352.539,0.000
1737552023.968,-25.879,2.441,-11.230,933.594,0.000
1737552023.972,-36.621,-17.578,-27.344,-600.586,0.000
1737552023.976,-42.480,-47.363,-32.715,-1000.000,0.000
1737552023.980,-45.898,-25.391,-11.230,-124.023,0.000
1737552023.984,-10.254,-7.324,-15.625,917.969,0.000
1737552023.988,15.137,-11.719,-22.461,971.680,0.000
1737552023.992,-26.855,-7.812,-7.812,-322.266,0.000
1737552023.996,-27.344,-21.973,-24.902,-1000.000,0.000
1737552024.000,-27.832,-42.480,-40.527,-225.586,0.000
1737552024.004,-43.457,-23.926,-20.996,883.789,0.000
1737552024.008,-27.832,-0.488,-8.301,999.512,0.000
1737552024.011,-28.809,-10.254,-16.113,-232.422,0.000
1737552024.015,-23.926,-22.461,-29.297,-1000.000,0.000
1737552024.019,-6.836,-23.926,-30.762,153.320,0.000
1737552024.023,4.883,-22.949,-28.809,985.840,0.000
1737552024.027,21.484,-36.133,-33.691,999.512,0.000
1737552024.031,-3.906,-51.758,-19.043,563.965,0.000
1737552024.035,-60.059,-13.672,-8.301,-766.602,0.000
1737552024.039,-47.852,5.859,-8.301,169.922,0.000
1737552024.043,3.418,3.418,-6.348,999.512,0.000
1737552024.047,0.488,-2.930,-19.531,961.426,0.000
1737552024.051,-35.645,-28.320,-36.621,848.633,0.000
1737552024.054,-62.988,-54.199,-41.992,310.547,0.000
1737552024.058,-28.809,-29.785,-20.508,768.066,0.000
1737552024.062,-3.418,-7.324,-15.137,999.512,0.000
1737552024.066,-2.930,-30.273,-19.043,946.777,0.000
1737552024.070,8.789,-48.340,-2.930,955.078,0.000
1737552024.074,-15.137,-42.480,-14.648,809.570,0.000
1737552024.078,-36.133,-8.789,-19.531,941.406,0.000
1737552024.082,-43.945,-2.441,-14.648,932.129,0.000
1737552024.086,-33.203,0.000,-15.625,999.512,0.000
1737552024.090,-33.203,-13.184,-7.812,835.938,0.000
1737552024.093,-41.504,-36.621,-23.926,-693.359,0.000
1737552024.097,-49.316,-30.273,-33.203,-987.793,0.000
1737552024.101,-45.410,-9.277,-20.996,533.203,0.000
1737552024.105,-12.695,-7.812,-18.066,999.512,0.000
1737552024.109,-0.488,-9.277,-29.785,945.801,0.000
1737552024.113,-20.996,-26.855,-33.691,-351.562,0.000
1737552024.117,-6.348,-30.762,-18.555,-867.188,0.000
1737552024.121,45.898,-19.043,-16.113,660.645,0.000
1737552024.125,39.062,-18.555,-27.344,999.512,0.000
1737552024.129,-12.207,-19.043,-19.043,909.180,0.000
1737552024.133,-55.176,-22.949,-13.184,-435.547,0.000
1737552024.136,-56.641,-8.789,-20.020,-1000.000,0.000
1737552024.140,-28.320,-12.695,-23.926,502.441,0.000
1737552024.144,-37.598,-18.066,-37.109,999.512,0.000
1737552024.148,-27.832,-12.695,-41.504,901.855,0.000
1737552024.152,-33.691,-25.879,-18.555,-385.254,0.000
1737552024.156,-26.855,-52.246,-0.977,-1000.000,0.000
1737552024.160,-2.930,-37.598,-2.441,201.172,0.000
1737552024.164,-11.230,5.371,-14.160,999.512,0.000
1737552024.168,-24.414,-3.418,-24.414,968.262,0.000
1737552024.172,-50.781,-25.879,-29.785,-129.395,0.000
1737552024.176,-67.871,-25.879,-40.039,-1000.000,0.000
1737552024.179,-50.781,-30.762,-34.668,-171.387,0.000
1737552024.183,1.465,-30.762,-14.648,956.543,0.000
1737552024.187,36.621,-3.906,-15.625,965.332,0.000
1737552024.191,-22.461,-12.207,-30.762,-273.926,0.000
1737552024.195,-80.078,-22.461,-19.531,-1000.000,0.000
1737552024.199,-66.895,-5.859,-13.184,-733.398,0.000
1737552024.203,-14.160,-4.883,-19.043,590.332,0.000
1737552024.207,7.812,-23.438,-20.020,999.512,0.000
1737552024.211,-16.602,-25.879,-25.391,-194.336,0.000
1737552024.215,-36.133,-28.320,-31.250,-1000.000,0.000
1737552024.218,-37.598,-45.898,-28.809,-995.605,0.000
1737552024.222,-30.273,-29.297,-13.184,-186.035,0.000
1737552024.226,-2.930,-23.438,-18.066,993.652,0.000
1737552024.230,8.301,-10.742,-22.949,229.980,0.000
1737552024.234,-32.715,2.930,-33.691,-1000.000,0.000
1737552024.238,-28.320,-11.719,-15.137,-1000.000,0.000
1737552024.242,-10.742,-15.625,-2.930,-967.285,0.000
1737552024.246,-2.441,-11.719,-21.484,-1000.000,0.000
1737552024.250,-14.648,-7.324,-27.344,-1000.000,0.000
1737552024.254,-38.574,-12.695,-28.809,-1000.000,0.000
1737552024.258,-25.391,-30.273,-36.133,-1000.000,0.000
1737552024.261,-24.414,-42.969,-30.273,-1000.000,0.000
1737552024.265,-36.621,-29.785,-14.648,-1000.000,0.000
1737552024.269,-39.062,-10.254,-7.812,-1000.000,0.000
1737552024.273,-58.594,-20.996,-9.766,-1000.000,0.000
1737552024.277,-79.590,-22.461,-16.113,-1000.000,0.000
1737552024.281,-85.449,12.207,-15.625,-1000.000,0.000
1737552024.285,-30.273,10.254,-18.555,-1000.000,0.000
1737552024.289,-7.812,-12.695,-30.273,-1000.000,0.000
1737552024.293,-10.742,-8.301,-34.180,-1000.000,0.000
1737552024.297,-1.953,-18.066,-46.387,-1000.000,0.000
1737552024.301,-0.488,-39.062,-12.207,-1000.000,0.000
1737552024.304,-6.348,-27.344,10.742,-1000.000,0.000
1737552024.308,-4.395,-14.160,-11.230,-1000.000,0.000
1737552024.312,-31.738,-23.926,-20.508,-1000.000,0.000
1737552024.316,-46.387,-19.043,-28.809,-1000.000,0.000
1737552024.320,-24.902,-3.906,-23.926,-1000.000,0.000
1737552024.324,7.812,-14.160,-13.672,-1000.000,0.000
1737552024.328,-3.906,-22.949,-28.320,-1000.000,0.000
1737552024.332,-27.832,-20.508,-34.668,-1000.000,0.000
1737552024.336,-13.672,-38.086,-33.691,-1000.000,0.000
1737552024.340,-25.879,-33.691,-23.926,-1000.000,0.000
1737552024.343,-37.598,-13.672,-14.648,-1000.000,0.000
1737552024.347,-17.090,-23.926,-15.137,-1000.000,0.000
1737552024.351,-12.207,-21.484,-24.414,-1000.000,0.000
1737552024.355,-29.297,-14.648,-25.879,-1000.000,0.000
1737552024.359,-36.621,-49.316,-15.137,-1000.000,0.000
1737552024.363,-20.996,-39.062,-35.645,-1000.000,0.000
1737552024.367,-3.418,-4.883,-43.457,-1000.000,0.000
1737552024.371,-21.484,-10.742,-19.531,-1000.000,0.000
1737552024.375,-29.785,-25.391,-22.461,-1000.000,0.000
1737552024.379,-18.555,-21.484,-30.273,-1000.000,0.000
1737552024.383,-10.742,-9.766,-20.508,-1000.000,0.000
1737552024.386,4.883,-11.230,-9.277,-1000.000,0.000
1737552024.390,-7.812,-25.879,-19.043,-1000.000,0.000
1737552024.394,-22.949,-21.973,-34.180,-1000.000,0.000
1737552024.398,-24.902,-7.812,-23.926,-1000.000,0.000
1737552024.402,-34.180,-8.789,-7.812,-1000.000,0.000
1737552024.406,-28.320,-19.043,-7.812,-1000.000,0.000
1737552024.410,-28.320,-28.809,-23.438,-1000.000,0.000
1737552024.414,-25.879,-14.160,-50.781,-1000.000,0.000
1737552024.418,-11.230,-11.230,-39.551,-1000.000,0.000
1737552024.422,-44.434,-18.555,-18.555,-1000.000,0.000
1737552024.425,-29.297,-20.996,-24.902,-1000.000,0.000
1737552024.429,-4.395,-18.066,-10.742,-979.492,0.000
1737552024.433,-17.090,-1.465,1.953,-988.770,0.000
1737552024.437,-8.301,-6.836,-12.207,-995.605,0.000
1737552024.441,9.766,-27.344,-26.855,-95.703,0.000
1737552024.445,31.250,-25.879,-17.090,999.512,0.000
1737552024.449,37.598,-31.738,-44.434,566.895,0.000
1737552024.453,-32.715,-27.344,-47.852,-825.195,0.000
1737552024.457,-59.082,2.441,-11.230,-1000.000,0.000
1737552024.461,-44.922,1.465,-22.949,-952.148,0.000
1737552024.465,-26.367,-16.602,-25.879,-946.289,0.000
1737552024.468,-6.836,-20.996,-21.484,-921.387,0.000
1737552024.472,-33.691,-25.391,-25.391,-993.652,0.000
1737552024.476,-48.828,-28.809,-11.230,-1000.000,0.000
1737552024.480,-18.555,-17.578,-11.230,-154.785,0.000
1737552024.484,-0.977,-29.297,-32.715,993.164,0.000
1737552024.488,-15.137,-62.500,-33.203,874.512,0.000
1737552024.492,-27.832,-55.176,-14.160,-566.895,0.000
1737552024.496,-58.105,-2.441,-24.902,-1000.000,0.000
1737552024.500,-64.941,11.230,-20.020,-961.914,0.000
1737552024.504,-26.855,-4.883,-0.488,-488.770,0.000
1737552024.508,-19.531,-10.742,-10.742,519.531,0.000
1737552024.511,-42.480,-27.832,-5.859,-330.566,0.000
1737552024.515,-42.480,-26.855,-9.277,-1000.000,0.000
1737552024.519,-24.902,-15.137,-18.555,-804.199,0.000
1737552024.523,2.441,-25.391,-22.461,396.973,0.000
1737552024.527,23.438,-27.832,-24.414,952.637,0.000
1737552024.531,-24.414,-40.039,-8.789,-541.992,0.000
1737552024.535,-68.359,-36.621,-9.766,-1000.000,0.000
1737552024.539,-33.203,-1.953,-24.902,-924.316,0.000
1737552024.543,-20.996,-9.766,-21.973,-1000.000,0.000
1737552024.547,-29.785,-23.926,-20.020,-997.070,0.000
1737552024.550,-15.137,-25.879,-28.320,-959.473,0.000
1737552024.554,-7.324,-16.113,-31.250,-1000.000,0.000
1737552024.558,-3.906,1.953,-17.090,-348.633,0.000
1737552024.562,15.137,-8.301,-12.695,840.820,0.000
1737552024.566,15.625,-28.320,-7.324,999.512,0.000
1737552024.570,-20.996,-28.320,-1.465,110.840,0.000
1737552024.574,-25.879,-19.043,-14.648,-981.445,0.000
1737552024.578,5.371,-45.410,-43.945,-960.938,0.000
1737552024.582,0.488,-52.246,-60.059,-132.324,0.000
1737552024.586,-44.434,-5.859,-25.879,966.797,0.000
1737552024.590,-64.941,4.395,-6.836,629.395,0.000
1737552024.593,-44.434,-6.348,-20.020,-801.758,0.000
1737552024.597,-37.598,-7.324,-18.066,-1000.000,0.000
1737552024.601,3.418,-12.207,-22.461,74.707,0.000
1737552024.605,-13.184,-9.766,-14.648,999.512,0.000
1737552024.609,-38.086,-8.789,-2.930,748.535,0.000
1737552024.613,-40.527,-28.320,-10.254,-677.246,0.000
1737552024.617,-51.270,-29.297,-14.648,-1000.000,0.000
1737552024.621,-28.809,-20.508,-39.062,-991.699,0.000
1737552024.625,-10.742,-26.367,-41.016,-691.895,0.000
1737552024.629,-8.301,-14.648,-12.695,-184.570,0.000
1737552024.633,-21.484,-25.879,-20.020,-835.938,0.000
1737552024.636,-40.039,-23.438,-21.484,-1000.000,0.000
1737552024.640,-26.367,-6.348,6.836,13.672,0.000
1737552024.644,7.324,-18.555,-2.441,999.512,0.000
1737552024.648,17.578,-29.297,-26.367,745.117,0.000
1737552024.652,-10.742,-17.090,-28.320,-698.242,0.000
1737552024.656,-1.465,-10.742,-6.836,-1000.000,0.000
1737552024.660,-20.508,-19.531,8.301,-978.027,0.000
1737552024.664,-44.922,-16.602,-2.441,-688.477,0.000
1737552024.668,-29.297,-14.160,-4.395,1.465,0.000
1737552024.672,-20.020,-15.137,-17.578,-607.910,0.000
1737552024.675,-10.742,-6.836,-42.969,-1000.000,0.000
1737552024.679,12.207,-4.395,-21.484,-798.828,0.000
1737552024.683,22.461,-16.602,15.137,501.953,0.000
1737552024.687,-5.371,-19.531,17.578,999.512,0.000
1737552024.691,-31.250,-12.695,-8.789,-49.805,0.000
1737552024.695,-19.043,-20.020,-43.945,-1000.000,0.000
1737552024.699,-31.250,-8.301,-19.531,-750.000,0.000
1737552024.703,-28.320,1.953,13.672,553.711,0.000
1737552024.707,-24.902,-11.719,-3.418,999.512,0.000
1737552024.711,-17.578,-10.254,-15.625,234.375,0.000
1737552024.715,-0.488,0.000,-8.789,-948.730,0.000
1737552024.718,-11.230,-8.301,-25.879,-959.961,0.000
1737552024.722,-19.531,-5.371,-39.551,223.145,0.000
1737552024.726,-4.883,-0.488,-11.230,999.512,0.000
1737552024.730,-0.488,-20.020,-3.418,274.902,0.000
1737552024.734,-19.531,-20.508,-15.625,-905.273,0.000
1737552024.738,-31.738,-8.789,-19.531,-1000.000,0.000
1737552024.742,-16.113,-5.859,-16.602,-608.887,0.000
1737552024.746,0.000,10.254,-7.812,731.445,0.000
1737552024.750,1.953,-2.441,-8.789,729.492,0.000
1737552024.754,4.883,-22.461,-26.855,-796.875,0.000
1737552024.757,8.301,-14.160,-36.621,-1000.000,0.000
1737552024.761,6.836,-24.902,-40.039,-979.492,0.000
1737552024.765,-7.812,-43.945,-33.203,-793.945,0.000
1737552024.769,-50.781,-23.438,-7.812,-472.168,0.000
1737552024.773,-57.129,-0.488,-0.488,-1000.000,0.000
1737552024.777,-35.156,-0.977,-23.438,-814.941,0.000
1737552024.781,-4.883,-11.230,-28.320,620.117,0.000
1737552024.785,9.766,-12.207,-24.902,999.512,0.000
1737552024.789,-20.508,-7.812,-32.715,894.043,0.000
1737552024.793,-68.359,-21.973,-17.578,-307.129,0.000
1737552024.797,-51.758,-28.809,-16.602,-1000.000,0.000
1737552024.800,-14.648,-43.945,-24.414,-377.441,0.000
1737552024.804,-15.625,-49.316,-17.090,841.309,0.000
1737552024.808,-36.621,-24.414,-23.438,982.422,0.000
1737552024.812,-33.203,-17.090,-31.738,-495.605,0.000
1737552024.816,-1.953,-13.672,-18.555,-1000.000,0.000
1737552024.820,18.555,-20.996,-7.812,48.340,0.000
1737552024.824,-8.301,-23.438,-7.812,981.445,0.000
1737552024.828,-33.691,-29.785,-5.859,991.211,0.000
1737552024.832,-9.277,-29.297,-27.344,-171.387,0.000
1737552024.836,-28.320,-25.391,-21.973,-1000.000,0.000
1737552024.840,-87.402,-25.879,10.254,-87.402,0.000
1737552024.843,-44.922,-29.297,-2.441,997.559,0.000
1737552024.847,-25.879,-27.344,-15.137,952.148,0.000
1737552024.851,-60.547,-39.062,-6.836,-371.094,0.000
1737552024.855,-48.340,-45.898,-2.930,-1000.000,0.000
1737552024.859,-55.176,-41.016,-4.395,-968.262,0.000
1737552024.863,-34.180,-5.859,-5.859,-803.711,0.000
1737552024.867,13.184,5.859,-20.508,561.523,0.000
1737552024.871,-15.625,-4.883,-16.602,527.344,0.000
1737552024.875,-38.086,-0.977,-10.254,-987.305,0.000
1737552024.879,-12.207,-14.160,-19.531,-582.520,0.000
1737552024.882,-6.836,-13.184,-5.371,747.559,0.000
1737552024.886,-7.324,-21.973,-16.602,999.512,0.000
1737552024.890,-1.953,-27.344,-37.598,152.832,0.000
1737552024.894,-38.086,-29.297,-7.324,-941.895,0.000
1737552024.898,-69.336,-19.531,-17.090,-1000.000,0.000
1737552024.902,-46.875,-29.297,-48.340,-878.418,0.000
1737552024.906,-2.441,-44.434,-23.926,308.105,0.000
1737552024.910,-10.254,-33.203,-8.789,767.090,0.000
1737552024.914,-16.602,-23.438,-13.672,-680.176,0.000
1737552024.918,-24.414,-27.344,-28.809,-1000.000,0.000
1737552024.922,-63.477,-19.531,-35.156,-456.055,0.000
1737552024.925,-21.973,0.000,-19.043,824.219,0.000
1737552024.929,0.977,-24.902,-13.184,888.184,0.000
1737552024.933,-58.594,-38.574,-35.156,-604.980,0.000
1737552024.937,-78.613,-25.391,-20.508,-1000.000,0.000
1737552024.941,-28.809,-24.414,-5.859,-498.535,0.000
1737552024.945,-2.441,-18.066,-6.836,791.992,0.000
1737552024.949,-2.441,-15.625,-1.953,906.250,0.000
1737552024.953,-47.852,-13.184,-21.973,-593.262,0.000
1737552024.957,-88.379,-15.625,-23.438,-1000.000,0.000
1737552024.961,-50.293,-20.020,-19.531,-504.395,0.000
1737552024.965,15.625,-31.738,-31.250,760.742,0.000
1737552024.968,2.930,-22.949,-17.578,999.512,0.000
1737552024.972,11.719,-6.348,-9.277,-456.543,0.000
1737552024.976,5.371,-20.996,-56.641,-1000.000,0.000
1737552024.980,-55.664,-3.906,-53.223,-153.809,0.000
1737552024.984,-41.016,19.043,6.836,961.426,0.000
1737552024.988,-5.371,0.977,0.488,898.926,0.000
1737552024.992,-25.391,-7.324,-20.996,-512.207,0.000
1737552024.996,-38.574,5.859,-13.184,-1000.000,0.000
1737552025.000,-5.859,3.418,-22.949,-859.863,0.000
1737552025.004,2.441,-24.902,-39.551,121.094,0.000
1737552025.007,0.000,-22.949,-45.410,999.512,0.000
1737552025.011,-7.324,0.000,-33.203,-16.113,0.000
1737552025.015,-10.742,-4.883,-24.414,-1000.000,0.000
1737552025.019,-12.695,-0.977,-35.645,-939.941,0.000
1737552025.023,-7.812,7.812,-17.090,187.988,0.000
1737552025.027,20.020,5.371,-0.977,999.512,0.000
1737552025.031,19.531,-15.137,-14.160,4.883,0.000
1737552025.035,-9.766,-26.367,-15.625,-1000.000,0.000
1737552025.039,-12.695,-10.254,-19.043,-985.352,0.000
1737552025.043,-8.301,0.000,-20.020,-151.367,0.000
1737552025.047,3.418,-17.578,-14.648,994.141,0.000
1737552025.050,20.508,-30.762,-36.621,720.703,0.000
1737552025.054,13.184,-10.742,-19.043,-843.750,0.000
1737552025.058,-3.906,1.953,14.648,-698.730,0.000
1737552025.062,3.906,-3.418,-6.836,748.047,0.000
1737552025.066,42.480,-20.508,-31.250,999.512,0.000
1737552025.070,35.645,-12.695,-21.973,848.633,0.000
1737552025.074,-44.434,-7.324,-14.648,-550.781,0.000
1737552025.078,-59.570,0.000,-5.859,-1000.000,0.000
1737552025.082,-14.160,7.324,8.789,415.039,0.000
1737552025.086,18.066,-13.672,-3.906,999.512,0.000
1737552025.089,23.926,-32.227,-15.137,785.645,0.000
1737552025.093,5.371,-19.043,-24.902,-658.203,0.000
1737552025.097,17.578,0.977,-16.602,-1000.000,0.000
1737552025.101,51.270,0.488,-17.090,419.434,0.000
1737552025.105,26.855,7.324,-40.527,999.512,0.000
1737552025.109,24.902,-3.418,-47.363,905.762,0.000
1737552025.113,15.137,-27.344,-26.367,-357.422,0.000
1737552025.117,-20.508,-5.371,1.953,-1000.000,0.000
1737552025.121,-42.969,2.441,-1.465,3.418,0.000
1737552025.125,-56.641,-29.785,-12.207,990.723,0.000
1737552025.129,-29.297,-23.926,-20.508,923.828,0.000
1737552025.132,-62.988,-12.207,-42.969,-441.406,0.000
1737552025.136,-103.027,-13.184,-16.602,-1000.000,0.000
1737552025.140,-60.059,-4.883,-2.441,-125.977,0.000
1737552025.144,-22.461,-8.789,-18.555,910.645,0.000
1737552025.148,-38.086,-0.977,-12.695,999.512,0.000
1737552025.152,23.926,9.277,-16.602,8.789,0.000
1737552025.156,29.297,-15.137,-21.484,-1000.000,0.000
1737552025.160,-29.785,-14.160,-12.695,-477.051,0.000
1737552025.164,-35.156,-5.859,-10.254,845.215,0.000
1737552025.168,-53.711,-10.254,-19.043,990.723,0.000
1737552025.172,-22.949,-10.742,-34.668,-437.988,0.000
1737552025.175,19.531,-21.973,-29.297,-1000.000,0.000
1737552025.179,-3.906,-27.344,-11.719,-926.270,0.000
1737552025.183,-26.367,-22.949,-21.484,-841.797,0.000
1737552025.187,-12.207,-7.324,-50.293,1.953,0.000
1737552025.191,-32.715,8.789,-35.156,-34.668,0.000
1737552025.195,-53.223,-1.953,-15.625,-1000.000,0.000
1737552025.199,-38.574,-9.766,-4.883,-439.453,0.000
1737552025.203,-3.418,-8.789,4.395,816.406,0.000
1737552025.207,3.906,-7.324,1.465,999.512,0.000
1737552025.211,-17.578,-4.883,-24.414,742.188,0.000
1737552025.214,-23.926,9.766,-37.598,-607.422,0.000
1737552025.218,-13.672,-9.277,-16.602,-1000.000,0.000
1737552025.222,-10.742,-21.973,-35.645,-282.715,0.000
1737552025.226,-4.883,-8.301,-52.246,858.398,0.000
1737552025.230,-20.020,0.000,-19.531,768.066,0.000
1737552025.234,-29.785,-16.602,-1.953,-836.914,0.000
1737552025.238,-22.461,-35.156,-1.953,-900.391,0.000
1737552025.242,7.812,-20.020,-6.836,649.414,0.000
1737552025.246,53.711,8.301,-19.531,999.512,0.000
1737552025.250,16.113,9.277,-16.602,965.820,0.000
1737552025.254,-11.230,-3.906,-17.090,424.805,0.000
1737552025.257,-9.766,-9.277,-42.480,-22.461,0.000
1737552025.261,-15.625,-7.324,-38.086,747.559,0.000
1737552025.265,-7.812,-12.695,-31.250,999.512,0.000
1737552025.269,-23.926,-23.926,-21.973,759.766,0.000
1737552025.273,-57.617,-48.828,3.418,-694.824,0.000
1737552025.277,-58.594,-22.461,-10.254,-1000.000,0.000
1737552025.281,-21.973,12.207,-48.340,409.180,0.000
1737552025.285,13.672,5.859,-42.969,999.512,0.000
1737552025.289,1.953,16.113,12.207,999.512,0.000
1737552025.293,-26.855,-10.254,17.578,-62.012,0.000
1737552025.297,-70.801,-38.574,-23.926,-931.152,0.000
1737552025.300,-59.570,-14.648,-31.738,551.758,0.000
1737552025.304,-27.344,21.973,-2.930,999.512,0.000
1737552025.308,-12.207,9.277,6.348,891.602,0.000
1737552025.312,-4.883,-19.531,-10.254,984.863,0.000
1737552025.316,-13.672,-20.508,-27.832,971.191,0.000
1737552025.320,-45.410,-28.320,-37.109,980.469,0.000
1737552025.324,-45.410,-26.367,-45.410,913.574,0.000
1737552025.328,-3.906,-7.324,-41.992,999.512,0.000
1737552025.332,-33.203,-12.207,-32.715,738.770,0.000
1737552025.336,-127.441,-40.527,-33.691,-638.184,0.000
1737552025.339,-86.914,-49.805,-39.551,5.371,0.000
1737552025.343,-18.555,-46.875,-57.617,999.512,0.000
1737552025.347,-38.574,-30.762,-52.734,969.238,0.000
1737552025.351,-38.574,-16.602,-15.625,902.832,0.000
1737552025.355,-28.320,-20.508,-9.277,316.406,0.000
1737552025.359,0.488,-22.461,-11.230,668.457,0.000
1737552025.363,58.105,4.883,-27.832,999.512,0.000
1737552025.367,48.828,8.789,-31.250,996.582,0.000
1737552025.371,-5.371,-18.066,-11.230,284.180,0.000
1737552025.375,-85.449,-20.508,-13.672,-1000.000,0.000
1737552025.379,-72.266,-11.230,-22.949,-813.477,0.000
1737552025.382,-43.457,-14.160,-37.598,570.312,0.000
1737552025.386,-44.922,-20.020,-32.227,999.512,0.000
1737552025.390,-17.090,-19.531,-26.855,511.719,0.000
1737552025.394,-30.762,-32.227,-30.273,-879.883,0.000
1737552025.398,-51.270,-29.297,-23.438,-815.430,0.000
1737552025.402,-26.367,-8.789,-14.648,638.184,0.000
1737552025.406,-5.371,-4.883,-4.883,999.512,0.000
1737552025.410,-6.836,-11.719,2.441,742.676,0.000
1737552025.414,-28.320,-27.344,0.000,-724.609,0.000
1737552025.418,-6.836,-19.043,-6.836,-967.773,0.000
1737552025.422,38.086,1.465,-17.578,554.688,0.000
1737552025.425,48.340,13.672,-27.344,999.512,0.000
1737552025.429,50.293,11.719,-24.902,878.906,0.000
1737552025.433,-0.977,-2.441,-15.137,-511.719,0.000
1737552025.437,-44.434,-7.324,-13.184,-1000.000,0.000
1737552025.441,7.324,-13.672,-28.809,465.332,0.000
1737552025.445,4.883,-34.668,-36.133,999.512,0.000
1737552025.449,-56.152,-27.344,-28.809,998.047,0.000
1737552025.453,-38.574,-24.414,-21.973,58.594,0.000
1737552025.457,-25.391,-23.926,-47.852,-965.332,0.000
1737552025.461,-75.684,-26.367,-57.129,381.348,0.000
1737552025.464,-75.195,-26.367,-5.859,999.512,0.000
1737552025.468,-36.621,9.277,26.367,928.711,0.000
1737552025.472,-14.160,10.742,12.695,798.340,0.000
1737552025.476,-9.277,-4.883,-7.812,746.094,0.000
1737552025.480,-21.973,-0.977,-23.438,985.352,0.000
1737552025.484,-30.273,-26.367,-51.270,966.797,0.000
1737552025.488,-83.496,-41.016,-64.941,980.469,0.000
1737552025.492,-81.055,-20.508,-30.273,903.809,0.000
1737552025.496,25.391,-24.902,24.414,882.812,0.000
1737552025.500,41.016,-17.578,22.461,991.211,0.000
1737552025.504,-15.137,0.000,-3.418,927.734,0.000
1737552025.507,-20.020,-9.766,-26.855,995.605,0.000
1737552025.511,2.441,-17.578,-45.410,911.133,0.000
1737552025.515,-22.949,-8.789,-16.602,-407.715,0.000
1737552025.519,-12.695,-3.906,0.000,-460.449,0.000
1737552025.523,13.672,-11.230,-2.930,831.543,0.000
1737552025.527,-9.766,-14.160,-24.414,999.512,0.000
1737552025.531,-24.414,-13.184,-44.434,355.957,0.000
1737552025.535,-28.320,-20.020,-31.250,-967.773,0.000
1737552025.539,-44.434,-39.551,-26.855,-426.758,0.000
1737552025.543,-51.758,-49.805,-41.504,849.121,0.000
1737552025.546,-40.039,-20.020,-17.578,999.512,0.000
1737552025.550,-27.832,-6.348,1.953,523.438,0.000
1737552025.554,-38.086,-11.230,-16.113,-786.621,0.000
1737552025.558,-43.457,-8.789,-18.555,-1000.000,0.000
1737552025.562,-1.953,-23.926,-5.371,-1.465,0.000
1737552025.566,11.230,-30.762,-23.438,999.512,0.000
1737552025.570,-19.043,-10.254,-38.086,730.957,0.000
1737552025.574,-15.137,-2.441,-26.367,-721.191,0.000
1737552025.578,-10.254,2.930,-14.648,-1000.000,0.000
1737552025.582,-12.695,-15.137,-12.695,114.258,0.000
1737552025.586,26.367,-35.156,-23.926,999.512,0.000
1737552025.589,20.020,-8.789,-23.438,895.508,0.000
1737552025.593,-38.574,-4.883,-12.207,-426.758,0.000
1737552025.597,-49.316,-20.020,-7.324,-1000.000,0.000
1737552025.601,-25.879,-35.645,-19.043,-323.730,0.000
1737552025.605,-20.020,-23.438,-50.781,775.391,0.000
1737552025.609,-13.672,9.277,-40.527,999.512,0.000
1737552025.613,-36.133,-8.789,8.789,132.812,0.000
1737552025.617,-52.734,-33.691,1.953,-993.652,0.000
1737552025.621,-22.461,-25.879,-21.484,73.242,0.000
1737552025.625,0.000,-23.438,-12.695,999.512,0.000
1737552025.629,-20.020,-20.508,-8.789,945.801,0.000
1737552025.632,-30.273,-14.160,-11.230,825.195,0.000
1737552025.636,-50.781,-21.973,-7.812,861.328,0.000
1737552025.640,-45.410,-13.672,-25.879,990.234,0.000
1737552025.644,-1.465,-5.859,-21.484,917.969,0.000
1737552025.648,-38.574,-6.348,-18.066,999.512,0.000
1737552025.652,-30.762,-12.695,-36.621,366.699,0.000
1737552025.656,-7.324,-9.766,-20.020,-943.359,0.000
1737552025.660,-3.418,-13.184,-5.371,-137.695,0.000
1737552025.664,17.090,-19.043,-5.371,969.727,0.000
1737552025.668,18.066,-33.691,-23.438,999.512,0.000
1737552025.671,8.789,-41.992,-25.391,766.113,0.000
1737552025.675,-48.340,-29.297,-18.066,-210.449,0.000
1737552025.679,-44.922,-4.395,-20.020,467.285,0.000
1737552025.683,7.324,7.812,-19.043,999.512,0.000
1737552025.687,-3.418,-10.742,-11.230,968.750,0.000
1737552025.691,-26.855,-30.273,-6.348,772.949,0.000
1737552025.695,-33.691,-24.414,-22.461,-752.930,0.000
1737552025.699,-5.859,-18.555,-31.250,-884.277,0.000
1737552025.703,5.859,-15.625,-38.086,626.953,0.000
1737552025.707,-25.879,-20.996,-10.254,999.512,0.000
1737552025.711,-30.762,-24.414,15.625,108.887,0.000
1737552025.714,-1.465,-26.855,5.859,-947.266,0.000
1737552025.718,13.672,-27.344,-20.996,-1000.000,0.000
1737552025.722,-1.465,-27.832,-20.020,-584.961,0.000
1737552025.726,-9.277,-25.391,-13.184,722.656,0.000
1737552025.730,4.883,-7.324,-21.484,759.766,0.000
1737552025.734,-4.395,-0.488,-10.254,-812.988,0.000
1737552025.738,-24.902,-5.859,-8.301,-1000.000,0.000
1737552025.742,1.953,-14.160,-10.254,322.266,0.000
1737552025.746,21.484,-12.695,-6.348,999.512,0.000
1737552025.750,29.785,-10.742,-4.883,826.660,0.000
1737552025.754,-7.812,-1.953,-8.789,-525.879,0.000
1737552025.757,-38.086,-8.301,-19.043,-1000.000,0.000
1737552025.761,41.016,-37.598,-30.762,-120.605,0.000
1737552025.765,76.660,-19.043,-40.039,923.340,0.000
1737552025.769,1.465,6.836,-43.945,999.512,0.000
1737552025.773,-39.062,-6.836,-13.672,-363.770,0.000
1737552025.777,-33.203,-11.719,13.672,-967.773,0.000
1737552025.781,-14.160,-9.766,4.883,596.680,0.000
1737552025.785,-31.738,-10.254,-16.602,999.512,0.000
1737552025.789,3.906,-22.461,-20.508,927.734,0.000
1737552025.793,11.230,-39.062,-15.625,731.445,0.000
1737552025.796,-35.645,-18.555,-10.742,702.637,0.000
1737552025.800,-17.090,5.371,-16.113,969.238,0.000
1737552025.804,-22.461,-15.137,-24.414,949.219,0.000
1737552025.808,-78.125,-25.879,-27.832,999.512,0.000
1737552025.812,-77.637,-17.090,-25.391,-170.410,0.000
1737552025.816,-39.062,-12.207,-32.715,-1000.000,0.000
1737552025.820,-25.391,-3.418,-52.734,372.070,0.000
1737552025.824,-22.949,-0.977,-52.246,999.512,0.000
1737552025.828,-32.227,-32.227,-15.625,983.398,0.000
1737552025.832,-56.641,-42.480,-8.789,704.590,0.000
1737552025.836,-65.918,-23.926,-32.715,-762.695,0.000
1737552025.839,-22.949,-8.789,-24.902,-219.238,0.000
1737552025.843,-35.156,0.977,-14.648,968.262,0.000
1737552025.847,-94.238,-17.578,-17.090,991.211,0.000
1737552025.851,-14.160,-15.137,-19.043,870.117,0.000
1737552025.855,52.734,4.395,-29.297,-587.891,0.000
1737552025.859,4.395,-4.883,-36.621,-696.777,0.000
1737552025.863,-36.621,-22.949,-31.250,765.137,0.000
1737552025.867,-24.902,-32.227,-18.066,999.512,0.000
1737552025.871,-33.203,-30.273,-12.695,389.648,0.000
1737552025.875,-81.055,-22.461,-20.020,-839.355,0.000
1737552025.878,-63.965,-21.484,-24.902,-1000.000,0.000
1737552025.882,-89.355,-24.414,-17.090,-239.258,0.000
1737552025.886,-102.539,-24.902,-10.742,939.941,0.000
1737552025.890,-1.465,-11.230,-29.297,707.520,0.000
1737552025.894,-38.086,-7.324,-37.109,-773.926,0.000
1737552025.898,-55.176,-13.672,-19.531,-1000.000,0.000
1737552025.902,8.301,-2.441,-18.066,124.023,0.000
1737552025.906,12.207,-1.465,-25.879,999.512,0.000
1737552025.910,-14.160,-10.254,-17.090,813.477,0.000
1737552025.914,-34.180,-16.602,-11.230,-593.262,0.000
1737552025.918,-20.508,-16.113,-12.207,-1000.000,0.000
1737552025.921,10.254,-25.879,-21.973,-188.965,0.000
1737552025.925,15.137,-23.926,-23.438,950.684,0.000
1737552025.929,-6.348,-6.348,-16.113,801.758,0.000
1737552025.933,-20.996,-1.953,-21.484,-649.902,0.000
1737552025.937,-24.902,-11.719,-21.484,-1000.000,0.000
1737552025.941,-14.160,-15.625,-13.672,-382.324,0.000
1737552025.945,16.113,-13.672,-4.395,751.465,0.000
1737552025.949,32.715,-14.160,5.371,999.512,0.000
1737552025.953,16.602,-7.812,8.301,209.961,0.000
1737552025.957,11.719,-11.719,1.953,-937.988,0.000
1737552025.961,6.348,-12.695,-7.812,-134.277,0.000
1737552025.964,11.230,-9.766,-31.738,999.512,0.000
1737552025.968,35.645,-16.602,-17.090,863.770,0.000
1737552025.972,7.324,-16.602,5.859,-545.410,0.000
1737552025.976,-14.160,-19.043,2.441,-1000.000,0.000
1737552025.980,8.301,-15.625,-2.441,-951.172,0.000
1737552025.984,9.277,-12.207,4.395,-212.891,0.000
1737552025.988,17.578,-6.348,-3.418,983.398,0.000
1737552025.992,-2.930,0.488,-19.043,332.520,0.000
1737552025.996,-2.441,-13.184,-7.324,-1000.000,0.000
1737552026.000,22.461,-25.391,-1.953,-422.852,0.000
1737552026.003,17.090,-24.414,-10.254,818.848,0.000
1737552026.007,10.254,-16.602,-4.395,999.512,0.000
1737552026.011,0.000,-4.883,-12.207,533.691,0.000
1737552026.015,-28.320,-13.184,-20.020,-760.742,0.000
1737552026.019,-23.926,-27.832,-15.625,-1000.000,0.000
1737552026.023,11.719,-29.785,-19.531,-164.062,0.000
1737552026.027,10.742,-15.137,-13.672,970.215,0.000
1737552026.031,4.395,-4.883,-14.160,690.918,0.000
1737552026.035,-2.441,-20.996,-24.902,-860.352,0.000
1737552026.039,2.930,-20.020,-13.184,-359.375,0.000
1737552026.043,-27.344,-13.672,-3.906,966.797,0.000
1737552026.046,-53.223,-22.461,-14.160,995.117,0.000
1737552026.050,-24.902,-25.391,-20.996,906.738,0.000
1737552026.054,-35.156,-13.184,-29.785,641.113,0.000
1737552026.058,-57.129,-2.441,-11.230,852.051,0.000
1737552026.062,-37.598,-6.348,-9.277,957.520,0.000
1737552026.066,-36.621,-22.949,-20.508,999.512,0.000
1737552026.070,-48.828,-15.137,-11.719,733.398,0.000
1737552026.074,-34.180,-12.207,-20.508,-710.449,0.000
1737552026.078,-35.645,-33.203,-22.949,-1000.000,0.000
1737552026.082,-28.809,-29.785,-5.371,79.102,0.000
1737552026.086,-16.113,-16.113,-7.324,961.914,0.000
1737552026.089,-7.812,-9.277,-16.602,999.512,0.000
1737552026.093,-30.273,-16.602,-21.973,-62.012,0.000
1737552026.097,-39.551,-23.926,-34.180,-983.887,0.000
1737552026.101,9.277,-9.766,-43.945,378.418,0.000
1737552026.105,-3.418,-7.812,-12.207,999.512,0.000
1737552026.109,-43.457,-17.090,7.812,923.340,0.000
1737552026.113,-35.645,-28.809,-10.254,-242.188,0.000
1737552026.117,-26.367,-25.879,-11.719,-1000.000,0.000
1737552026.121,-17.578,-5.859,-14.648,-3.906,0.000
1737552026.125,-41.016,0.000,-29.785,984.375,0.000
1737552026.128,-52.246,-17.090,-30.273,979.492,0.000
1737552026.132,-52.246,-25.391,-20.996,-158.691,0.000
1737552026.136,-49.316,-19.043,-9.277,-1000.000,0.000
1737552026.140,-12.695,-25.879,-13.672,-295.898,0.000
1737552026.144,36.133,-31.250,-36.621,824.707,0.000
1737552026.148,30.762,-8.301,-20.996,999.512,0.000
1737552026.152,-34.180,-5.859,-10.742,315.430,0.000
1737552026.156,-27.344,-20.508,-8.301,-959.473,0.000
1737552026.160,-27.832,-19.043,7.324,-521.973,0.000
1737552026.164,-61.035,-20.996,-5.371,795.410,0.000
1737552026.168,-41.016,-36.133,-25.879,999.512,0.000
1737552026.171,-46.875,-33.203,-39.062,123.535,0.000
1737552026.175,-44.922,-8.301,-31.738,-1000.000,0.000
1737552026.179,-20.508,5.371,-14.160,-774.902,0.000
1737552026.183,-15.625,-1.465,-3.906,600.098,0.000
1737552026.187,-8.789,-20.020,-3.418,999.512,0.000
1737552026.191,-14.648,-29.297,-6.836,621.582,0.000
1737552026.195,-27.832,-30.762,-19.531,-783.203,0.000
1737552026.199,-18.066,-23.926,-41.016,-949.219,0.000
1737552026.203,-21.973,-4.395,-34.668,486.328,0.000
1737552026.207,-10.254,3.906,-2.441,999.512,0.000
1737552026.210,-12.695,-11.719,-13.672,633.301,0.000
1737552026.214,-24.902,-33.691,-37.109,-820.312,0.000
1737552026.218,-6.348,-43.945,-12.207,-876.465,0.000
1737552026.222,0.000,-21.973,-10.254,623.047,0.000
1737552026.226,-4.883,-11.719,-28.320,999.512,0.000
1737552026.230,-45.410,-25.391,-20.508,667.480,0.000
1737552026.234,-74.219,-38.086,-25.879,-727.539,0.000
1737552026.238,-46.387,-15.625,-30.762,-1000.000,0.000
1737552026.242,-12.207,17.578,-16.113,320.801,0.000
1737552026.246,-35.156,10.254,-23.438,999.512,0.000
1737552026.250,-61.035,4.395,-19.043,769.531,0.000
1737552026.253,-53.711,-15.137,-17.090,-606.445,0.000
1737552026.257,-22.949,-34.180,-31.250,-1000.000,0.000
1737552026.261,-7.324,-21.973,-36.133,-96.680,0.000
1737552026.265,-14.160,-3.906,-28.809,960.449,0.000
1737552026.269,-9.277,0.488,-21.484,961.914,0.000
1737552026.273,-2.930,-3.418,-32.715,-313.965,0.000
1737552026.277,-13.184,-12.695,-48.340,-1000.000,0.000
1737552026.281,-0.488,-33.203,-28.320,-223.633,0.000
1737552026.285,-20.996,-33.691,-15.137,843.750,0.000
1737552026.289,-25.879,-3.906,-38.574,999.512,0.000
1737552026.293,3.906,-7.812,-33.691,172.363,0.000
1737552026.296,14.648,-23.926,-11.719,-1000.000,0.000
1737552026.300,-10.742,-17.578,-30.762,-304.688,0.000
1737552026.304,-76.172,-20.020,-42.480,863.770,0.000
1737552026.308,-73.730,-25.879,-11.719,999.512,0.000
1737552026.312,-57.129,-14.160,-12.695,230.469,0.000
1737552026.316,-48.340,-27.832,-27.344,-921.875,0.000
1737552026.320,-44.922,-46.387,-12.207,262.695,0.000
1737552026.324,-45.410,-7.812,-14.160,999.512,0.000
1737552026.328,-18.555,13.672,-30.762,963.867,0.000
1737552026.332,-9.277,-4.883,-31.738,845.703,0.000
1737552026.335,-18.066,-16.113,-26.855,152.832,0.000
1737552026.339,-8.301,-19.531,-20.996,681.152,0.000
1737552026.343,-18.066,-17.090,-14.160,999.512,0.000
1737552026.347,-21.484,-10.254,-13.184,986.816,0.000
1737552026.351,-1.465,-13.184,-13.672,723.633,0.000
1737552026.355,-13.184,-23.926,-24.414,-813.477,0.000
1737552026.359,-16.602,-26.367,-25.391,-718.750,0.000
1737552026.363,-9.277,-20.996,-18.555,736.328,0.000
1737552026.367,-10.254,-19.043,-17.578,999.512,0.000
1737552026.371,7.324,-14.648,-27.832,780.762,0.000
1737552026.375,0.000,-13.672,-22.949,-701.172,0.000
1737552026.378,-27.832,-15.137,-3.906,-899.902,0.000
1737552026.382,4.883,-16.113,-9.277,619.629,0.000
1737552026.386,19.043,-22.461,-27.344,999.512,0.000
1737552026.390,19.043,-26.367,-18.066,692.871,0.000
1737552026.394,-9.766,-31.738,-7.324,-666.504,0.000
1737552026.398,-43.945,-32.227,-16.113,-1000.000,0.000
1737552026.402,-42.480,-6.836,-17.578,7.324,0.000
1737552026.406,-24.902,16.602,-12.207,978.516,0.000
1737552026.410,-15.137,7.812,-28.809,981.934,0.000
1737552026.414,-15.625,-23.438,-42.969,-310.059,0.000
1737552026.418,-23.438,-38.086,-36.621,-1000.000,0.000
1737552026.421,-18.066,-28.809,-44.434,287.109,0.000
1737552026.425,0.977,1.953,-28.320,999.512,0.000
1737552026.429,25.391,6.836,-11.230,992.188,0.000
1737552026.433,44.434,-17.090,-23.438,765.625,0.000
1737552026.437,21.484,-10.254,-5.371,-48.828,0.000
1737552026.441,-2.441,-4.883,1.953,574.707,0.000
1737552026.445,-18.066,-14.160,-10.742,999.512,0.000
1737552026.449,-46.875,-36.133,-15.137,939.453,0.000
1737552026.453,-51.270,-50.781,-13.184,-63.965,0.000
1737552026.457,-37.109,-20.996,-24.902,-1000.000,0.000
1737552026.460,-43.457,-16.113,-35.156,-654.785,0.000
1737552026.464,-26.855,-21.973,-23.926,629.883,0.000
1737552026.468,8.301,-11.719,-21.973,999.512,0.000
1737552026.472,0.488,-21.484,-20.996,471.191,0.000
1737552026.476,-12.207,-23.438,-24.414,-881.348,0.000
1737552026.480,-21.973,-15.137,-20.508,-552.246,0.000
1737552026.484,-16.113,-12.207,-12.207,785.156,0.000
1737552026.488,0.000,-22.949,-3.418,999.512,0.000
1737552026.492,-8.789,-17.578,-9.277,582.520,0.000
1737552026.496,-24.414,-14.648,-28.809,-842.773,0.000
1737552026.500,-33.203,-14.648,-22.461,-640.625,0.000
1737552026.503,-11.230,-14.160,-14.160,763.184,0.000
1737552026.507,37.598,-18.555,-23.926,999.512,0.000
1737552026.511,31.250,-7.812,-34.180,834.961,0.000
1737552026.515,-2.441,-22.949,-26.367,-583.984,0.000
1737552026.519,-23.438,-36.133,-8.789,-1000.000,0.000
1737552026.523,-32.227,-17.090,-3.418,386.230,0.000
1737552026.527,8.789,-10.254,-4.883,999.512,0.000
1737552026.531,3.906,-15.137,-2.930,475.586,0.000
1737552026.535,-51.758,-30.273,-2.930,-777.344,0.000
1737552026.539,-35.645,-33.203,-31.250,-1000.000,0.000
1737552026.543,-9.277,-25.391,-42.969,-705.078,0.000
1737552026.546,-9.766,-31.738,-19.531,604.980,0.000
1737552026.550,-3.906,-34.180,-23.438,990.723,0.000
1737552026.554,-31.250,-10.742,-27.344,-535.645,0.000
1737552026.558,-43.457,-0.488,0.488,-1000.000,0.000
1737552026.562,-4.395,-28.809,6.836,-250.488,0.000
1737552026.566,-2.930,-43.457,-11.230,917.480,0.000
1737552026.570,-11.719,-28.809,-25.879,831.543,0.000
1737552026.574,-27.344,-35.156,-14.648,-652.832,0.000
1737552026.578,-23.438,-23.438,-9.766,-1000.000,0.000
1737552026.582,-24.902,12.695,-19.531,-284.668,0.000
1737552026.585,-33.203,13.672,-15.625,894.043,0.000
1737552026.589,-36.621,-17.578,-10.742,916.016,0.000
1737552026.593,-53.711,-33.691,-18.555,-547.363,0.000
1737552026.597,-51.270,-33.203,-31.738,-1000.000,0.000
1737552026.601,-38.574,-22.461,-23.438,-953.125,0.000
1737552026.605,-20.020,-16.113,-4.395,-289.062,0.000
1737552026.609,0.000,-18.555,-4.395,882.324,0.000
1737552026.613,-2.930,-32.715,-21.484,-75.195,0.000
1737552026.617,-4.883,-42.969,-24.902,-1000.000,0.000
1737552026.621,10.254,-44.922,-19.531,-146.484,0.000
1737552026.625,5.371,-32.715,-20.996,931.641,0.000
1737552026.628,-27.344,-21.973,-27.832,999.512,0.000
1737552026.632,-18.555,-3.906,-37.109,-75.684,0.000
1737552026.636,26.855,8.301,-33.691,-1000.000,0.000
1737552026.640,7.812,0.977,-23.926,-913.086,0.000
1737552026.644,0.488,-3.906,-0.488,114.746,0.000
1737552026.648,-5.859,-12.207,-3.418,999.512,0.000
1737552026.652,-22.461,-23.926,-6.348,115.723,0.000
1737552026.656,-17.090,-20.996,6.348,-1000.000,0.000
1737552026.660,-11.719,-29.297,-3.906,-834.961,0.000
1737552026.664,-15.625,-43.457,-17.090,475.586,0.000
1737552026.667,-25.391,1.953,-15.625,999.512,0.000
1737552026.671,-20.020,30.762,-20.996,496.582,0.000
1737552026.675,-27.344,1.465,-25.879,-885.742,0.000
1737552026.679,-14.160,-9.766,-19.043,-840.332,0.000
1737552026.683,-2.441,-25.391,-7.324,618.652,0.000
1737552026.687,-10.742,-43.945,-25.391,999.512,0.000
1737552026.691,-12.207,-11.230,-35.156,565.430,0.000
1737552026.695,-19.531,1.465,-16.113,-848.633,0.000
1737552026.699,-3.418,-19.043,-6.836,-699.707,0.000
1737552026.703,7.812,-21.484,1.465,734.375,0.000
1737552026.707,-12.207,-4.395,-2.441,999.512,0.000
1737552026.710,-27.832,5.859,-18.066,784.180,0.000
1737552026.714,-40.527,-1.465,-17.090,-570.801,0.000
1737552026.718,-25.879,-10.742,-3.906,-1000.000,0.000
1737552026.722,7.812,-36.133,-10.254,-170.898,0.000
1737552026.726,23.438,-57.129,-46.875,939.941,0.000
1737552026.730,7.324,-23.926,-46.387,874.023,0.000
1737552026.734,-50.293,8.789,-8.301,-686.035,0.000
1737552026.738,-84.961,-15.625,5.371,-1000.000,0.000
1737552026.742,-21.973,-35.645,-8.301,442.871,0.000
1737552026.746,-5.371,-13.672,-20.020,999.512,0.000
1737552026.750,-14.160,-6.836,-21.973,884.277,0.000
1737552026.753,-24.902,-17.578,-31.738,-424.316,0.000
1737552026.757,-54.688,-14.648,-20.996,-1000.000,0.000
1737552026.761,-43.945,-8.789,-20.996,177.246,0.000
1737552026.765,-2.441,-33.203,-46.387,982.910,0.000
1737552026.769,-12.207,-33.203,-29.785,994.629,0.000
1737552026.773,-27.832,-9.277,8.301,297.363,0.000
1737552026.777,-20.020,-24.902,4.395,-979.980,0.000
1737552026.781,-12.207,-23.438,-3.906,-541.504,0.000
1737552026.785,0.488,-3.906,-17.578,770.020,0.000
1737552026.789,-6.836,6.348,-44.922,999.512,0.000
1737552026.792,9.277,-9.766,-38.574,238.281,0.000
1737552026.796,-1.953,-22.949,-20.020,-995.117,0.000
1737552026.800,16.113,-30.273,-34.668,-418.945,0.000
1737552026.804,17.578,-26.855,-11.230,813.477,0.000
1737552026.808,-48.340,-10.742,13.672,999.512,0.000
1737552026.812,-60.059,-19.043,-4.395,636.230,0.000
1737552026.816,-59.082,-50.781,-15.137,-825.684,0.000
1737552026.820,-54.688,-25.879,-6.348,-559.570,0.000
1737552026.824,-15.137,9.766,-6.836,811.035,0.000
1737552026.828,-14.648,14.160,-15.137,999.512,0.000
1737552026.832,-22.461,-2.441,-36.133,645.508,0.000
1737552026.835,-27.344,-32.227,-27.344,-819.824,0.000
1737552026.839,-32.715,-28.809,-20.508,-603.516,0.000
1737552026.843,-21.973,-15.625,-34.180,818.848,0.000
1737552026.847,-19.531,-16.602,-10.254,999.512,0.000
1737552026.851,0.488,-22.461,18.066,910.645,0.000
1737552026.855,1.953,-32.715,0.000,-450.684,0.000
1737552026.859,-9.766,-26.855,-33.203,-1000.000,0.000
1737552026.863,4.395,-16.113,-20.020,453.613,0.000
1737552026.867,-18.066,-15.625,-3.418,999.512,0.000
1737552026.871,-37.598,-20.020,-8.301,788.574,0.000
1737552026.875,-42.969,-24.414,-24.902,-667.969,0.000
1737552026.878,-44.922,-6.348,-38.574,-1000.000,0.000
1737552026.882,-22.949,-5.859,-19.043,511.230,0.000
1737552026.886,-7.812,-33.203,-8.301,999.512,0.000
1737552026.890,-29.785,-41.504,-10.254,949.219,0.000
1737552026.894,-59.082,-18.555,-6.836,-358.887,0.000
1737552026.898,-18.066,-21.973,-20.020,-922.363,0.000
1737552026.902,4.395,-10.254,-28.320,647.461,0.000
1737552026.906,-1.465,17.090,-14.648,999.512,0.000
1737552026.910,20.508,-6.348,-15.625,974.121,0.000
1737552026.914,-5.371,-43.945,-30.762,-42.969,0.000
1737552026.917,-56.641,-18.555,-21.484,-1000.000,0.000
1737552026.921,-47.363,-4.883,-32.715,349.609,0.000
1737552026.925,-9.277,-19.043,-42.969,999.512,0.000
1737552026.929,-19.043,-16.602,-7.324,999.023,0.000
1737552026.933,-48.828,-24.902,-5.371,312.012,0.000
1737552026.937,-21.973,-32.715,-6.348,-917.480,0.000
1737552026.941,17.578,-27.344,3.906,191.406,0.000
1737552026.945,19.043,-14.160,0.488,999.512,0.000
1737552026.949,-26.367,1.465,-10.254,992.676,0.000
1737552026.953,-41.992,-16.113,-4.395,406.738,0.000
1737552026.957,-30.762,-19.531,-7.812,-944.336,0.000
1737552026.960,-3.906,0.977,-11.719,-196.777,0.000
1737552026.964,-14.648,-13.184,-23.926,942.871,0.000
1737552026.968,-45.898,-20.508,-32.715,999.512,0.000
1737552026.972,-37.598,-6.348,-8.301,775.879,0.000
1737552026.976,-52.246,-21.484,-4.395,-717.773,0.000
1737552026.980,-57.617,-33.203,-10.254,-602.539,0.000
1737552026.984,-26.367,-3.906,-8.301,833.008,0.000
1737552026.988,-6.348,-0.488,-4.395,999.512,0.000
1737552026.992,3.418,-20.996,-16.602,915.039,0.000
1737552026.996,-13.184,-33.203,-26.855,-170.898,0.000
1737552026.999,-11.230,-20.996,-31.250,-107.422,0.000
1737552027.003,22.461,-2.930,-28.320,966.797,0.000
1737552027.007,25.879,-14.160,-14.648,999.512,0.000
1737552027.011,21.484,-9.766,-2.441,924.316,0.000
1737552027.015,-18.555,1.465,6.348,272.949,0.000
1737552027.019,-49.316,-6.348,-2.930,529.785,0.000
1737552027.023,-6.348,-13.184,-6.348,999.512,0.000
1737552027.027,4.395,-11.230,-16.602,946.289,0.000
1737552027.031,-23.438,-19.043,-30.273,960.938,0.000
1737552027.035,-44.434,-28.809,-8.789,899.902,0.000
1737552027.039,-41.504,-25.879,-1.465,950.195,0.000
1737552027.042,-21.973,-16.113,-5.371,979.980,0.000
1737552027.046,-16.602,-19.531,-22.949,965.820,0.000
1737552027.050,-22.461,-24.902,-32.715,971.680,0.000
1737552027.054,-19.531,-15.137,-17.090,970.703,0.000
1737552027.058,-26.367,-9.277,-17.578,970.703,0.000
1737552027.062,-28.809,-20.996,-23.926,970.703,0.000
1737552027.066,1.465,-23.926,-36.133,970.703,0.000
1737552027.070,15.137,-14.160,-28.320,970.703,0.000
1737552027.074,7.324,-15.137,0.977,970.703,0.000
1737552027.078,17.090,-33.691,-1.465,970.703,0.000
1737552027.082,8.301,-17.090,-13.184,970.703,0.000
1737552027.085,-20.020,6.348,-30.762,970.703,0.000
1737552027.089,-23.926,-7.812,-29.297,970.703,0.000
1737552027.093,-32.227,-31.250,-10.254,970.703,0.000
1737552027.097,-21.973,-18.066,-7.812,970.703,0.000
1737552027.101,5.371,-6.836,-10.254,970.703,0.000
1737552027.105,-1.953,-11.719,-15.625,970.703,0.000
1737552027.109,-32.715,-7.812,-15.137,970.703,0.000
1737552027.113,-39.062,-6.348,-8.789,970.703,0.000
1737552027.117,-31.738,-2.441,-14.160,970.703,0.000
1737552027.121,-6.348,-23.926,-18.066,970.703,0.000
1737552027.124,12.695,-33.203,-29.785,970.703,0.000
1737552027.128,-14.160,-11.719,-41.992,970.703,0.000
1737552027.132,-32.227,-12.695,-22.949,970.703,0.000
1737552027.136,-18.066,-16.113,-6.348,970.703,0.000
1737552027.140,0.000,-17.090,-15.137,970.703,0.000
1737552027.144,-4.883,-21.484,-18.555,970.703,0.000
1737552027.148,-27.832,-17.090,-23.438,970.703,0.000
1737552027.152,-16.113,-17.578,-31.738,970.703,0.000
1737552027.156,-1.465,-21.973,-27.344,970.703,0.000
1737552027.160,-5.859,-42.480,-26.855,970.703,0.000
1737552027.164,-3.418,-44.922,-32.227,970.703,0.000
1737552027.167,10.254,-19.043,-26.367,970.703,0.000
1737552027.171,1.953,-9.277,-17.090,970.703,0.000
1737552027.175,-25.879,-7.812,-14.648,970.703,0.000
1737552027.179,-23.438,-5.371,-11.230,970.703,0.000
1737552027.183,-14.648,0.977,0.977,970.703,0.000
1737552027.187,-30.762,-6.836,-2.930,970.703,0.000
1737552027.191,-35.645,-45.898,-12.695,970.703,0.000
1737552027.195,-29.297,-57.617,-34.668,970.703,0.000
1737552027.199,-33.691,-17.578,-30.762,984.375,0.000
1737552027.203,-26.367,-13.672,-9.277,919.434,0.000
1737552027.207,-23.926,-1.953,-16.113,999.512,0.000
1737552027.210,-30.273,16.602,-20.020,903.320,0.000
1737552027.214,-20.996,0.488,-16.113,-509.277,0.000
1737552027.218,1.953,-9.766,-8.789,-1000.000,0.000
1737552027.222,6.836,-11.719,-10.742,20.996,0.000
1737552027.226,13.672,-8.301,-23.438,999.512,0.000
1737552027.230,6.348,-9.277,-18.555,748.535,0.000
1737552027.234,-20.020,-26.367,-15.625,-699.219,0.000
1737552027.238,-20.996,-41.016,-31.250,-1000.000,0.000
1737552027.242,-22.949,-30.273,-32.227,-930.664,0.000
1737552027.246,-8.789,-23.438,-18.555,-1000.000,0.000
1737552027.249,-2.930,-16.113,-34.180,-1000.000,0.000
1737552027.253,-26.855,-8.789,-40.039,-1000.000,0.000
1737552027.257,-24.414,-19.531,-28.320,-1000.000,0.000
1737552027.261,-26.855,-10.254,-16.113,-1000.000,0.000
1737552027.265,-42.969,0.000,-3.906,-1000.000,0.000
1737552027.269,-39.062,-8.789,-15.625,-1000.000,0.000
1737552027.273,-25.879,-22.461,-16.113,-1000.000,0.000
1737552027.277,-34.180,-20.020,-19.043,-1000.000,0.000
1737552027.281,-35.645,-9.277,-35.156,-1000.000,0.000
1737552027.285,-32.715,-17.578,-35.645,-1000.000,0.000
1737552027.289,-15.625,-28.809,-31.250,-1000.000,0.000
1737552027.292,-3.906,-18.555,-23.438,-1000.000,0.000
1737552027.296,3.418,-12.207,-14.160,-1000.000,0.000
1737552027.300,9.766,-30.762,-0.488,-1000.000,0.000
1737552027.304,-23.926,-22.461,2.441,-1000.000,0.000
1737552027.308,-38.574,-5.859,-14.648,-1000.000,0.000
1737552027.312,-36.621,-13.672,-21.484,-1000.000,0.000
1737552027.316,-40.527,-16.602,-20.020,-1000.000,0.000
1737552027.320,-2.930,-6.348,-13.672,-1000.000,0.000
1737552027.324,17.578,-1.953,-26.855,-1000.000,0.000
1737552027.328,-6.348,-18.555,-35.156,-1000.000,0.000
1737552027.331,2.441,-32.715,-36.621,-1000.000,0.000
1737552027.335,-21.484,-29.297,-29.297,-1000.000,0.000
1737552027.339,-58.594,-24.902,-14.160,-1000.000,0.000
1737552027.343,-49.316,-22.461,-19.531,-1000.000,0.000
1737552027.347,-26.367,-26.855,-20.020,-1000.000,0.000
1737552027.351,-7.324,-40.527,-13.184,-1000.000,0.000
1737552027.355,-17.578,-27.344,-16.602,-1000.000,0.000
1737552027.359,-12.695,12.207,-16.113,-1000.000,0.000
1737552027.363,-6.836,20.020,-15.137,-1000.000,0.000
1737552027.367,-33.691,6.348,-34.180,-1000.000,0.000
1737552027.371,-37.109,-4.395,-37.109,-1000.000,0.000
1737552027.374,-19.531,-23.438,-32.227,-1000.000,0.000
1737552027.378,-43.457,-34.668,-14.648,-1000.000,0.000
1737552027.382,-48.828,-30.762,-7.812,-1000.000,0.000
1737552027.386,-22.461,-30.273,-18.066,-1000.000,0.000
1737552027.390,-3.906,-37.109,-22.949,-1000.000,0.000
1737552027.394,3.418,-28.809,-32.227,-1000.000,0.000
1737552027.398,4.395,-21.484,-18.066,-1000.000,0.000
1737552027.402,14.648,-25.879,-8.301,-1000.000,0.000
1737552027.406,7.324,-12.695,-12.207,-1000.000,0.000
1737552027.410,-28.320,2.441,-20.508,-1000.000,0.000
1737552027.414,-53.711,-2.441,-20.508,-1000.000,0.000
1737552027.417,-44.434,-16.113,-26.367,-1000.000,0.000
1737552027.421,-26.367,-32.715,-23.926,-1000.000,0.000
1737552027.425,-16.602,-28.320,-0.488,-1000.000,0.000
1737552027.429,-11.719,-29.785,-18.555,-1000.000,0.000
1737552027.433,-20.508,-49.316,-29.297,-1000.000,0.000
1737552027.437,-25.879,-3.418,-15.625,-1000.000,0.000
1737552027.441,-27.832,16.602,-5.859,-1000.000,0.000
1737552027.445,-35.645,-6.348,-5.371,-1000.000,0.000
1737552027.449,-33.203,-17.578,-21.973,-1000.000,0.000
1737552027.453,-24.902,-18.066,-31.738,-1000.000,0.000
1737552027.456,-16.113,-7.812,-20.508,-1000.000,0.000
1737552027.460,-3.418,-6.836,-9.766,-1000.000,0.000
1737552027.464,10.254,-10.742,-18.066,-1000.000,0.000
1737552027.468,7.812,-25.391,-30.762,-1000.000,0.000
1737552027.472,-3.418,-44.434,-33.203,-974.121,0.000
1737552027.476,-12.207,-35.645,-35.156,-998.047,0.000
1737552027.480,-35.156,-27.832,-13.184,-970.703,0.000
1737552027.484,-46.387,-10.742,-1.465,29.785,0.000
1737552027.488,-25.879,0.488,-9.277,999.512,0.000
1737552027.492,-25.391,-5.371,-12.695,201.660,0.000
1737552027.496,-15.625,-20.996,-17.578,-974.609,0.000
1737552027.499,-2.441,-21.973,-25.391,-990.723,0.000
1737552027.503,-36.133,-24.902,-20.020,-433.594,0.000
1737552027.507,-24.414,-21.484,-5.371,784.668,0.000
1737552027.511,1.953,6.836,-19.531,709.473,0.000
1737552027.515,-16.113,-4.883,-21.973,-763.184,0.000
1737552027.519,-5.371,-41.016,5.859,-1000.000,0.000
1737552027.523,23.926,-18.066,0.488,-559.570,0.000
1737552027.527,32.715,5.859,-8.301,654.785,0.000
1737552027.531,-10.254,-6.836,-9.766,805.176,0.000
1737552027.535,-31.738,-24.902,-32.227,-737.305,0.000
1737552027.539,-27.832,-46.387,-25.391,-1000.000,0.000
1737552027.542,-50.781,-18.555,-26.367,-966.797,0.000
1737552027.546,-38.574,9.766,-22.949,-963.379,0.000
1737552027.550,-22.461,-18.555,-10.254,-545.410,0.000
1737552027.554,-51.270,-8.789,-6.836,-920.410,0.000
1737552027.558,-63.477,8.301,-3.418,-943.359,0.000
1737552027.562,-23.438,-8.789,-7.812,453.613,0.000
1737552027.566,-12.207,-21.973,-9.766,999.512,0.000
1737552027.570,-11.719,-22.949,-26.367,797.363,0.000
1737552027.574,3.906,-23.926,-32.227,-497.070,0.000
1737552027.578,-6.348,-31.250,-14.160,-1000.000,0.000
1737552027.581,-3.418,-5.371,-9.766,-682.129,0.000
1737552027.585,21.973,7.812,-14.160,634.277,0.000
1737552027.589,15.625,-1.953,-27.832,999.512,0.000
1737552027.593,-4.395,1.465,-18.555,-437.500,0.000
1737552027.597,-15.625,-22.949,-5.371,-1000.000,0.000
1737552027.601,-41.992,-38.574,-14.648,-903.809,0.000
1737552027.605,-71.777,-23.438,-15.137,-138.672,0.000
1737552027.609,-29.785,-25.391,-13.672,877.930,0.000
1737552027.613,-21.973,-18.066,-22.949,-25.391,0.000
1737552027.617,-51.758,-26.367,-42.480,-1000.000,0.000
1737552027.621,-35.645,-28.320,-42.969,-969.238,0.000
1737552027.624,-31.738,5.859,-14.648,-633.789,0.000
1737552027.628,-46.875,6.348,4.883,258.301,0.000
1737552027.632,-32.227,-12.695,-0.977,34.668,0.000
1737552027.636,-18.066,-33.691,-18.066,-1000.000,0.000
1737552027.640,-12.695,-41.016,-26.855,-923.340,0.000
1737552027.644,-23.438,-9.766,-29.785,232.910,0.000
1737552027.648,-13.672,-6.836,-20.508,999.512,0.000
1737552027.652,-8.789,-19.043,-24.414,351.074,0.000
1737552027.656,-18.555,-27.344,-30.762,-872.070,0.000
1737552027.660,-4.395,-19.531,-15.137,-1000.000,0.000
1737552027.663,-15.137,-0.488,-2.930,-479.980,0.000
1737552027.667,-22.461,-14.648,2.441,804.688,0.000
1737552027.671,8.789,-18.066,-3.418,865.234,0.000
1737552027.675,-14.648,-17.090,-5.859,-642.090,0.000
1737552027.679,-41.504,-28.320,-18.066,-1000.000,0.000
1737552027.683,-19.043,-13.672,-28.320,-487.793,0.000
1737552027.687,24.902,8.301,-20.996,781.250,0.000
1737552027.691,28.809,-3.418,-24.414,905.762,0.000
1737552027.695,-27.344,-8.301,-27.832,-641.113,0.000
1737552027.699,-25.879,-5.371,-24.414,-1000.000,0.000
1737552027.703,5.859,-16.113,-5.859,-55.176,0.000
1737552027.706,-17.090,-26.855,-7.324,999.512,0.000
1737552027.710,-17.578,-21.973,-11.230,761.719,0.000
1737552027.714,-27.344,-18.555,-15.137,-694.336,0.000
1737552027.718,-65.430,-11.230,-19.043,-1000.000,0.000
1737552027.722,-61.523,-9.277,-8.301,-922.852,0.000
1737552027.726,-31.738,-15.625,-17.090,-959.473,0.000
1737552027.730,-22.949,-15.137,-24.902,-962.891,0.000
1737552027.734,-18.555,-20.508,-31.738,-983.398,0.000
1737552027.738,-3.906,-23.926,-30.762,-1000.000,0.000
1737552027.742,6.348,-17.578,-26.855,-157.715,0.000
1737552027.746,5.371,-14.160,-19.531,999.512,0.000
1737552027.749,-15.137,-24.902,-16.113,871.582,0.000
1737552027.753,-37.109,-36.133,-30.762,-580.078,0.000
1737552027.757,-33.203,-26.855,-30.273,-1000.000,0.000
1737552027.761,-28.320,-15.625,-20.996,-926.758,0.000
1737552027.765,-19.531,-22.949,-16.113,-1000.000,0.000
1737552027.769,18.555,-29.785,-4.883,-989.258,0.000
1737552027.773,0.488,-11.719,-20.508,-970.703,0.000
1737552027.777,-7.812,0.000,-36.133,-1000.000,0.000
1737552027.781,18.066,2.930,-41.016,-196.289,0.000
1737552027.785,-17.090,-9.277,-33.691,903.809,0.000
1737552027.788,-64.941,-19.531,-7.812,999.512,0.000
1737552027.792,-49.316,-14.648,-2.930,20.020,0.000
1737552027.796,-40.527,-25.391,-14.160,-1000.000,0.000
1737552027.800,-41.504,-35.645,-10.254,-984.863,0.000
1737552027.804,-15.625,-11.230,-26.855,-960.449,0.000
1737552027.808,-12.207,0.000,-25.879,-1000.000,0.000
1737552027.812,-31.738,-9.766,-11.230,-947.754,0.000
1737552027.816,-15.137,-32.227,-22.949,-1000.000,0.000
1737552027.820,22.461,-53.223,-15.625,-666.504,0.000
1737552027.824,22.461,-11.719,-6.348,671.387,0.000
1737552027.828,24.902,6.836,-6.348,999.512,0.000
1737552027.831,32.715,-22.461,-13.184,238.281,0.000
1737552027.835,-5.859,-9.277,-11.719,-909.668,0.000
1737552027.839,-21.484,7.812,-6.348,-1000.000,0.000
1737552027.843,-43.945,5.371,-18.066,-811.035,0.000
1737552027.847,-66.406,-0.488,-22.949,-421.387,0.000
1737552027.851,-37.109,-23.926,-10.742,-714.844,0.000
1737552027.855,-28.809,-24.902,-20.508,-1000.000,0.000
1737552027.859,-7.812,-13.184,-43.457,-991.699,0.000
1737552027.863,17.578,-9.766,-17.578,-205.566,0.000
1737552027.867,-5.859,-15.137,5.859,983.398,0.000
1737552027.871,-20.020,-25.391,-3.418,825.195,0.000
1737552027.874,-27.832,-28.320,-12.207,-605.469,0.000
1737552027.878,-32.227,-16.113,-39.062,-1000.000,0.000
1737552027.882,-31.738,-22.949,-32.715,-571.777,0.000
1737552027.886,-25.391,-19.531,-14.648,739.746,0.000
1737552027.890,-20.508,-17.090,-21.484,978.516,0.000
1737552027.894,-30.273,-30.762,-22.949,-517.578,0.000
1737552027.898,-9.766,-26.367,-18.066,-1000.000,0.000
1737552027.902,6.348,-25.391,-1.465,-389.160,0.000
1737552027.906,-7.812,-30.762,-5.859,820.312,0.000
1737552027.910,-16.602,-17.578,-9.766,978.516,0.000
1737552027.913,-33.203,-23.926,-11.230,-431.152,0.000
1737552027.917,-35.645,-32.227,-27.344,-1000.000,0.000
1737552027.921,-19.043,-25.879,-26.855,-692.383,0.000
1737552027.925,-12.695,-25.879,-22.461,491.211,0.000
1737552027.929,2.441,-32.715,-51.270,999.512,0.000
1737552027.933,-13.672,-25.391,-23.926,-112.305,0.000
1737552027.937,-28.320,-14.648,-0.488,-1000.000,0.000
1737552027.941,-41.992,-7.812,-8.301,-827.637,0.000
1737552027.945,-27.344,-14.160,1.465,408.691,0.000
1737552027.949,18.555,-17.090,-11.719,999.512,0.000
1737552027.953,-17.090,-9.277,-21.484,343.750,0.000
1737552027.956,-37.109,-13.184,-22.949,-977.539,0.000
1737552027.960,-23.926,-17.578,-19.531,-682.617,0.000
1737552027.964,-9.766,-15.137,-19.531,712.891,0.000
1737552027.968,7.324,-20.508,-27.344,999.512,0.000
1737552027.972,20.996,-22.949,-31.250,650.391,0.000
1737552027.976,-1.465,-36.133,-51.270,-751.465,0.000
1737552027.980,-42.480,-39.062,-36.621,-804.199,0.000
1737552027.984,-14.648,-18.555,-1.465,672.852,0.000
1737552027.988,16.113,-20.020,6.836,999.512,0.000
1737552027.992,-23.926,-14.648,-5.371,804.688,0.000
1737552027.996,-55.664,3.906,-11.230,-649.414,0.000
1737552027.999,-45.410,-2.441,-20.996,-976.562,0.000
1737552028.003,-27.832,-13.184,-33.203,552.246,0.000
1737552028.007,-2.930,-5.859,-25.879,999.512,0.000
1737552028.011,8.301,-7.324,-23.438,908.203,0.000
1737552028.015,-19.043,-13.672,-35.156,-441.406,0.000
1737552028.019,-33.203,-24.414,-32.715,-1000.000,0.000
1737552028.023,-5.859,-26.855,-16.602,532.227,0.000
1737552028.027,1.953,-18.066,-19.043,999.512,0.000
1737552028.031,-7.812,-19.531,-17.578,983.398,0.000
1737552028.035,-15.625,-25.879,-17.090,128.906,0.000
1737552028.038,-14.648,-28.320,-14.160,-986.328,0.000
1737552028.042,15.137,-7.812,-1.953,150.391,0.000
1737552028.046,28.809,10.742,-17.578,999.512,0.000
1737552028.050,9.277,-13.184,-36.133,944.824,0.000
1737552028.054,-22.949,-18.555,-20.508,-294.434,0.000
1737552028.058,-11.230,-11.230,-11.230,-1000.000,0.000
1737552028.062,-7.812,-25.879,-29.785,169.922,0.000
1737552028.066,6.836,-16.113,-18.066,987.305,0.000
1737552028.070,4.395,-10.742,3.906,996.094,0.000
1737552028.074,-32.227,-15.625,-4.883,424.316,0.000
1737552028.078,-32.715,-2.930,-8.301,-916.504,0.000
1737552028.081,-16.113,-3.906,-4.883,-667.480,0.000
1737552028.085,27.832,-12.207,-27.344,766.602,0.000
1737552028.089,8.301,-2.930,-37.109,999.512,0.000
1737552028.093,-44.434,-3.906,-16.113,-241.699,0.000
1737552028.097,-31.250,-7.324,-1.465,-1000.000,0.000
1737552028.101,-14.160,-14.160,-15.137,-545.898,0.000
1737552028.105,-10.742,-26.367,-39.551,712.891,0.000
1737552028.109,-16.113,-22.949,-20.508,999.512,0.000
1737552028.113,-37.109,-22.949,1.953,190.430,0.000
1737552028.117,-32.227,-15.625,-9.766,-1000.000,0.000
1737552028.120,-12.207,-20.020,-22.949,-599.121,0.000
1737552028.124,-26.855,-18.555,-18.066,708.008,0.000
1737552028.128,-32.227,-5.859,-13.672,999.512,0.000
1737552028.132,-29.297,-12.695,-15.137,557.617,0.000
1737552028.136,-36.621,-18.555,-26.855,-855.957,0.000
1737552028.140,-12.207,-9.766,-26.367,-846.680,0.000
1737552028.144,18.555,-6.836,-21.973,612.305,0.000
1737552028.148,31.738,-14.160,-12.695,999.512,0.000
1737552028.152,50.293,-39.551,7.812,753.906,0.000
1737552028.156,24.414,-31.738,2.441,-722.168,0.000
1737552028.160,-36.621,-6.836,-14.160,-876.465,0.000
1737552028.163,-37.598,-1.953,-5.371,665.527,0.000
1737552028.167,-12.207,3.418,-14.160,999.512,0.000
1737552028.171,-38.574,-22.461,-25.391,889.648,0.000
1737552028.175,-26.367,-26.367,-17.578,-549.316,0.000
1737552028.179,-3.418,-12.207,-24.902,-842.285,0.000
1737552028.183,-26.855,-18.066,-20.996,732.910,0.000
1737552028.187,-46.387,-26.855,0.000,999.512,0.000
1737552028.191,-52.246,-34.668,14.648,969.238,0.000
1737552028.195,-58.594,-28.320,3.418,-216.797,0.000
1737552028.199,-44.434,-15.625,-12.207,-1000.000,0.000
1737552028.203,-0.977,-3.418,-19.043,531.250,0.000
1737552028.206,2.441,-5.859,-28.320,999.512,0.000
1737552028.210,-28.320,-14.160,-20.996,997.070,0.000
1737552028.214,-25.391,-20.996,-31.250,513.184,0.000
1737552028.218,-25.391,-26.855,-38.086,-552.734,0.000
1737552028.222,-43.457,-21.973,-3.906,469.727,0.000
1737552028.226,-23.438,-15.137,0.000,999.512,0.000
1737552028.230,-5.371,-12.207,-19.043,976.074,0.000
1737552028.234,-0.977,-19.531,-10.254,321.289,0.000
1737552028.238,-6.836,-28.320,-28.809,-967.773,0.000
1737552028.242,-22.461,-18.555,-29.297,-142.090,0.000
1737552028.245,-23.438,-15.625,-8.789,969.727,0.000
1737552028.249,-5.859,-24.414,-23.438,999.512,0.000
1737552028.253,-14.648,-24.902,-17.578,238.770,0.000
1737552028.257,-47.363,-26.367,-19.531,-1000.000,0.000
1737552028.261,-60.547,-20.508,-22.949,-470.215,0.000
1737552028.265,-56.152,-14.648,-6.836,801.270,0.000
1737552028.269,-51.270,-22.461,-7.324,999.512,0.000
1737552028.273,-51.270,-32.715,-9.766,360.840,0.000
1737552028.277,-47.363,-18.066,-14.648,-966.797,0.000
1737552028.281,-45.410,1.953,-19.043,-654.297,0.000
1737552028.285,-22.461,-2.930,-22.949,711.426,0.000
1737552028.288,-5.859,-7.812,-21.973,999.512,0.000
1737552028.292,-27.832,-11.230,-16.602,732.422,0.000
1737552028.296,-27.344,-28.320,-32.227,-757.812,0.000
1737552028.300,7.812,-35.156,-33.691,-763.672,0.000
1737552028.304,-7.324,-27.344,-19.531,721.680,0.000
1737552028.308,-21.484,-23.438,-23.438,999.512,0.000
1737552028.312,-11.719,-4.883,-20.996,721.680,0.000
1737552028.316,-23.438,1.465,-20.020,-732.910,0.000
1737552028.320,-33.203,-7.324,-8.789,-970.703,0.000
1737552028.324,-15.137,-13.184,-2.930,555.176,0.000
1737552028.328,-3.418,-18.555,-14.160,999.512,0.000
1737552028.331,-3.906,-7.324,-15.137,905.762,0.000
1737552028.335,-11.719,-7.324,-12.695,-281.738,0.000
1737552028.339,-46.875,-18.066,-20.508,-1000.000,0.000
1737552028.343,-51.758,-25.391,-25.879,32.227,0.000
1737552028.347,-38.574,-26.367,-21.484,934.082,0.000
1737552028.351,-30.273,-36.133,-24.902,999.512,0.000
1737552028.355,-40.527,-48.340,-26.855,332.031,0.000
1737552028.359,-51.270,-28.320,-30.762,-907.715,0.000
1737552028.363,-20.508,-15.625,-18.066,-147.949,0.000
1737552028.367,4.883,-9.766,-0.488,999.512,0.000
1737552028.370,0.977,2.441,-6.348,968.262,0.000
1737552028.374,-20.996,-9.277,-20.020,-279.785,0.000
1737552028.378,-41.992,-33.203,-26.367,-1000.000,0.000
1737552028.382,-46.387,-25.391,-23.438,-83.496,0.000
1737552028.386,-5.859,-43.457,-29.297,920.898,0.000
1737552028.390,11.230,-71.777,-20.508,999.512,0.000
1737552028.394,-16.113,-15.137,-15.137,36.133,0.000
1737552028.398,-21.484,20.996,-5.859,-1000.000,0.000
1737552028.402,-26.855,7.324,0.488,105.469,0.000
1737552028.406,-12.695,0.977,-4.395,999.512,0.000
1737552028.410,32.715,-4.395,-10.254,988.281,0.000
1737552028.413,41.016,-21.973,-32.227,148.926,0.000
1737552028.417,-7.812,-42.969,-39.551,-1000.000,0.000
1737552028.421,-58.105,-24.414,-23.438,-475.586,0.000
1737552028.425,-27.832,-20.020,-16.113,793.945,0.000
1737552028.429,4.883,-36.621,-35.156,999.512,0.000
1737552028.433,-26.367,-36.621,-43.945,196.289,0.000
1737552028.437,-58.594,-35.645,-22.461,-990.234,0.000
1737552028.441,-60.059,-16.602,-17.090,-895.020,0.000
1737552028.445,-41.016,0.977,-20.020,419.922,0.000
1737552028.449,-15.625,-24.414,-24.902,999.512,0.000
1737552028.452,-19.531,-50.293,-23.438,-23.926,0.000
1737552028.456,-46.875,-14.160,-26.367,-1000.000,0.000
1737552028.460,-43.457,8.301,-29.297,-984.863,0.000
1737552028.464,-36.621,-7.324,-14.648,-986.816,0.000
1737552028.468,-25.391,-9.766,-10.254,-774.414,0.000
1737552028.472,-7.324,-4.395,-14.648,-770.508,0.000
1737552028.476,-26.367,-27.832,-20.020,-1000.000,0.000
1737552028.480,-28.320,-39.551,-35.645,-649.902,0.000
1737552028.484,1.465,-20.020,-36.133,661.133,0.000
1737552028.488,2.930,-16.113,-31.738,999.512,0.000
1737552028.492,-12.207,-1.953,-23.438,741.699,0.000
1737552028.495,-36.621,2.930,-18.066,-582.031,0.000
1737552028.499,-29.297,-17.578,-14.160,-1000.000,0.000
1737552028.503,-0.977,-31.738,-15.137,-533.691,0.000
1737552028.507,17.578,-21.973,-19.531,749.023,0.000
1737552028.511,31.250,-24.414,-14.160,999.512,0.000
1737552028.515,7.812,-25.879,-22.949,-446.777,0.000
1737552028.519,-18.066,-18.066,-21.973,-1000.000,0.000
1737552028.523,-12.695,-3.906,-17.578,122.070,0.000
1737552028.527,-4.395,-1.953,-9.766,999.512,0.000
1737552028.531,-36.133,-18.066,-16.113,994.629,0.000
1737552028.535,-43.945,-17.578,-24.902,-220.215,0.000
1737552028.538,-22.461,-2.441,-17.090,-1000.000,0.000
1737552028.542,-36.133,-4.395,-14.648,284.180,0.000
1737552028.546,-40.039,-20.020,-10.742,999.512,0.000
1737552028.550,-20.508,-47.852,-21.973,985.352,0.000
1737552028.554,-9.766,-57.617,-31.250,-0.488,0.000
1737552028.558,-31.250,-19.531,-29.297,-1000.000,0.000
1737552028.562,-41.016,-11.230,-19.043,119.141,0.000
1737552028.566,-22.461,-17.578,-11.719,999.512,0.000
1737552028.570,-16.113,-17.090,-3.906,999.512,0.000
1737552028.574,-18.066,-20.996,-6.348,544.434,0.000
1737552028.577,-4.883,-18.066,-17.578,-867.676,0.000
1737552028.581,-8.789,-10.254,-8.789,-292.480,0.000
1737552028.585,-9.766,-0.488,5.371,927.734,0.000
1737552028.589,1.953,-3.418,2.441,999.512,0.000
1737552028.593,-3.418,-15.137,-11.719,460.938,0.000
1737552028.597,-10.254,-19.043,-45.898,-919.922,0.000
1737552028.601,13.672,-18.066,-48.340,-767.578,0.000
1737552028.605,6.348,-23.926,-16.113,658.203,0.000
1737552028.609,2.441,-18.555,-6.348,999.512,0.000
1737552028.613,1.465,-13.184,0.488,412.109,0.000
1737552028.617,5.371,-7.324,-7.812,-929.199,0.000
1737552028.620,50.781,-4.883,-13.672,-815.918,0.000
1737552028.624,57.129,-12.695,-12.207,612.305,0.000
1737552028.628,-62.500,-7.812,-10.742,999.512,0.000
1737552028.632,-126.953,-8.789,-19.043,747.559,0.000
1737552028.636,-74.707,-28.320,-30.762,-632.812,0.000
1737552028.640,-54.199,-37.109,-31.738,-1000.000,0.000
1737552028.644,-24.414,-27.832,-21.973,118.652,0.000
1737552028.648,-18.555,-35.645,-18.066,999.512,0.000
1737552028.652,-34.668,-36.133,-20.020,860.352,0.000
1737552028.656,-23.438,-33.691,-20.508,-670.410,0.000
1737552028.660,-28.320,-32.227,-15.137,-977.051,0.000
1737552028.663,-26.855,-3.906,-22.949,619.141,0.000
1737552028.667,-24.902,-8.301,-23.926,999.512,0.000
1737552028.671,-20.996,-4.883,-7.812,982.910,0.000
1737552028.675,-18.066,-1.953,0.488,161.621,0.000
1737552028.679,-26.367,-7.324,-14.648,-924.316,0.000
1737552028.683,-9.766,-20.508,-30.762,252.441,0.000
1737552028.687,11.719,-38.086,-31.738,999.512,0.000
1737552028.691,-12.207,-24.902,-30.273,924.805,0.000
1737552028.695,-20.020,-16.602,1.953,-317.871,0.000
1737552028.699,-15.137,-29.297,5.859,-1000.000,0.000
1737552028.702,9.766,-19.531,-27.344,184.570,0.000
1737552028.706,46.387,-8.301,-25.391,999.512,0.000
1737552028.710,58.105,-20.508,-0.488,980.469,0.000
1737552028.714,37.598,-21.484,0.488,9.277,0.000
1737552028.718,-11.719,-18.066,-13.184,-1000.000,0.000
1737552028.722,-82.520,-19.531,-22.461,-264.648,0.000
1737552028.726,-106.934,-14.648,-28.809,881.348,0.000
1737552028.730,-49.316,-12.695,-37.109,999.512,0.000
1737552028.734,-31.738,-19.043,-28.809,98.145,0.000
1737552028.738,-52.734,-22.461,-9.277,-1000.000,0.000
1737552028.742,-37.109,-27.344,-6.836,-332.031,0.000
1737552028.745,-4.883,-40.527,-20.020,853.027,0.000
1737552028.749,4.395,-28.320,-16.602,999.512,0.000
1737552028.753,-15.625,-11.230,-7.324,410.645,0.000
1737552028.757,-36.621,-16.113,-10.742,-933.105,0.000
1737552028.761,-42.969,-5.371,-10.254,-534.180,0.000
1737552028.765,-38.086,2.441,-15.625,786.133,0.000
1737552028.769,-9.766,-7.812,-33.203,999.512,0.000
1737552028.773,2.441,-21.973,-33.691,856.445,0.000
1737552028.777,-31.738,-17.578,-19.043,-538.086,0.000
1737552028.781,-44.434,3.418,-9.766,-990.723,0.000
1737552028.784,-28.809,3.418,-11.719,480.957,0.000
1737552028.788,-19.531,-20.020,-15.625,999.512,0.000
1737552028.792,-9.277,-30.762,-20.508,484.375,0.000
1737552028.796,-16.602,-25.879,-14.160,-771.484,0.000
1737552028.800,-29.297,-27.832,-13.672,-1000.000,0.000
1737552028.804,-30.762,-18.066,-27.832,-387.695,0.000
1737552028.808,-9.766,0.000,-21.973,863.281,0.000
1737552028.812,-4.883,-6.348,-22.461,779.785,0.000
1737552028.816,-22.949,-2.441,-29.297,-766.113,0.000
1737552028.820,-18.555,-1.953,-6.836,-1000.000,0.000
1737552028.824,-15.625,-16.113,0.000,145.996,0.000
1737552028.827,14.160,-24.902,-8.789,999.512,0.000
1737552028.831,2.441,-40.039,-19.043,741.211,0.000
1737552028.835,-34.180,-8.301,-34.668,-631.348,0.000
1737552028.839,-29.785,8.301,-28.809,-1000.000,0.000
1737552028.843,-18.066,-4.395,-10.254,-643.555,0.000
1737552028.847,2.441,-14.648,-14.648,675.293,0.000
1737552028.851,15.137,-30.273,-18.555,964.844,0.000
1737552028.855,-33.691,-34.180,-18.066,-532.715,0.000
1737552028.859,-38.574,-15.625,-26.855,-1000.000,0.000
1737552028.863,-15.625,-12.695,-36.133,-816.895,0.000
1737552028.867,-7.324,-0.488,-15.137,421.875,0.000
1737552028.870,-10.254,1.465,3.906,999.512,0.000
1737552028.874,-28.320,-6.348,8.301,-95.703,0.000
1737552028.878,-39.551,-5.371,-3.906,-1000.000,0.000
1737552028.882,-27.344,-15.137,-31.250,-444.824,0.000
1737552028.886,-5.371,-25.391,-26.367,801.270,0.000
1737552028.890,-10.254,-25.391,-19.043,999.512,0.000
1737552028.894,-19.043,-25.879,-22.949,-26.367,0.000
1737552028.898,-24.414,-39.551,-9.277,-1000.000,0.000
1737552028.902,-17.578,-41.504,2.441,-538.574,0.000
1737552028.906,-12.207,-17.090,-1.465,735.840,0.000
1737552028.909,-3.906,10.254,-23.926,999.512,0.000
1737552028.913,12.695,1.953,-14.160,351.074,0.000
1737552028.917,-11.719,-23.926,-6.348,-951.660,0.000
1737552028.921,-19.531,-6.836,-19.043,-719.238,0.000
1737552028.925,12.695,11.719,-21.484,688.477,0.000
1737552028.929,12.207,-11.230,-35.645,999.512,0.000
1737552028.933,-25.879,-25.391,-27.832,234.375,0.000
1737552028.937,-45.410,-29.297,-10.742,-1000.000,0.000
1737552028.941,-29.785,-34.180,-8.789,-712.891,0.000
1737552028.945,-15.625,-13.184,-11.230,670.410,0.000
1737552028.949,1.465,-5.859,-14.648,999.512,0.000
1737552028.952,-2.441,-7.812,-26.367,441.895,0.000
1737552028.956,-30.762,-4.883,-30.762,-911.621,0.000
1737552028.960,-46.875,-4.395,-34.180,-869.629,0.000
1737552028.964,-15.137,-16.602,-33.691,580.566,0.000
1737552028.968,-3.418,-24.414,-4.883,999.512,0.000
1737552028.972,-48.828,-15.625,3.906,675.293,0.000
1737552028.976,-37.109,-9.277,-5.859,-679.688,0.000
1737552028.980,4.883,-26.367,-13.184,-1000.000,0.000
1737552028.984,-13.672,-28.809,-11.230,-21.484,0.000
1737552028.988,-23.926,-0.488,-15.625,999.512,0.000
1737552028.992,-19.531,-9.277,-29.785,789.062,0.000
1737552028.995,-39.062,-28.320,-31.250,-688.965,0.000
1737552028.999,-36.133,-17.090,-20.020,-1000.000,0.000
1737552029.003,-6.836,-18.066,-22.949,117.188,0.000
1737552029.007,8.789,-22.949,-19.043,999.512,0.000
1737552029.011,8.789,-24.414,0.488,856.445,0.000
1737552029.015,-4.395,-34.668,-0.488,-526.855,0.000
1737552029.019,-21.484,-22.949,-24.414,-1000.000,0.000
1737552029.023,-6.348,-8.789,-21.484,-265.625,0.000
1737552029.027,-1.953,-6.836,-7.812,849.121,0.000
1737552029.031,3.906,-10.254,-18.555,999.512,0.000
1737552029.034,-5.859,-15.137,-20.020,-279.785,0.000
1737552029.038,-34.180,-14.648,-7.812,-1000.000,0.000
1737552029.042,-36.133,-17.090,-15.137,-258.301,0.000
1737552029.046,-55.176,-30.762,-15.625,860.840,0.000
1737552029.050,-72.754,-17.090,-16.113,999.512,0.000
1737552029.054,-18.066,0.977,-2.930,100.098,0.000
1737552029.058,-24.414,-15.625,3.906,-1000.000,0.000
1737552029.062,-45.410,-14.160,-12.695,-646.484,0.000
1737552029.066,-4.883,-19.043,-24.902,692.871,0.000
1737552029.070,3.906,-37.109,-14.160,999.512,0.000
1737552029.074,-32.227,-32.227,-22.949,146.973,0.000
1737552029.077,-47.852,-13.672,-30.762,-1000.000,0.000
1737552029.081,-29.297,-5.859,-14.648,-651.855,0.000
1737552029.085,1.465,-1.465,-21.484,686.035,0.000
1737552029.089,14.160,-1.465,-22.949,999.512,0.000
1737552029.093,0.488,-6.348,-15.625,487.305,0.000
1737552029.097,-28.809,-14.160,-27.832,-899.414,0.000
1737552029.101,-25.391,-18.555,-17.090,-743.652,0.000
1737552029.105,-31.250,-34.180,-18.066,703.613,0.000
1737552029.109,-17.090,-48.340,-23.926,999.512,0.000
1737552029.113,-12.695,-42.969,-15.137,418.945,0.000
1737552029.117,-75.195,-51.270,-15.137,-887.207,0.000
1737552029.120,-80.078,-38.574,-12.695,-963.379,0.000
1737552029.124,-42.480,-16.602,-15.625,363.770,0.000
1737552029.128,-18.066,-6.348,-21.484,999.512,0.000
1737552029.132,0.488,-13.672,-16.113,789.551,0.000
1737552029.136,-24.414,-32.715,-1.953,-632.324,0.000
1737552029.140,-51.758,-22.461,-13.672,-1000.000,0.000
1737552029.144,-41.016,-11.230,-39.062,226.074,0.000
1737552029.148,-23.438,-28.809,-18.555,999.512,0.000
1737552029.152,-15.137,-49.316,-2.930,858.887,0.000
1737552029.156,-31.738,-42.480,-13.672,-519.043,0.000
1737552029.159,-46.387,-33.691,-9.277,-1000.000,0.000
1737552029.163,-14.648,-22.461,5.371,-102.051,0.000
1737552029.167,-19.043,-20.020,-7.812,974.609,0.000
1737552029.171,-29.785,-11.719,-29.297,859.375,0.000
1737552029.175,-17.578,-15.625,-25.391,-602.539,0.000
1737552029.179,-17.090,-38.086,-13.672,-1000.000,0.000
1737552029.183,-7.812,-29.297,-16.113,-26.855,0.000
1737552029.187,2.441,-5.371,-24.902,998.535,0.000
1737552029.191,9.277,-13.672,-19.043,894.043,0.000
1737552029.195,3.906,-15.137,-5.859,-460.449,0.000
1737552029.199,-15.137,-9.766,4.883,-1000.000,0.000
1737552029.202,-33.691,-26.367,-2.441,-610.840,0.000
1737552029.206,-53.223,-34.668,-27.832,638.184,0.000
1737552029.210,-54.688,-31.738,-32.715,999.512,0.000
1737552029.214,-52.246,-24.902,-21.973,-192.383,0.000
1737552029.218,-50.781,-28.320,-30.273,-1000.000,0.000
1737552029.222,-14.160,-37.109,-34.180,-350.098,0.000
1737552029.226,20.508,-20.508,-30.273,850.098,0.000
1737552029.230,-4.395,-4.395,-23.438,999.512,0.000
1737552029.234,-20.508,-12.207,6.348,5.371,0.000
1737552029.238,-26.367,-26.367,2.441,-1000.000,0.000
1737552029.241,-28.809,-32.715,-8.301,-590.332,0.000
1737552029.245,-5.859,-15.625,-13.672,734.375,0.000
1737552029.249,-2.441,-0.977,-30.762,999.512,0.000
1737552029.253,-12.207,-14.648,-25.391,60.059,0.000
1737552029.257,1.465,-32.227,-11.719,-973.633,0.000
1737552029.261,50.293,-34.668,-25.391,-1000.000,0.000
1737552029.265,49.805,-34.180,-34.180,-468.750,0.000
1737552029.269,1.465,-9.277,-2.930,779.297,0.000
1737552029.273,-5.859,3.418,7.812,604.492,0.000
1737552029.277,-22.949,-3.418,-6.348,-843.262,0.000
1737552029.281,-51.758,-16.113,-8.789,-1000.000,0.000
1737552029.284,-36.133,-21.484,-12.207,-42.480,0.000
1737552029.288,6.836,-6.348,-23.926,999.512,0.000
1737552029.292,5.859,-31.738,-34.180,612.793,0.000
1737552029.296,-15.625,-35.156,-36.621,-791.504,0.000
1737552029.300,-46.875,-19.043,-24.414,-1000.000,0.000
1737552029.304,-66.406,-27.344,-6.348,-162.109,0.000
1737552029.308,-38.086,-14.648,-2.441,931.152,0.000
1737552029.312,-12.207,2.441,-17.578,883.301,0.000
1737552029.316,-20.996,9.766,-13.672,-541.016,0.000
1737552029.320,-34.668,7.812,-16.113,-1000.000,0.000
1737552029.324,-34.180,-10.254,-20.508,-572.754,0.000
1737552029.327,-15.137,-28.809,-16.113,677.246,0.000
1737552029.331,3.418,-32.227,-26.367,999.512,0.000
1737552029.335,-22.949,-23.926,-25.391,-432.617,0.000
1737552029.339,-17.578,-20.020,-26.367,-1000.000,0.000
1737552029.343,-20.996,-19.531,-34.180,-522.949,0.000
1737552029.347,-40.527,-20.020,-19.043,784.180,0.000
1737552029.351,-26.367,-19.531,-14.648,944.336,0.000
1737552029.355,-21.973,-31.738,-16.113,-542.969,0.000
1737552029.359,-16.113,-28.320,-19.531,-1000.000,0.000
1737552029.363,-33.203,-20.508,-41.504,-813.965,0.000
1737552029.366,-12.695,-22.461,-37.598,319.336,0.000
1737552029.370,8.789,-18.555,-26.855,999.512,0.000
1737552029.374,-32.715,-34.668,-18.555,21.484,0.000
1737552029.378,-52.734,-28.809,-15.625,-1000.000,0.000
1737552029.382,-29.297,-2.930,-13.672,-507.324,0.000
1737552029.386,-34.180,-2.441,-11.719,801.758,0.000
1737552029.390,-37.598,-18.555,-13.184,999.512,0.000
1737552029.394,-39.062,-9.277,-14.648,-98.145,0.000
1737552029.398,-53.711,3.906,-13.184,-1000.000,0.000
1737552029.402,-56.641,0.977,-13.184,-729.004,0.000
1737552029.406,-61.523,-16.113,-20.996,556.152,0.000
1737552029.409,-55.176,-18.555,-17.090,999.512,0.000
1737552029.413,-72.266,-8.301,-9.766,296.875,0.000
1737552029.417,-100.586,-6.348,-11.719,-941.406,0.000
1737552029.421,-105.469,-11.719,-12.695,-938.965,0.000
1737552029.425,-118.652,-15.137,-16.113,236.328,0.000
1737552029.429,-119.629,-10.254,-6.836,999.512,0.000
1737552029.433,-101.074,-11.230,-30.273,539.062,0.000
1737552029.437,-148.438,-7.324,-52.246,-794.922,0.000
1737552029.441,-223.145,-10.742,-18.555,-1000.000,0.000
1737552029.445,-197.754,-2.930,6.836,-103.027,0.000
1737552029.449,-166.992,28.809,0.000,999.512,0.000
1737552029.452,-204.102,33.691,-8.301,676.758,0.000
1737552029.456,-215.332,32.715,-9.766,-727.051,0.000
1737552029.460,-201.660,35.156,-7.324,-1000.000,0.000
1737552029.464,-246.094,23.926,-3.418,-490.234,0.000
1737552029.468,-270.996,20.508,-21.484,799.805,0.000
1737552029.472,-240.234,26.367,-27.832,760.254,0.000
1737552029.476,-251.953,30.762,-20.508,-752.930,0.000
1737552029.480,-256.836,14.648,-12.695,-1000.000,0.000
1737552029.484,-229.004,-11.719,-9.766,-840.332,0.000
1737552029.488,-198.730,10.742,-15.137,-3.418,0.000
1737552029.491,-186.523,37.598,-10.254,812.988,0.000
1737552029.495,-182.617,12.207,-8.301,-411.621,0.000
1737552029.499,-145.508,0.488,-23.926,-1000.000,0.000
1737552029.503,-110.840,0.977,-23.926,-455.078,0.000
1737552029.507,-92.773,-14.648,-10.742,803.711,0.000
1737552029.511,-67.383,-21.973,-27.832,974.609,0.000
1737552029.515,-74.219,-23.926,-39.062,-495.605,0.000
1737552029.519,-44.922,-25.879,-35.645,-1000.000,0.000
1737552029.523,4.395,-44.434,-25.879,-228.027,0.000
1737552029.527,20.996,-41.992,-16.602,899.902,0.000
1737552029.531,34.668,-23.438,-23.438,967.773,0.000
1737552029.534,32.227,-29.297,-23.438,-352.539,0.000
1737552029.538,30.762,-32.227,-38.086,-1000.000,0.000
1737552029.542,39.551,-27.832,-37.598,-661.621,0.000
1737552029.546,52.246,-18.555,-19.043,622.070,0.000
1737552029.550,61.523,-23.438,-25.391,999.512,0.000
1737552029.554,30.762,-47.363,-42.480,4.395,0.000
1737552029.558,12.695,-38.086,-42.480,-1000.000,0.000
1737552029.562,34.180,-19.531,-27.832,-520.996,0.000
1737552029.566,68.359,-30.762,-17.090,753.906,0.000
1737552029.570,83.008,-44.434,-17.090,999.512,0.000
1737552029.573,69.824,-28.320,-37.109,264.648,0.000
1737552029.577,64.453,-10.254,-41.016,-924.805,0.000
1737552029.581,64.941,-10.254,-30.762,-993.652,0.000
1737552029.585,62.988,-23.438,-23.438,-51.270,0.000
1737552029.589,67.383,-33.203,-22.461,997.070,0.000
1737552029.593,78.125,-30.273,-20.020,416.504,0.000
1737552029.597,74.707,-29.785,-25.391,-874.023,0.000
1737552029.601,83.496,-35.156,-37.109,-1000.000,0.000
1737552029.605,111.328,-33.691,-28.320,-411.133,0.000
1737552029.609,97.656,-13.184,-12.695,863.281,0.000
1737552029.613,53.223,-14.648,-15.625,641.113,0.000
1737552029.616,37.598,-26.855,-29.785,-884.277,0.000
1737552029.620,44.922,-20.996,-35.645,-963.379,0.000
1737552029.624,62.988,-13.672,-41.992,427.734,0.000
1737552029.628,57.129,-20.020,-31.250,999.512,0.000
1737552029.632,24.414,-24.902,-11.230,677.734,0.000
1737552029.636,11.230,-18.555,-15.137,-709.961,0.000
1737552029.640,30.762,-20.996,-27.344,-1000.000,0.000
1737552029.644,43.457,-30.273,-26.855,190.430,0.000
1737552029.648,43.457,-24.414,-28.809,999.512,0.000
1737552029.652,34.668,-21.973,-21.484,971.680,0.000
1737552029.656,18.555,-14.648,-16.602,-154.297,0.000
1737552029.659,13.672,-12.695,-19.043,-1000.000,0.000
1737552029.663,35.156,-13.184,-26.367,-20.508,0.000
1737552029.667,59.570,-22.949,-29.297,999.512,0.000
1737552029.671,31.738,-17.578,-19.043,956.543,0.000
1737552029.675,17.578,-5.859,-20.020,-278.320,0.000
1737552029.679,30.273,-33.691,-24.902,-1000.000,0.000
1737552029.683,37.598,-41.504,-25.879,-111.328,0.000
1737552029.687,36.621,-12.695,-35.156,898.926,0.000
1737552029.691,12.695,-5.859,-41.504,999.512,0.000
1737552029.695,12.695,-10.742,-21.484,314.453,0.000
1737552029.698,28.320,-11.719,-4.883,-955.078,0.000
1737552029.702,40.527,-18.066,-7.324,-333.496,0.000
1737552029.706,21.973,-6.836,-20.020,886.719,0.000
1737552029.710,34.180,-2.930,-15.625,999.512,0.000
1737552029.714,40.527,-15.625,-21.973,142.090,0.000
1737552029.718,8.301,-20.508,-41.992,-959.473,0.000
1737552029.722,-2.930,-28.320,-41.992,-1000.000,0.000
1737552029.726,-8.789,-26.855,-32.715,-211.914,0.000
1737552029.730,-3.906,-13.184,-11.230,946.289,0.000
1737552029.734,0.488,-15.137,-13.184,652.832,0.000
1737552029.738,6.348,-26.855,-15.625,-844.727,0.000
1737552029.741,6.836,-23.926,-13.672,-952.148,0.000
1737552029.745,-11.719,-8.789,-21.484,443.359,0.000
1737552029.749,0.000,-6.836,-18.555,999.512,0.000
1737552029.753,-1.465,-14.160,-19.043,477.051,0.000
1737552029.757,-17.578,-20.020,-29.297,-896.973,0.000
1737552029.761,-0.977,-9.766,-22.461,-839.844,0.000
1737552029.765,10.254,-10.254,-22.949,601.074,0.000
1737552029.769,1.465,-33.691,-28.320,999.512,0.000
1737552029.773,-12.207,-30.273,-25.391,804.688,0.000
1737552029.777,-36.621,-25.391,-18.555,-672.363,0.000
1737552029.781,-22.949,-27.832,-21.484,-899.414,0.000
1737552029.784,12.207,-10.254,-39.062,641.602,0.000
1737552029.788,16.602,0.000,-35.156,999.512,0.000
1737552029.792,36.621,0.000,-15.625,868.164,0.000
1737552029.796,17.578,-25.391,-17.090,-539.551,0.000
1737552029.800,-21.484,-25.879,-23.926,-1000.000,0.000
1737552029.804,-20.508,-5.859,-20.508,428.223,0.000
1737552029.808,-11.230,-23.926,-27.832,999.512,0.000
1737552029.812,16.602,-35.645,-35.156,827.148,0.000
1737552029.816,36.621,-25.879,-27.832,-474.121,0.000
1737552029.820,5.371,-20.508,-18.555,-1000.000,0.000
1737552029.823,-32.227,-24.414,-21.973,-323.730,0.000
1737552029.827,-18.555,-20.020,-35.156,834.473,0.000
1737552029.831,-23.926,-15.625,-44.922,999.512,0.000
1737552029.835,-38.086,-16.602,-37.109,-152.832,0.000
1737552029.839,-31.250,-10.254,-3.906,-1000.000,0.000
1737552029.843,1.465,-8.789,4.883,-219.238,0.000
1737552029.847,19.531,-14.160,-4.883,855.957,0.000
1737552029.851,-8.789,-14.648,-5.371,999.512,0.000
1737552029.855,-15.137,-16.602,-8.301,329.102,0.000
1737552029.859,-8.301,-27.344,-11.230,-963.379,0.000
1737552029.863,-20.508,-37.598,-33.203,-703.125,0.000
1737552029.866,-26.367,-19.531,-38.574,674.316,0.000
1737552029.870,-20.020,-5.371,-20.996,999.512,0.000
1737552029.874,-30.762,-8.301,-22.949,324.707,0.000
1737552029.878,-51.758,-12.207,-19.043,-947.754,0.000
1737552029.882,-43.945,-20.996,-12.207,-767.090,0.000
1737552029.886,-12.207,-18.066,-4.395,630.859,0.000
1737552029.890,-15.137,-14.648,0.000,999.512,0.000
1737552029.894,-25.391,-13.184,-11.230,410.645,0.000
1737552029.898,-41.504,-20.508,-18.555,-858.398,0.000
1737552029.902,-13.184,-28.320,-21.484,-1000.000,0.000
1737552029.906,63.965,-29.297,-15.137,166.504,0.000
1737552029.909,68.359,-30.762,-22.461,999.512,0.000
1737552029.913,-2.441,-26.855,-31.738,584.961,0.000
1737552029.917,-53.223,-15.137,-35.156,-827.637,0.000
1737552029.921,-74.219,-3.418,-27.344,-960.449,0.000
1737552029.925,-52.734,-10.742,-12.207,431.641,0.000
1737552029.929,-19.531,-22.949,-8.301,999.512,0.000
1737552029.933,-12.207,-33.691,-8.789,658.691,0.000
1737552029.937,-20.508,-28.809,-34.668,-663.086,0.000
1737552029.941,-24.414,-16.113,-27.344,-1000.000,0.000
1737552029.945,-20.996,-17.578,-4.395,-404.785,0.000
1737552029.948,-24.414,-16.113,-8.789,863.770,0.000
1737552029.952,-20.996,-15.625,-27.344,882.324,0.000
1737552029.956,-20.020,-20.996,-18.555,-693.359,0.000
1737552029.960,-8.301,-41.016,-13.672,-1000.000,0.000
1737552029.964,-4.883,-36.133,-20.996,292.969,0.000
1737552029.968,-8.301,-13.672,-8.301,999.512,0.000
1737552029.972,-12.207,-6.836,-9.766,872.559,0.000
1737552029.976,-44.922,-20.020,-24.902,-453.125,0.000
1737552029.980,-17.578,-22.949,-30.273,-1000.000,0.000
1737552029.984,33.203,-8.301,-24.902,-131.836,0.000
1737552029.988,40.039,-15.137,-33.203,894.531,0.000
1737552029.991,-5.859,-25.391,-40.527,999.512,0.000
1737552029.995,-51.758,-22.949,-18.066,-47.363,0.000
1737552029.999,-57.617,-25.879,1.465,-1000.000,0.000
1737552030.003,-40.527,-31.738,-1.465,-462.402,0.000
1737552030.007,-21.973,-21.484,-13.672,765.137,0.000
1737552030.011,-41.992,-4.883,-26.367,999.512,0.000
1737552030.015,-73.242,-14.160,-25.391,233.887,0.000
1737552030.019,-60.059,-28.809,-18.066,-978.027,0.000
1737552030.023,-13.672,-19.531,-20.508,-443.848,0.000
1737552030.027,-7.324,-26.367,-26.367,866.699,0.000
1737552030.030,-0.488,-43.457,-35.156,999.512,0.000
1737552030.034,-24.414,-39.062,-20.996,-270.020,0.000
1737552030.038,-42.969,-24.414,5.859,-1000.000,0.000
1737552030.042,-20.996,-17.090,-2.441,-912.598,0.000
1737552030.046,-1.953,-5.859,-30.273,-10.254,0.000
1737552030.050,6.836,3.906,-27.344,999.512,0.000
1737552030.054,-25.879,-13.672,-2.441,412.598,0.000
1737552030.058,-45.410,-38.086,-4.883,-878.906,0.000
1737552030.062,-2.441,-34.180,-18.555,-1000.000,0.000
1737552030.066,18.066,-14.160,-24.902,-921.387,0.000
1737552030.070,16.602,8.301,-17.578,-16.113,0.000
1737552030.073,6.836,4.395,-6.836,404.297,0.000
1737552030.077,-5.859,-8.301,-13.672,-766.113,0.000
1737552030.081,-25.391,-20.020,-27.344,-1000.000,0.000
1737552030.085,-15.137,-30.762,-26.855,-338.867,0.000
1737552030.089,-3.906,-14.160,-7.324,910.645,0.000
1737552030.093,-38.086,0.000,-9.766,622.559,0.000
1737552030.097,-60.547,-10.742,-24.414,-833.984,0.000
1737552030.101,-51.270,-22.949,-22.461,-1000.000,0.000
1737552030.105,-49.805,-38.086,-28.809,-946.289,0.000
1737552030.109,-28.320,-30.273,-28.320,-1000.000,0.000
1737552030.113,21.973,-15.137,-21.973,-932.129,0.000
1737552030.116,17.090,-19.043,-28.320,-1000.000,0.000
1737552030.120,-10.254,-20.508,-20.996,-898.926,0.000
1737552030.124,-22.461,-16.602,-17.578,456.543,0.000
1737552030.128,-25.391,5.859,-18.066,999.512,0.000
1737552030.132,-21.484,10.742,-6.836,898.438,0.000
1737552030.136,-22.461,-17.090,-12.207,-275.391,0.000
1737552030.140,-25.879,-34.180,-17.578,-1000.000,0.000
1737552030.144,-32.715,-39.551,-14.160,-979.980,0.000
1737552030.148,-5.859,-29.785,-9.766,-203.125,0.000
1737552030.152,16.113,-4.395,-19.531,897.461,0.000
1737552030.155,26.855,7.324,-29.785,-89.844,0.000
1737552030.159,18.555,-12.207,-25.391,-1000.000,0.000
1737552030.163,-8.789,-27.344,-8.301,-780.762,0.000
1737552030.167,-38.086,-8.301,-4.395,509.277,0.000
1737552030.171,-50.781,-0.977,-7.324,999.512,0.000
1737552030.175,-40.039,-14.160,-20.508,-344.238,0.000
1737552030.179,-36.133,-22.461,-33.691,-1000.000,0.000
1737552030.183,-21.484,-25.391,-23.438,-875.977,0.000
1737552030.187,-11.719,-28.809,-3.906,67.871,0.000
1737552030.191,-34.180,-17.578,-4.883,999.512,0.000
1737552030.195,-16.113,-16.113,-12.695,436.035,0.000
1737552030.198,-17.578,-38.574,-29.297,-916.016,0.000
1737552030.202,-58.594,-24.414,-36.133,-931.641,0.000
1737552030.206,-30.273,-2.930,-23.438,423.828,0.000
1737552030.210,3.906,-12.695,-32.715,999.512,0.000
1737552030.214,-43.945,-20.508,-38.574,460.938,0.000
1737552030.218,-40.527,-17.578,-14.160,-910.645,0.000
1737552030.222,-18.066,-7.324,-8.301,-655.273,0.000
1737552030.226,-19.043,8.301,-19.531,746.094,0.000
1737552030.230,2.441,-5.371,-18.555,999.512,0.000
1737552030.234,15.137,-20.996,-17.090,482.422,0.000
1737552030.238,1.953,-15.137,-23.438,-850.586,0.000
1737552030.241,-28.320,-26.855,-18.066,-957.031,0.000
1737552030.245,-48.340,-33.691,-6.836,415.039,0.000
1737552030.249,-15.137,-13.672,-19.043,999.512,0.000
1737552030.253,2.930,-2.930,-24.902,710.449,0.000
1737552030.257,-30.273,-7.812,-28.320,-638.184,0.000
1737552030.261,-50.293,-19.043,-24.902,-1000.000,0.000
1737552030.265,-72.754,-21.973,-2.930,-354.004,0.000
1737552030.269,-62.988,-18.555,-10.742,794.434,0.000
1737552030.273,-25.879,-30.273,-27.832,989.258,0.000
1737552030.277,-18.066,-29.785,-8.789,-331.543,0.000
1737552030.280,-35.645,-25.879,-5.371,-1000.000,0.000
1737552030.284,-45.898,-16.602,-18.066,-552.734,0.000
1737552030.288,-34.180,-16.602,-14.648,741.699,0.000
1737552030.292,-29.297,-16.113,-7.324,999.512,0.000
1737552030.296,-11.230,-10.254,-27.344,-200.684,0.000
1737552030.300,-32.715,-11.719,-42.969,-1000.000,0.000
1737552030.304,-45.898,-4.883,-20.508,-960.938,0.000
1737552030.308,-36.133,-11.719,-7.812,-760.742,0.000
1737552030.312,-12.695,-16.602,-12.695,-755.371,0.000
1737552030.316,-10.254,-13.184,-20.996,-1000.000,0.000
1737552030.320,7.812,-12.207,-31.250,-1000.000,0.000
1737552030.323,46.387,-8.789,-15.137,105.469,0.000
1737552030.327,47.363,-24.414,-5.371,999.512,0.000
1737552030.331,42.480,-14.648,-0.977,975.586,0.000
1737552030.335,-0.977,18.066,6.836,-125.977,0.000
1737552030.339,-24.414,-1.465,-4.395,-1000.000,0.000
1737552030.343,-5.859,-16.113,-24.902,-956.055,0.000
1737552030.347,-29.785,-9.766,-19.043,-928.223,0.000
1737552030.351,-3.418,-7.324,-12.207,129.395,0.000
1737552030.355,21.973,-8.301,-13.672,665.039,0.000
1737552030.359,-11.230,-33.203,-8.301,-749.023,0.000
1737552030.362,1.465,-28.320,-7.812,-287.109,0.000
1737552030.366,46.387,-6.836,-3.418,957.031,0.000
1737552030.370,77.148,-5.371,-7.324,999.512,0.000
1737552030.374,37.598,-6.836,-9.766,744.629,0.000
1737552030.378,-13.672,-7.324,-8.301,-695.801,0.000
1737552030.382,-11.230,-24.902,-20.508,-1000.000,0.000
1737552030.386,64.453,-29.785,-25.879,268.066,0.000
1737552030.390,79.590,-3.906,-13.184,999.512,0.000
1737552030.394,18.066,13.184,-6.348,789.062,0.000
1737552030.398,-22.949,-6.348,-15.137,-588.867,0.000
1737552030.402,-65.430,-17.090,-25.391,-1000.000,0.000
1737552030.405,-52.734,0.977,-34.180,-99.609,0.000
1737552030.409,-16.602,-5.859,-16.602,924.316,0.000
1737552030.413,-14.648,-14.160,-3.418,974.121,0.000
1737552030.417,-23.926,-14.648,-10.742,907.715,0.000
1737552030.421,-37.598,-24.902,-17.578,966.797,0.000
1737552030.425,-28.320,-28.320,-24.902,970.215,0.000
1737552030.429,-21.484,-34.180,-43.457,961.914,0.000
1737552030.433,-46.875,-37.598,-44.922,999.512,0.000
1737552030.437,-100.586,-22.949,-20.020,655.762,0.000
1737552030.441,-91.797,-7.324,-11.230,624.023,0.000
1737552030.445,-60.059,2.441,-19.531,933.594,0.000
1737552030.448,-67.383,-5.371,-19.043,999.512,0.000
1737552030.452,-55.176,-17.578,-20.020,930.664,0.000
1737552030.456,-85.449,-34.180,-41.992,-515.625,0.000
1737552030.460,-82.520,-35.645,-37.109,-1000.000,0.000
1737552030.464,-23.438,-26.367,-17.090,333.984,0.000
1737552030.468,-30.273,-27.832,-9.766,999.512,0.000
1737552030.472,-72.266,-24.902,-4.395,895.996,0.000
1737552030.476,-98.633,-26.855,-22.461,-332.031,0.000
1737552030.480,-70.801,-20.996,-34.180,-1000.000,0.000
1737552030.484,-41.016,-25.879,-33.203,-930.176,0.000
1737552030.487,-29.785,-41.016,-26.855,-123.535,0.000
1737552030.491,-4.395,-23.926,-12.207,972.656,0.000
1737552030.495,-11.230,-0.488,-8.789,77.148,0.000
1737552030.499,-35.645,0.000,-10.254,-1000.000,0.000
1737552030.503,-47.363,-18.555,-10.254,-980.957,0.000
1737552030.507,8.301,-24.902,-19.531,-977.051,0.000
1737552030.511,-34.180,-19.043,-20.996,-1000.000,0.000
1737552030.515,-119.629,-33.203,-18.555,-1000.000,0.000
1737552030.519,-76.660,-18.066,-23.438,-1000.000,0.000
1737552030.523,-48.340,-12.207,-41.992,-1000.000,0.000
1737552030.527,-64.453,-24.902,-35.645,-1000.000,0.000
1737552030.530,-79.590,-17.090,-15.137,-1000.000,0.000
1737552030.534,-46.875,-13.184,1.465,-1000.000,0.000
1737552030.538,-42.969,-11.230,1.953,-1000.000,0.000
1737552030.542,0.977,-7.324,-20.508,-1000.000,0.000
1737552030.546,3.906,-15.137,-37.109,-1000.000,0.000
1737552030.550,-17.578,-28.809,-43.457,-1000.000,0.000
1737552030.554,-23.926,-22.461,-29.785,-1000.000,0.000
1737552030.558,-20.996,-16.113,-24.414,-1000.000,0.000
1737552030.562,-82.031,-22.949,-28.320,-1000.000,0.000
1737552030.566,-36.621,-8.301,-18.066,-1000.000,0.000
1737552030.570,32.227,-11.719,-20.020,-1000.000,0.000
1737552030.573,29.297,-29.297,-17.578,-1000.000,0.000
1737552030.577,45.898,-4.883,-11.230,-956.543,0.000
1737552030.581,50.781,1.465,-15.625,-1000.000,0.000
1737552030.585,44.434,-8.789,-14.648,-838.867,0.000
1737552030.589,30.762,0.000,-13.672,528.809,0.000
1737552030.593,20.020,-5.371,-16.113,999.512,0.000
1737552030.597,-3.906,-15.137,-18.555,-451.172,0.000
1737552030.601,-3.418,-9.766,-25.391,-1000.000,0.000
1737552030.605,30.273,-20.020,-35.156,63.477,0.000
1737552030.609,37.109,-34.180,-17.090,985.352,0.000
1737552030.612,44.922,-16.113,-4.883,983.398,0.000
1737552030.616,35.645,-5.859,-20.020,-135.742,0.000
1737552030.620,-3.418,-22.949,-32.227,-1000.000,0.000
1737552030.624,-0.977,-21.484,-39.551,-90.820,0.000
1737552030.628,35.645,-0.488,-18.555,952.637,0.000
1737552030.632,25.391,-11.719,-12.207,999.023,0.000
1737552030.636,-5.371,-23.438,-14.160,-38.086,0.000
1737552030.640,6.348,-9.766,-13.672,-1000.000,0.000
1737552030.644,15.625,-16.602,-24.902,-927.246,0.000
1737552030.648,29.297,-11.719,-26.367,320.801,0.000
1737552030.652,43.945,-0.488,-2.441,999.512,0.000
1737552030.655,8.789,-13.672,14.648,82.031,0.000
1737552030.659,-54.688,-9.766,7.812,-1000.000,0.000
1737552030.663,-48.340,-14.160,-7.812,-689.453,0.000
1737552030.667,-3.906,-15.137,-19.043,709.473,0.000
1737552030.671,-20.020,2.930,-22.461,999.512,0.000
1737552030.675,-43.945,-2.441,-32.227,865.723,0.000
1737552030.679,-34.668,-21.484,-31.738,850.586,0.000
1737552030.683,-44.434,-18.555,-13.672,957.520,0.000
1737552030.687,-47.852,-23.926,-6.348,980.957,0.000
1737552030.691,-44.922,-26.367,-25.879,963.379,0.000
1737552030.694,-55.664,-20.020,-29.297,971.680,0.000
1737552030.698,-70.801,-22.461,-13.672,970.703,0.000
1737552030.702,-94.727,-22.949,-7.812,980.469,0.000
1737552030.706,-90.820,-24.414,-5.371,937.988,0.000
1737552030.710,-63.965,-21.973,-16.113,962.402,0.000
1737552030.714,-63.965,-13.184,-27.344,999.512,0.000
1737552030.718,-100.586,-23.926,-22.461,-284.180,0.000
1737552030.722,-77.637,-44.434,-20.508,-893.066,0.000
1737552030.726,-5.371,-31.738,-21.973,625.000,0.000
1737552030.730,-25.391,-9.766,-21.973,999.512,0.000
1737552030.734,-49.805,-19.043,-28.320,984.863,0.000
1737552030.737,-37.598,-31.250,-40.527,90.820,0.000
1737552030.741,-61.523,-31.738,-52.734,-730.957,0.000
1737552030.745,-54.199,-11.230,-36.133,533.203,0.000
1737552030.749,-24.414,-6.348,-5.859,999.512,0.000
1737552030.753,-35.645,-21.484,-7.812,744.141,0.000
1737552030.757,-44.922,-23.926,-18.066,-605.469,0.000
1737552030.761,-56.641,-23.438,-9.766,-1000.000,0.000
1737552030.765,-81.055,-20.020,-8.789,-983.887,0.000
1737552030.769,-51.758,-16.602,-15.625,-455.566,0.000
1737552030.773,-38.086,-15.137,-12.695,149.414,0.000
1737552030.777,-44.922,-12.207,-23.926,-731.934,0.000
1737552030.780,0.488,-4.395,-29.297,-1000.000,0.000
1737552030.784,5.371,-8.301,-21.973,-250.977,0.000
1737552030.788,16.602,-5.371,-28.320,849.121,0.000
1737552030.792,54.688,-4.395,-34.180,999.512,0.000
1737552030.796,31.250,-28.320,-33.691,-122.070,0.000
1737552030.800,1.953,-35.156,-19.043,-1000.000,0.000
1737552030.804,-49.316,-14.160,-8.301,-999.023,0.000
1737552030.808,-70.312,-21.973,-6.348,-735.352,0.000
1737552030.812,-48.340,-28.320,-7.812,564.453,0.000
1737552030.816,-30.762,-13.184,-18.066,377.930,0.000
1737552030.819,-63.965,-15.625,-16.113,-1000.000,0.000
1737552030.823,-44.922,-22.461,-17.090,-751.953,0.000
1737552030.827,0.000,-28.809,-37.598,584.473,0.000
1737552030.831,-4.883,-29.785,-22.461,999.512,0.000
1737552030.835,-5.859,-13.184,-3.418,115.723,0.000
1737552030.839,-18.555,-14.160,1.953,-971.680,0.000
1737552030.843,-36.621,-23.438,1.465,-1000.000,0.000
1737552030.847,-33.203,-10.254,-5.371,-972.168,0.000
1737552030.851,-27.344,-10.254,-0.977,-1000.000,0.000
1737552030.855,-9.766,-26.855,-4.883,-945.801,0.000
1737552030.859,1.465,-22.461,-17.090,-1000.000,0.000
1737552030.862,-6.348,-14.160,-20.508,-515.137,0.000
1737552030.866,-1.465,-17.090,-16.113,748.047,0.000
1737552030.870,12.695,-28.320,-17.090,999.512,0.000
1737552030.874,11.719,-28.809,-34.180,608.398,0.000
1737552030.878,-10.254,-23.926,-29.785,-803.711,0.000
1737552030.882,-9.766,-13.672,-21.973,-973.145,0.000
1737552030.886,-2.441,-14.160,-15.137,436.523,0.000
1737552030.890,20.508,-20.996,-21.973,999.512,0.000
1737552030.894,13.672,-18.555,-41.016,650.879,0.000
1737552030.898,-25.879,-16.113,-20.020,-691.895,0.000
1737552030.902,-34.180,-16.602,-19.043,-1000.000,0.000
1737552030.905,-42.969,-10.742,-26.367,-151.855,0.000
1737552030.909,-44.434,-11.230,-11.719,969.238,0.000
1737552030.913,-29.297,-33.203,-11.230,797.363,0.000
1737552030.917,-30.762,-38.086,-21.973,-629.883,0.000
1737552030.921,-45.410,-23.926,-19.043,-1000.000,0.000
1737552030.925,-21.484,-8.789,-17.090,-598.145,0.000
1737552030.929,0.000,-0.977,-22.461,671.875,0.000
1737552030.933,-19.043,-4.883,-24.902,999.512,0.000
1737552030.937,-22.461,-30.273,-28.809,-291.016,0.000
1737552030.941,-32.715,-28.809,-26.855,-1000.000,0.000
1737552030.944,-49.316,-6.836,-17.090,-931.641,0.000
1737552030.948,-26.855,-19.043,-3.418,77.637,0.000
1737552030.952,-0.977,-34.668,-3.906,984.863,0.000
1737552030.956,-9.277,-32.227,-22.949,-176.758,0.000
1737552030.960,3.906,-42.480,-37.598,-1000.000,0.000
1737552030.964,16.602,-25.879,-27.344,-535.156,0.000
1737552030.968,3.418,15.625,-20.996,722.168,0.000
1737552030.972,-11.719,12.695,-16.602,999.512,0.000
1737552030.976,-33.691,-16.113,-8.789,188.965,0.000
1737552030.980,-37.598,-26.855,-17.578,-998.047,0.000
1737552030.984,-32.715,-15.625,-25.879,-736.816,0.000
1737552030.987,-21.973,-17.090,-24.414,608.887,0.000
1737552030.991,13.672,-29.785,-29.785,999.512,0.000
1737552030.995,3.906,-32.227,-30.762,583.984,0.000
1737552030.999,-20.996,-29.785,-28.320,-828.125,0.000
1737552031.003,-48.828,-22.949,-18.555,-675.781,0.000
1737552031.007,-43.457,-21.973,-5.859,752.441,0.000
1737552031.011,-23.438,-23.926,-7.324,999.512,0.000
1737552031.015,-30.273,-22.949,-19.043,329.102,0.000
1737552031.019,-26.855,-22.461,-43.457,-967.285,0.000
1737552031.023,-35.645,-21.973,-39.551,-830.566,0.000
1737552031.026,-28.809,-24.414,-9.277,548.340,0.000
1737552031.030,-14.160,-20.508,-3.906,999.512,0.000
1737552031.034,-24.902,-14.648,-12.695,564.941,0.000
1737552031.038,-41.992,-22.949,-17.578,-741.211,0.000
1737552031.042,-48.340,-41.016,-22.461,-1000.000,0.000
1737552031.046,-36.133,-32.227,-22.461,-29.785,0.000
1737552031.050,5.859,-12.695,-29.785,999.512,0.000
1737552031.054,28.809,-8.301,-29.297,883.789,0.000
1737552031.058,13.672,-17.578,-21.484,-525.391,0.000
1737552031.062,-19.043,-14.160,-20.996,-1000.000,0.000
1737552031.066,-30.273,-11.719,-13.184,-165.039,0.000
1737552031.069,1.953,-22.949,-13.184,949.219,0.000
1737552031.073,-1.465,-21.484,-23.438,885.742,0.000
1737552031.077,-36.133,-11.230,-22.461,-528.320,0.000
1737552031.081,-36.133,-7.812,-19.043,-1000.000,0.000
1737552031.085,-30.762,-5.859,-23.438,-442.871,0.000
1737552031.089,-6.348,-4.883,-34.668,798.828,0.000
1737552031.093,6.348,-2.930,-32.715,989.258,0.000
1737552031.097,-13.184,-13.184,-13.184,-436.523,0.000
1737552031.101,-21.484,-17.090,-6.836,-1000.000,0.000
1737552031.105,-38.574,-15.137,-11.230,-318.359,0.000
1737552031.109,-37.109,-15.625,-15.137,872.559,0.000
1737552031.112,-1.953,-11.719,-9.277,943.359,0.000
1737552031.116,-27.344,-14.648,-7.812,-459.473,0.000
1737552031.120,-64.941,-12.695,-15.137,-1000.000,0.000
1737552031.124,-53.711,-22.949,-17.090,-721.191,0.000
1737552031.128,-6.836,-31.250,-12.695,530.762,0.000
1737552031.132,29.785,-7.812,-33.691,999.512,0.000
1737552031.136,-0.488,-2.930,-46.387,-130.859,0.000
1737552031.140,-24.414,-23.438,-19.531,-1000.000,0.000
1737552031.144,-34.180,-28.320,-12.207,-1000.000,0.000
1737552031.148,-38.574,-17.090,-13.672,-493.652,0.000
1737552031.151,-13.184,-12.207,-10.254,803.223,0.000
1737552031.155,-9.277,-37.109,-25.391,252.441,0.000
1737552031.159,-15.137,-43.457,-35.156,-1000.000,0.000
1737552031.163,-14.648,-18.555,-41.992,-943.359,0.000
1737552031.167,18.066,-23.438,-21.973,282.715,0.000
1737552031.171,12.695,-14.648,-6.836,999.512,0.000
1737552031.175,-49.316,-2.930,-10.742,103.516,0.000
1737552031.179,-66.406,-5.371,-12.695,-979.492,0.000
1737552031.183,-58.105,-1.465,-18.555,-982.422,0.000
1737552031.187,-26.855,-12.695,-27.832,-933.105,0.000
1737552031.191,4.395,-23.438,-28.809,103.027,0.000
1737552031.194,11.230,-20.996,-15.625,745.605,0.000
1737552031.198,0.488,-31.250,-16.602,-652.344,0.000
1737552031.202,-32.715,-30.762,-22.949,-1000.000,0.000
1737552031.206,-37.109,-13.184,-29.785,-41.992,0.000
1737552031.210,-23.438,6.836,-26.367,979.004,0.000
1737552031.214,-4.883,11.230,-9.277,916.992,0.000
1737552031.218,-12.207,-3.906,-10.254,-650.879,0.000
1737552031.222,-45.898,-10.742,-10.254,-887.207,0.000
1737552031.226,-26.367,-4.883,-7.324,656.250,0.000
1737552031.230,-10.742,-11.230,-12.207,999.512,0.000
1737552031.234,-20.020,-27.344,-20.020,850.098,0.000
1737552031.237,-31.250,-24.902,-20.508,-481.934,0.000
1737552031.241,-34.668,-22.949,-23.438,-1000.000,0.000
1737552031.245,1.465,-33.203,-22.461,95.215,0.000
1737552031.249,13.672,-39.062,-18.066,975.586,0.000
1737552031.253,-18.555,-17.578,-25.879,993.164,0.000
1737552031.257,-19.531,-1.465,-17.090,74.707,0.000
1737552031.261,-34.180,-8.301,-3.906,-1000.000,0.000
1737552031.265,-40.039,-21.484,-15.625,-315.430,0.000
1737552031.269,-28.320,-20.996,-25.391,892.578,0.000
1737552031.273,-12.207,-19.531,-23.438,999.512,0.000
1737552031.276,-18.555,-25.391,-26.367,-165.039,0.000
1737552031.280,-41.992,-22.949,-34.668,-1000.000,0.000
1737552031.284,-42.480,-15.137,-29.785,-977.539,0.000
1737552031.288,-41.992,-24.902,-13.672,-284.668,0.000
1737552031.292,-26.855,-42.480,-15.137,858.398,0.000
1737552031.296,-52.246,-33.691,-14.648,53.223,0.000
1737552031.300,-61.523,-14.648,-11.230,-1000.000,0.000
1737552031.304,-26.367,-5.859,-20.020,-628.418,0.000
1737552031.308,-8.789,-7.812,-21.484,684.082,0.000
1737552031.312,-3.418,-14.648,-15.625,999.512,0.000
1737552031.316,-4.883,-18.555,-12.695,55.176,0.000
1737552031.319,-15.137,-17.090,-16.602,-967.285,0.000
1737552031.323,-27.344,-3.418,-10.254,-1000.000,0.000
1737552031.327,-17.578,-14.648,-10.742,-376.465,0.000
1737552031.331,12.695,-22.949,-20.508,877.441,0.000
1737552031.335,28.320,-9.277,-23.926,473.633,0.000
1737552031.339,-0.977,-7.812,-19.531,-894.531,0.000
1737552031.343,-38.574,-14.160,-16.602,-1000.000,0.000
1737552031.347,-30.762,-21.973,-27.344,-1000.000,0.000
1737552031.351,12.695,-16.602,-19.043,15.137,0.000
1737552031.355,9.766,-18.066,-11.230,758.301,0.000
1737552031.359,-43.945,-19.531,-20.996,-644.531,0.000
1737552031.362,-62.012,-11.719,-18.555,-1000.000,0.000
1737552031.366,-63.965,-13.672,-25.391,-410.156,0.000
1737552031.370,-49.316,-9.277,-12.207,827.637,0.000
1737552031.374,-27.832,-7.324,-6.348,679.199,0.000
1737552031.378,-23.438,-27.832,-25.391,-776.367,0.000
1737552031.382,-25.879,-20.508,-26.367,-1000.000,0.000
1737552031.386,-50.293,8.789,-16.602,-851.562,0.000
1737552031.390,-51.758,-1.953,-13.184,303.223,0.000
1737552031.394,-17.090,-27.344,-27.344,973.145,0.000
1737552031.398,1.465,-20.020,-36.621,-452.637,0.000
1737552031.401,-15.137,-15.625,-24.902,-1000.000,0.000
1737552031.405,-0.488,-6.836,-4.883,-351.074,0.000
1737552031.409,-8.301,-3.418,0.000,889.648,0.000
1737552031.413,-33.691,-6.836,-24.902,848.145,0.000
1737552031.417,-47.852,-17.578,-30.762,-621.582,0.000
1737552031.421,-65.918,-33.691,-23.926,-1000.000,0.000
1737552031.425,-21.484,-17.090,-26.367,-648.438,0.000
1737552031.429,41.992,2.930,-29.785,675.781,0.000
1737552031.433,72.266,1.465,-29.785,960.938,0.000
1737552031.437,56.641,-16.113,-20.996,-542.480,0.000
1737552031.441,36.133,-11.230,-30.762,-1000.000,0.000
1737552031.444,-32.715,-15.137,-29.785,-757.324,0.000
1737552031.448,-39.062,-18.555,-0.488,451.660,0.000
1737552031.452,4.883,2.441,3.418,999.512,0.000
1737552031.456,-4.395,-0.488,-17.578,244.141,0.000
1737552031.460,8.301,-13.672,-19.043,-980.957,0.000
1737552031.464,37.109,-11.719,-7.812,-628.906,0.000
1737552031.468,32.715,2.930,-7.324,751.953,0.000
1737552031.472,-4.395,-11.719,-12.207,999.512,0.000
1737552031.476,-40.039,-21.973,-19.043,-239.258,0.000
1737552031.480,-27.832,-4.883,-33.203,-1000.000,0.000
1737552031.483,-15.137,-6.836,-26.855,-954.590,0.000
1737552031.487,-26.367,-19.531,-4.395,-994.629,0.000
1737552031.491,-20.996,-11.719,-5.859,-1000.000,0.000
1737552031.495,-23.438,-2.441,-8.301,-1000.000,0.000
1737552031.499,-21.484,-12.207,-15.137,-1000.000,0.000
1737552031.503,-34.668,-24.902,-29.297,-1000.000,0.000
1737552031.507,20.020,-12.207,-40.039,-1000.000,0.000
1737552031.511,-22.461,-14.160,-34.668,-1000.000,0.000
1737552031.515,-121.582,-19.043,-7.324,-988.770,0.000
1737552031.519,-49.316,-12.207,-2.930,-976.074,0.000
1737552031.523,-24.414,-13.184,-16.602,-1000.000,0.000
1737552031.526,-30.762,-4.883,-20.020,-299.316,0.000
1737552031.530,5.371,1.953,-15.137,952.148,0.000
1737552031.534,32.715,0.000,-14.160,671.875,0.000
1737552031.538,51.270,0.977,-14.648,-793.945,0.000
1737552031.542,60.059,-3.906,-17.090,-1000.000,0.000
1737552031.546,16.602,-18.066,-16.113,-938.477,0.000
1737552031.550,21.484,-23.438,-20.020,-1000.000,0.000
1737552031.554,17.578,-31.250,-37.598,-1000.000,0.000
1737552031.558,-27.344,-38.574,-39.062,-950.195,0.000
1737552031.562,17.090,-18.066,-15.137,-1000.000,0.000
1737552031.566,22.461,-1.465,-4.883,-679.199,0.000
1737552031.569,9.766,-20.020,-8.789,639.648,0.000
1737552031.573,23.926,-8.789,-12.695,999.512,0.000
1737552031.577,10.254,9.766,-26.367,70.801,0.000
1737552031.581,4.395,-2.930,-10.254,-735.840,0.000
1737552031.585,25.391,-12.207,-1.465,568.359,0.000
1737552031.589,56.152,-14.648,-12.695,999.512,0.000
1737552031.593,37.598,-7.812,-17.578,914.551,0.000
1737552031.597,4.883,-9.277,-22.461,933.594,0.000
1737552031.601,-31.250,-15.137,-6.836,861.816,0.000
1737552031.605,-47.852,-13.184,-8.789,940.430,0.000
1737552031.608,-23.926,-11.230,-26.855,963.867,0.000
1737552031.612,-25.879,-10.742,-22.461,993.164,0.000
1737552031.616,-27.344,-17.578,-15.625,-78.613,0.000
1737552031.620,-42.480,-27.832,-23.438,-1000.000,0.000
1737552031.624,-17.090,-11.230,-34.180,-422.363,0.000
1737552031.628,-51.758,-20.508,-27.344,820.801,0.000
1737552031.632,-80.078,-15.625,-20.508,999.512,0.000
1737552031.636,-106.934,-7.812,-8.789,900.391,0.000
1737552031.640,-79.590,-7.324,-22.461,914.062,0.000
1737552031.644,-56.641,-4.395,-37.598,979.004,0.000
1737552031.648,-71.777,-8.789,-13.672,921.875,0.000
1737552031.651,-25.879,-15.625,-4.883,999.512,0.000
1737552031.655,-13.184,-12.695,-11.719,863.281,0.000
1737552031.659,-17.090,-10.254,-28.809,-661.621,0.000
1737552031.663,-38.574,-21.973,-34.668,-766.602,0.000
1737552031.667,-47.363,-20.508,-3.418,786.133,0.000
1737552031.671,-14.160,-19.531,1.465,999.512,0.000
1737552031.675,-8.789,-5.859,-12.695,896.484,0.000
1737552031.679,-15.137,3.906,-16.113,950.195,0.000
1737552031.683,-26.367,1.465,-24.414,970.703,0.000
1737552031.687,-18.555,-12.695,-29.785,969.727,0.000
1737552031.691,-25.391,-25.879,-31.250,971.680,0.000
1737552031.694,-14.648,-29.785,-27.344,972.168,0.000
1737552031.698,5.859,-29.297,-21.973,902.344,0.000
1737552031.702,-8.301,-13.184,-12.695,943.848,0.000
1737552031.706,8.301,-0.488,-17.578,962.402,0.000
1737552031.710,-12.695,-12.695,-22.461,937.012,0.000
1737552031.714,-27.344,-18.066,-12.695,999.512,0.000
1737552031.718,13.184,-16.113,-17.578,-34.668,0.000
1737552031.722,24.414,-14.648,-18.555,-957.520,0.000
1737552031.726,9.277,-5.371,-10.742,433.594,0.000
1737552031.730,-33.203,-4.883,-7.812,999.512,0.000
1737552031.733,-26.367,-8.789,-17.090,923.340,0.000
1737552031.737,19.043,-9.766,-17.090,612.305,0.000
1737552031.741,16.113,0.000,-17.090,626.953,0.000
1737552031.745,-16.113,-12.695,-32.715,999.512,0.000
1737552031.749,-5.859,-35.645,-38.086,916.016,0.000
1737552031.753,14.160,-21.973,-17.090,999.512,0.000
1737552031.757,-1.465,2.930,-7.812,362.305,0.000
1737552031.761,-19.531,7.812,-35.156,-830.078,0.000
1737552031.765,-14.160,1.953,-32.715,279.785,0.000
1737552031.769,4.883,-3.906,-9.277,999.512,0.000
1737552031.773,-26.367,-12.207,-10.254,899.414,0.000
1737552031.776,-29.297,-24.902,-19.043,975.098,0.000
1737552031.780,-11.230,-31.250,-21.484,972.168,0.000
1737552031.784,-21.973,-31.738,-22.461,970.703,0.000
1737552031.788,-57.617,-26.855,-19.043,970.703,0.000
1737552031.792,-44.922,-21.973,-29.297,970.703,0.000
1737552031.796,-30.762,-26.855,-42.480,970.703,0.000
1737552031.800,-29.297,-22.949,-36.621,970.703,0.000
1737552031.804,-30.273,-16.113,-30.762,970.703,0.000
1737552031.808,-61.035,-7.812,-31.738,970.703,0.000
1737552031.812,-38.574,0.000,-26.367,970.703,0.000
1737552031.815,-16.602,-8.789,-22.461,970.703,0.000
1737552031.819,-6.836,-15.137,-26.367,970.703,0.000
1737552031.823,-7.324,-19.531,-14.160,970.703,0.000
1737552031.827,-30.273,-12.695,-17.578,970.703,0.000
1737552031.831,-19.531,-12.695,-28.320,970.703,0.000
1737552031.835,-9.766,-20.996,-20.996,970.703,0.000
1737552031.839,-4.883,-16.113,-16.113,970.703,0.000
1737552031.843,3.418,-17.090,-19.531,970.703,0.000
1737552031.847,5.859,-21.973,-23.926,970.703,0.000
1737552031.851,14.648,-19.531,-23.926,970.703,0.000
1737552031.855,12.207,-31.738,-35.156,970.703,0.000
1737552031.858,8.789,-33.203,-41.016,970.703,0.000
1737552031.862,0.977,-10.254,-24.902,970.703,0.000
1737552031.866,-24.414,-7.324,-11.719,970.703,0.000
1737552031.870,-44.922,-9.277,-14.160,970.703,0.000
1737552031.874,7.324,-6.836,-21.973,970.703,0.000
1737552031.878,41.504,-15.137,-14.160,970.703,0.000
1737552031.882,-15.137,-16.113,-18.066,972.656,0.000
1737552031.886,-29.297,-5.371,-24.414,973.145,0.000
1737552031.890,1.953,-4.883,-22.461,924.316,0.000
1737552031.894,9.277,-16.602,-11.719,999.512,0.000
1737552031.898,9.277,-22.461,-0.977,570.312,0.000
1737552031.901,-7.812,-14.160,-5.859,-818.848,0.000
