timestamps,TP9,AF7,AF8,TP10,Right AUX
1737558122.524,-39.551,-4.395,-18.066,-572.266,0.000
1737558122.528,112.793,-31.738,-30.762,563.477,0.000
1737558122.532,47.852,0.000,-26.367,999.512,0.000
1737558122.536,-42.969,-7.812,9.766,756.348,0.000
1737558122.540,-156.738,-55.176,3.906,-306.152,0.000
1737558122.544,-62.988,-17.090,6.348,-537.598,0.000
1737558122.548,95.215,17.578,10.254,487.305,0.000
1737558122.552,61.523,8.789,-6.836,999.512,0.000
1737558122.555,-40.527,2.441,-20.996,765.625,0.000
1737558122.559,-155.273,-15.625,-51.758,-233.887,0.000
1737558122.563,-89.355,-35.156,-49.805,-635.254,0.000
1737558122.567,57.129,-5.371,-27.344,251.465,0.000
1737558122.571,49.316,20.508,0.000,972.656,0.000
1737558122.575,-55.664,9.277,8.301,817.383,0.000
1737558122.579,-169.922,-18.066,-9.766,-228.027,0.000
1737558122.583,-115.234,-57.129,-16.113,-782.227,0.000
1737558122.587,40.039,-36.133,-13.672,105.469,0.000
1737558122.591,53.223,-4.883,1.953,926.270,0.000
1737558122.595,-19.531,12.207,-11.230,978.027,0.000
1737558122.598,-160.645,17.578,-16.602,130.371,0.000
1737558122.602,-174.316,13.184,-20.996,-696.289,0.000
1737558122.606,-1.465,-10.742,-12.207,-101.074,0.000
1737558122.610,55.176,-25.391,-3.418,783.691,0.000
1737558122.614,-28.809,-15.137,-31.250,829.102,0.000
1737558122.618,-163.086,-18.066,-17.090,0.000,0.000
1737558122.622,-186.035,-48.340,2.441,0.000,0.000
1737558122.626,-9.277,-46.875,5.371,0.000,0.000
1737558122.630,77.148,13.672,5.371,0.000,0.000
1737558122.634,-10.742,26.367,2.441,0.000,0.000
1737558122.637,-159.180,-4.395,-21.484,0.000,0.000
1737558122.641,-185.547,-25.879,-14.160,0.000,0.000
1737558122.645,-15.625,-28.809,-5.859,0.000,0.000
1737558122.649,95.703,-23.438,-27.832,0.000,0.000
1737558122.653,22.949,-13.184,-6.836,0.000,0.000
1737558122.657,-147.461,5.859,-5.859,0.000,0.000
1737558122.661,-191.895,10.254,0.000,0.000,0.000
1737558122.665,0.000,0.000,0.000,-854.492,0.000
1737558122.669,0.000,-24.414,0.000,67.871,0.000
1737558122.673,0.000,-28.809,0.000,611.816,0.000
1737558122.677,0.000,-29.785,0.000,29.785,0.000
1737558122.680,0.000,-33.203,0.000,-914.551,0.000
1737558122.684,0.000,-36.621,0.000,-872.070,0.000
1737558122.688,0.000,-28.320,0.000,128.906,0.000
1737558122.692,0.000,-3.418,0.000,708.008,0.000
1737558122.696,0.000,11.719,0.000,191.895,0.000
1737558122.700,0.000,15.137,0.000,-819.824,0.000
1737558122.704,0.000,-0.977,0.000,-948.242,0.000
1737558122.708,0.000,-32.227,0.000,46.875,0.000
1737558122.712,31.738,-32.715,-3.418,843.750,0.000
1737558122.716,-102.539,0.977,-4.883,470.703,0.000
1737558122.720,-250.000,4.883,-20.996,-688.965,0.000
1737558122.723,-159.180,-12.695,-23.438,-1000.000,0.000
1737558122.727,1.953,0.977,-4.883,-68.359,0.000
1737558122.731,7.812,7.324,-8.789,802.246,0.000
1737558122.735,-120.117,-49.805,-29.297,492.676,0.000
1737558122.739,-264.648,-48.828,-52.734,-622.070,0.000
1737558122.743,-192.871,-3.418,-71.777,-1000.000,0.000
1737558122.747,-13.672,-7.324,-10.254,-312.500,0.000
1737558122.751,21.973,-3.418,19.043,571.777,0.000
1737558122.755,-82.031,-0.977,-21.973,448.242,0.000
1737558122.759,-215.332,-19.531,-41.016,-561.035,0.000
1737558122.762,-169.434,-37.109,-49.805,-1000.000,0.000
1737558122.766,-21.973,-29.297,-50.293,-533.203,0.000
1737558122.770,31.250,5.859,-25.391,363.770,0.000
1737558122.774,-32.715,17.090,19.043,508.789,0.000
1737558122.778,-172.852,-1.465,16.602,-391.113,0.000
1737558122.782,-169.434,-6.348,-23.926,-1000.000,0.000
1737558122.786,-30.762,18.555,-30.273,-650.391,0.000
1737558122.790,36.133,6.348,-49.805,268.555,0.000
1737558122.794,-40.039,-23.926,-39.062,506.348,0.000
1737558122.798,-197.266,-37.598,5.371,-384.766,0.000
1737558122.802,-190.918,-25.879,-8.789,-1000.000,0.000
1737558122.805,0.000,-0.977,0.000,0.000,0.000
1737558122.809,0.000,-5.859,0.000,0.000,0.000
1737558122.813,0.000,-7.324,0.000,0.000,0.000
1737558122.817,0.000,-6.348,0.000,0.000,0.000
1737558122.821,0.000,-14.160,0.000,0.000,0.000
1737558122.825,0.000,-10.254,0.000,0.000,0.000
1737558122.829,0.000,-13.672,0.000,0.000,0.000
1737558122.833,0.000,2.930,0.000,0.000,0.000
1737558122.837,0.000,19.531,0.000,0.000,0.000
1737558122.841,0.000,-4.883,0.000,0.000,0.000
1737558122.845,0.000,-12.695,0.000,0.000,0.000
1737558122.848,0.000,-7.324,0.000,0.000,0.000
1737558122.852,10.742,-13.672,-30.273,836.426,0.000
1737558122.856,-124.512,-12.695,-53.223,193.848,0.000
1737558122.860,-215.820,-23.926,-38.574,-868.164,0.000
1737558122.864,-83.984,-18.066,-29.785,-842.773,0.000
1737558122.868,48.828,-5.371,-38.086,153.809,0.000
1737558122.872,26.855,-32.227,-26.855,794.922,0.000
1737558122.876,-92.285,-44.434,-15.625,402.832,0.000
1737558122.880,-229.980,-14.648,-33.203,-725.586,0.000
1737558122.884,-133.301,-4.883,-42.480,-1000.000,0.000
1737558122.887,44.434,16.113,-5.859,-7.812,0.000
1737558122.891,52.734,14.160,5.371,841.309,0.000
1737558122.895,-81.543,-24.414,-21.484,478.027,0.000
1737558122.899,0.000,-26.855,-12.695,0.000,0.000
1737558122.903,0.000,-3.418,4.883,0.000,0.000
1737558122.907,0.000,10.742,-9.766,0.000,0.000
1737558122.911,0.000,-0.977,-4.883,0.000,0.000
1737558122.915,0.000,-21.484,-12.695,0.000,0.000
1737558122.919,0.000,-26.367,-19.531,0.000,0.000
1737558122.923,0.000,-22.461,-10.742,0.000,0.000
1737558122.927,0.000,4.395,-30.273,0.000,0.000
1737558122.930,0.000,15.137,-31.738,0.000,0.000
1737558122.934,0.000,-28.320,-8.789,0.000,0.000
1737558122.938,0.000,-51.270,-9.277,0.000,0.000
1737558122.942,0.000,-56.152,-10.742,0.000,0.000
1737558122.946,-3.418,-39.551,-0.977,-151.855,0.000
1737558122.950,34.668,20.996,-6.348,746.582,0.000
1737558122.954,-95.215,20.996,-14.160,744.629,0.000
1737558122.958,-273.926,-6.348,9.766,-220.215,0.000
1737558122.962,-267.578,-12.207,24.902,-971.191,0.000
1737558122.966,-86.914,-19.043,5.859,-351.074,0.000
1737558122.970,-13.672,-15.137,-18.555,711.426,0.000
1737558122.973,-83.984,0.000,-16.602,926.270,0.000
1737558122.977,-251.465,-20.996,-9.766,-17.090,0.000
1737558122.981,-286.621,-29.785,-12.695,-971.680,0.000
1737558122.985,-96.191,-21.484,-3.906,-585.938,0.000
1737558122.989,-12.207,-23.438,-29.297,449.219,0.000
1737558122.993,-58.594,-24.414,-11.230,812.988,0.000
1737558122.997,-192.871,-52.246,16.113,104.004,0.000
1737558123.001,-279.297,-37.109,-23.438,-908.691,0.000
1737558123.005,-125.000,1.465,-20.996,-718.262,0.000
1737558123.009,-0.488,18.066,3.418,371.582,0.000
1737558123.012,-44.922,36.133,-26.855,942.383,0.000
1737558123.016,-196.777,1.953,-20.996,271.973,0.000
1737558123.020,-291.016,-24.902,8.301,-866.211,0.000
1737558123.024,-160.156,-8.301,3.906,-792.969,0.000
1737558123.028,-29.785,-26.855,-1.465,277.832,0.000
1737558123.032,-76.172,-42.480,7.324,814.941,0.000
1737558123.036,-205.078,-25.879,-5.371,255.859,0.000
1737558123.040,-300.293,-6.348,-4.883,-813.965,0.000
1737558123.044,-192.871,4.395,-7.812,-921.387,0.000
1737558123.048,-31.738,6.348,-21.484,110.840,0.000
1737558123.052,-42.480,8.789,-11.230,853.516,0.000
1737558123.055,-175.781,3.906,-15.625,461.426,0.000
1737558123.059,-279.785,-35.156,-9.766,-625.488,0.000
1737558123.063,-198.242,-52.734,12.695,-887.695,0.000
1737558123.067,-62.012,-33.203,0.488,4.395,0.000
1737558123.071,-41.504,-13.672,-19.043,759.766,0.000
1737558123.075,-135.254,12.695,-14.160,543.945,0.000
1737558123.079,-279.785,5.371,20.508,-529.785,0.000
1737558123.083,-208.984,0.000,20.996,-979.492,0.000
1737558123.087,-32.227,2.441,0.000,-95.703,0.000
1737558123.091,-17.090,-23.926,0.000,753.906,0.000
1737558123.095,-126.465,-45.410,0.000,553.711,0.000
1737558123.098,-265.625,-20.996,0.000,-493.164,0.000
1737558123.102,-208.008,-16.602,0.000,-1000.000,0.000
1737558123.106,-0.977,-41.016,0.000,-116.699,0.000
1737558123.110,26.855,10.254,0.000,898.438,0.000
1737558123.114,-124.023,25.391,0.000,617.188,0.000
1737558123.118,-265.625,-17.090,0.000,-488.281,0.000
1737558123.122,-220.215,-17.090,0.000,-1000.000,0.000
1737558123.126,-32.227,6.348,0.000,-372.070,0.000
1737558123.130,24.414,0.488,0.000,627.930,0.000
1737558123.134,-62.012,-34.668,-41.016,778.320,0.000
1737558123.137,-197.754,-33.203,-2.441,-102.539,0.000
1737558123.141,-221.680,-29.297,20.508,-948.242,0.000
1737558123.145,-67.871,-5.859,-15.625,-484.863,0.000
1737558123.149,-0.488,26.855,-13.184,554.199,0.000
1737558123.153,-49.316,23.926,3.906,830.566,0.000
1737558123.157,-196.289,18.555,-10.254,0.000,0.000
1737558123.161,-259.766,2.930,-34.668,-952.148,0.000
1737558123.165,-84.961,-14.160,-44.922,-641.602,0.000
1737558123.169,37.598,-2.441,-41.016,468.262,0.000
1737558123.173,-23.438,5.859,-51.758,870.117,0.000
1737558123.177,-171.875,22.949,-67.383,101.074,0.000
1737558123.180,-222.168,28.320,-38.574,-870.117,0.000
1737558123.184,-63.965,9.766,-41.016,-634.277,0.000
1737558123.188,85.449,36.133,-68.848,462.402,0.000
1737558123.192,56.641,64.453,-36.621,999.512,0.000
1737558123.196,-102.051,69.824,-24.414,422.852,0.000
1737558123.200,-193.848,37.598,-47.852,-681.641,0.000
1737558123.204,-55.664,6.348,-47.363,-620.117,0.000
1737558123.208,71.777,34.180,-35.156,390.137,0.000
1737558123.212,51.270,76.660,-47.363,975.586,0.000
1737558123.216,-71.289,73.730,-60.059,552.246,0.000
1737558123.220,-185.059,28.320,-64.453,-599.121,0.000
1737558123.223,-65.430,20.996,-80.078,-757.324,0.000
1737558123.227,0.000,39.062,-84.961,276.855,0.000
1737558123.231,0.000,34.668,-53.711,937.500,0.000
1737558123.235,0.000,29.785,-12.695,535.156,0.000
1737558123.239,0.000,40.527,-19.043,-620.605,0.000
1737558123.243,0.000,35.156,-33.203,-966.797,0.000
1737558123.247,0.000,21.973,-68.359,47.852,0.000
1737558123.251,0.000,11.230,-62.500,904.785,0.000
1737558123.255,0.000,11.719,-48.340,480.469,0.000
1737558123.259,0.000,17.090,-35.645,-689.453,0.000
1737558123.262,0.000,18.066,-41.992,-1000.000,0.000
1737558123.266,0.000,6.836,-32.227,-282.715,0.000
1737558123.270,0.000,7.324,-8.789,555.176,0.000
1737558123.274,-53.223,19.043,-38.086,318.359,0.000
1737558123.278,-179.688,5.371,-63.477,-679.199,0.000
1737558123.282,-104.980,-12.207,-34.668,-1000.000,0.000
1737558123.286,49.805,18.066,-1.465,-340.332,0.000
1737558123.290,75.195,50.781,-5.859,553.711,0.000
1737558123.294,-17.578,29.297,-14.648,619.629,0.000
1737558123.298,-171.875,-2.930,-24.414,-336.914,0.000
1737558123.302,-167.969,-8.789,-57.129,-1000.000,0.000
1737558123.305,15.625,-24.414,-48.828,-500.000,0.000
1737558123.309,77.637,-13.184,-13.184,475.098,0.000
1737558123.313,-20.020,3.418,-6.836,572.266,0.000
1737558123.317,-154.297,13.672,-17.578,-331.543,0.000
1737558123.321,-152.832,17.578,-13.672,-1000.000,0.000
1737558123.325,-2.930,3.418,2.930,-566.406,0.000
1737558123.329,72.754,-1.953,-6.348,441.895,0.000
1737558123.333,8.789,0.000,-44.434,737.793,0.000
1737558123.337,-160.645,-4.883,-36.133,-163.086,0.000
1737558123.341,-203.125,-24.414,-5.371,-987.793,0.000
1737558123.345,-45.898,-30.273,-8.789,-660.645,0.000
1737558123.348,23.926,-17.578,-1.953,207.031,0.000
1737558123.352,-29.297,20.996,7.812,541.016,0.000
1737558123.356,-150.391,27.344,-5.859,-74.219,0.000
1737558123.360,-207.520,8.789,-20.996,-946.289,0.000
1737558123.364,-61.035,-14.648,-26.367,-775.391,0.000
1737558123.368,34.668,-29.785,-21.973,212.891,0.000
1737558123.372,-3.418,-22.949,-1.465,694.336,0.000
1737558123.376,-127.441,-26.367,-13.184,93.750,0.000
1737558123.380,-226.074,-42.969,-61.035,-893.066,0.000
1737558123.384,-109.863,-31.250,-52.734,-827.148,0.000
1737558123.387,28.809,23.438,13.672,226.074,0.000
1737558123.391,-4.883,22.949,25.391,824.707,0.000
1737558123.395,-147.949,-2.930,17.578,248.535,0.000
1737558123.399,-249.023,-21.973,5.859,-832.031,0.000
1737558123.403,-134.277,-29.297,-23.438,-923.828,0.000
1737558123.407,8.789,-12.207,-22.949,88.867,0.000
1737558123.411,-18.555,-17.090,-30.762,762.695,0.000
1737558123.415,0.000,-23.438,0.000,0.000,0.000
1737558123.419,0.000,-29.785,0.000,0.000,0.000
1737558123.423,0.000,-14.160,0.000,0.000,0.000
1737558123.427,0.000,11.719,0.000,0.000,0.000
1737558123.430,0.000,6.836,0.000,0.000,0.000
1737558123.434,0.000,-26.367,0.000,0.000,0.000
1737558123.438,0.000,-40.527,0.000,0.000,0.000
1737558123.442,0.000,-30.762,0.000,0.000,0.000
1737558123.446,0.000,-21.484,0.000,0.000,0.000
1737558123.450,0.000,-0.977,0.000,0.000,0.000
1737558123.454,0.000,14.648,0.000,0.000,0.000
1737558123.458,0.000,9.277,0.000,0.000,0.000
1737558123.462,-158.691,-1.465,-2.930,-1000.000,0.000
1737558123.466,-278.809,-14.648,-19.531,-288.574,0.000
1737558123.469,-163.086,-30.762,-24.414,607.910,0.000
1737558123.473,-0.977,-21.484,-16.113,592.285,0.000
1737558123.477,-21.973,-22.949,-7.324,-356.934,0.000
1737558123.481,-124.023,-43.945,-16.113,-978.516,0.000
1737558123.485,-233.887,-29.785,-12.695,-372.070,0.000
1737558123.489,-185.059,3.906,15.137,510.742,0.000
1737558123.493,-22.949,0.488,-8.301,588.379,0.000
1737558123.497,5.859,-16.602,-27.832,-292.480,0.000
1737558123.501,-87.402,-21.973,-19.531,-998.047,0.000
1737558123.505,-230.957,-21.484,0.000,-479.004,0.000
1737558123.509,-191.406,-9.766,7.324,548.340,0.000
1737558123.512,-16.602,13.672,11.230,786.133,0.000
1737558123.516,19.531,-0.977,2.441,-68.359,0.000
1737558123.520,-84.473,-40.039,-5.859,-959.473,0.000
1737558123.524,-225.098,-27.832,0.000,-631.836,0.000
1737558123.528,-199.219,10.742,-11.230,449.707,0.000
1737558123.532,-41.992,-6.348,-42.969,787.109,0.000
1737558123.536,2.441,-6.348,-2.930,36.133,0.000
1737558123.540,-83.984,-1.953,4.395,-905.762,0.000
1737558123.544,-230.469,-29.785,-13.184,-710.938,0.000
1737558123.548,-219.238,-23.438,-11.719,314.941,0.000
1737558123.552,-41.992,-8.301,-31.738,674.805,0.000
1737558123.555,-201.172,-12.695,-14.648,29.297,0.000
1737558123.559,-261.719,-11.230,9.277,-876.953,0.000
1737558123.563,-136.719,-20.020,-20.508,-890.137,0.000
1737558123.567,-8.789,-26.367,-31.738,83.008,0.000
1737558123.571,-20.020,-14.160,0.000,763.184,0.000
1737558123.575,-137.207,-28.809,-4.395,343.262,0.000
1737558123.579,-273.926,-43.945,-45.898,-742.188,0.000
1737558123.583,-188.477,-23.926,-11.230,-970.703,0.000
1737558123.587,-16.602,-14.160,26.855,26.855,0.000
1737558123.591,-36.133,-9.766,23.926,698.242,0.000
1737558123.594,-140.625,9.277,-3.418,304.688,0.000
1737558123.598,-234.375,-11.230,-18.066,-700.684,0.000
1737558123.602,-153.809,-26.367,-19.531,-988.770,0.000
1737558123.606,0.000,-15.137,-12.695,-100.586,0.000
1737558123.610,-12.207,-19.531,-26.855,607.910,0.000
1737558123.614,-120.117,-28.809,-41.504,316.406,0.000
1737558123.618,-212.891,-12.695,-0.977,-623.535,0.000
1737558123.622,-146.484,4.883,-17.090,-989.258,0.000
1737558123.626,4.883,1.953,-19.531,-213.867,0.000
1737558123.630,24.414,-7.324,12.695,547.363,0.000
1737558123.634,-80.078,-24.902,-0.977,340.820,0.000
1737558123.637,-208.496,-37.598,-33.203,-614.746,0.000
1737558123.641,-171.387,-38.574,-22.461,-1000.000,0.000
1737558123.645,-17.090,-22.461,11.230,-378.418,0.000
1737558123.649,33.203,-22.949,17.090,586.426,0.000
1737558123.653,-90.332,-33.203,6.836,516.602,0.000
1737558123.657,-250.000,-27.344,-33.203,-533.203,0.000
1737558123.661,-204.590,-13.672,-51.758,-1000.000,0.000
1737558123.665,-28.320,-6.836,-25.391,-462.891,0.000
1737558123.669,30.762,-1.953,-17.578,442.871,0.000
1737558123.673,-60.547,-3.906,-34.668,517.090,0.000
1737558123.676,-211.914,-27.344,-11.719,-414.551,0.000
1737558123.680,-213.867,-38.574,10.742,-1000.000,0.000
1737558123.684,-40.039,-30.273,8.789,-626.465,0.000
1737558123.688,27.832,-18.555,-11.230,237.305,0.000
1737558123.692,-56.641,-17.578,-35.156,438.477,0.000
1737558123.696,0.000,-21.484,-53.711,-283.691,0.000
1737558123.700,0.000,-23.926,-61.523,-992.676,0.000
1737558123.704,0.000,-32.715,-8.301,-699.707,0.000
1737558123.708,0.000,-13.184,37.598,281.250,0.000
1737558123.712,0.000,-5.859,12.207,628.418,0.000
1737558123.716,0.000,-30.762,-35.645,-16.113,0.000
1737558123.719,0.000,-17.578,-28.320,-894.043,0.000
1737558123.723,0.000,8.789,-11.719,-725.586,0.000
1737558123.727,0.000,-1.465,-2.441,266.602,0.000
1737558123.731,0.000,-23.438,3.418,729.492,0.000
1737558123.735,0.000,-19.531,-24.414,239.746,0.000
1737558123.739,0.000,-34.668,-18.555,-750.000,0.000
1737558123.743,-103.027,-29.785,4.883,-668.457,0.000
1737558123.747,43.945,-0.977,-36.621,389.160,0.000
1737558123.751,12.207,0.488,-25.879,969.238,0.000
1737558123.755,-123.047,-4.395,-9.277,519.531,0.000
1737558123.759,-253.418,-25.391,-6.348,-595.703,0.000
1737558123.762,-138.184,-27.832,20.020,-673.340,0.000
1737558123.766,26.855,-12.695,0.977,407.227,0.000
1737558123.770,-33.203,4.883,-14.648,896.973,0.000
1737558123.774,-171.387,20.020,2.930,375.977,0.000
1737558123.778,-257.812,-5.371,-7.324,-628.418,0.000
1737558123.782,-155.273,-31.738,-24.902,-904.297,0.000
1737558123.786,18.066,-18.555,-11.230,25.879,0.000
1737558123.790,16.602,-16.113,-13.184,762.695,0.000
1737558123.794,-86.914,-38.574,-23.438,503.906,0.000
1737558123.798,-197.266,-48.828,-37.598,-497.070,0.000
1737558123.801,-120.117,-19.043,-12.695,-887.695,0.000
1737558123.805,29.297,3.906,28.809,-48.340,0.000
1737558123.809,35.645,5.859,15.137,725.586,0.000
1737558123.813,-42.969,1.953,-1.465,689.453,0.000
1737558123.817,-188.477,-34.180,-0.977,-292.480,0.000
1737558123.821,-190.430,-53.223,-8.789,-995.605,0.000
1737558123.825,-22.461,-25.391,-4.395,-321.289,0.000
1737558123.829,29.785,-8.301,-1.465,594.727,0.000
1737558123.833,-58.594,-28.320,-15.625,627.930,0.000
1737558123.837,-184.082,-48.828,-14.160,-228.027,0.000
1737558123.841,-189.453,-25.391,-6.348,-950.195,0.000
1737558123.844,-41.504,15.625,-19.043,-406.738,0.000
1737558123.848,21.484,15.625,-0.488,556.152,0.000
1737558123.852,-40.039,-13.672,8.301,762.695,0.000
1737558123.856,-184.570,-29.785,-6.836,-61.523,0.000
1737558123.860,-223.633,-31.250,-18.066,-951.660,0.000
1737558123.864,-56.152,-10.254,1.953,-561.523,0.000
1737558123.868,42.969,9.766,5.859,457.520,0.000
1737558123.872,0.000,-17.578,-40.039,806.641,0.000
1737558123.876,-141.113,-43.457,-24.902,84.961,0.000
1737558123.880,-219.727,-27.832,3.418,-910.156,0.000
1737558123.884,-78.613,4.395,0.000,-701.660,0.000
1737558123.887,32.227,9.277,0.000,307.617,0.000
1737558123.891,-20.508,0.000,0.000,756.836,0.000
1737558123.895,-134.277,8.301,0.000,229.980,0.000
1737558123.899,-203.125,-9.277,0.000,-697.754,0.000
1737558123.903,-90.332,-42.969,0.000,-621.094,0.000
1737558123.907,33.691,-26.855,0.000,305.664,0.000
1737558123.911,2.441,-26.367,0.000,766.113,0.000
1737558123.915,-87.402,-17.578,0.000,395.508,0.000
1737558123.919,-162.598,-0.977,0.000,-411.133,0.000
1737558123.923,-76.660,-6.348,0.000,-352.051,0.000
1737558123.926,32.715,3.906,0.000,512.695,0.000
1737558123.930,0.000,-1.465,2.441,0.000,0.000
1737558123.934,0.000,-7.324,1.465,0.000,0.000
1737558123.938,0.000,-8.789,-6.836,0.000,0.000
1737558123.942,0.000,-28.809,6.836,0.000,0.000
1737558123.946,0.000,-43.945,7.324,0.000,0.000
1737558123.950,0.000,-32.715,-18.066,0.000,0.000
1737558123.954,0.000,-38.086,-31.738,0.000,0.000
1737558123.958,0.000,-33.203,-10.254,0.000,0.000
1737558123.962,0.000,9.277,19.043,0.000,0.000
1737558123.966,0.000,29.785,10.742,0.000,0.000
1737558123.969,0.000,17.578,-13.672,0.000,0.000
1737558123.973,0.000,-7.324,-6.348,0.000,0.000
1737558123.977,-202.637,-21.973,24.414,-362.305,0.000
1737558123.981,-192.383,-23.926,18.066,-1000.000,0.000
1737558123.985,-10.254,-25.391,-3.418,-360.840,0.000
1737558123.989,43.457,-20.508,-56.152,535.645,0.000
1737558123.993,-24.902,-39.551,-41.504,587.891,0.000
1737558123.997,-158.691,-19.043,-5.859,-238.281,0.000
1737558124.001,-184.082,10.254,18.555,-968.262,0.000
1737558124.005,-25.879,17.578,14.160,-488.770,0.000
1737558124.008,59.082,22.949,11.719,457.031,0.000
1737558124.012,-7.812,19.531,0.977,625.488,0.000
1737558124.016,-152.832,-17.578,-11.719,-172.852,0.000
1737558124.020,-193.848,-52.246,-26.367,-964.355,0.000
1737558124.024,0.000,-30.273,-56.152,-520.020,0.000
1737558124.028,0.000,-28.809,-22.461,598.145,0.000
1737558124.032,0.000,-61.035,7.324,962.402,0.000
1737558124.036,0.000,-15.137,-15.625,111.816,0.000
1737558124.040,0.000,24.902,-5.371,-923.340,0.000
1737558124.044,0.000,16.602,3.906,-591.309,0.000
1737558124.048,0.000,20.996,-11.719,488.770,0.000
1737558124.051,0.000,-7.324,-16.113,804.199,0.000
1737558124.055,0.000,-37.598,-1.465,97.656,0.000
1737558124.059,0.000,-32.715,-15.137,-855.469,0.000
1737558124.063,0.000,-39.551,-51.758,-702.637,0.000
1737558124.067,0.000,-33.691,-26.367,276.855,0.000
1737558124.071,18.066,-17.578,0.977,775.391,0.000
1737558124.075,-111.328,-23.926,-2.930,262.207,0.000
1737558124.079,-206.055,-16.113,-25.391,-780.273,0.000
1737558124.083,-96.680,-16.602,-27.344,-806.641,0.000
1737558124.087,61.523,-20.508,-7.812,262.207,0.000
1737558124.091,43.945,-13.184,-11.719,952.148,0.000
1737558124.094,-94.238,-5.371,-10.742,514.160,0.000
1737558124.098,-217.285,-23.438,9.277,-641.602,0.000
1737558124.102,-123.047,-38.086,0.488,-827.637,0.000
1737558124.106,38.086,-13.184,-18.066,227.051,0.000
1737558124.110,41.504,4.395,-6.836,952.148,0.000
1737558124.114,-79.102,2.441,-5.859,593.750,0.000
1737558124.118,-225.586,-21.973,-40.527,-563.965,0.000
1737558124.122,-139.648,-55.664,-59.082,-919.922,0.000
1737558124.126,42.480,-49.316,-30.762,63.965,0.000
1737558124.130,55.176,-7.324,15.137,853.027,0.000
1737558124.133,-48.828,7.812,32.227,626.465,0.000
1737558124.137,-181.152,0.488,2.930,-343.750,0.000
1737558124.141,-155.762,-21.973,-35.156,-852.051,0.000
1737558124.145,6.836,-14.648,-37.598,-95.215,0.000
1737558124.149,58.105,-0.488,-16.602,770.508,0.000
1737558124.153,-34.668,-27.832,8.301,710.938,0.000
1737558124.157,-180.664,-28.809,10.742,-250.488,0.000
1737558124.161,-187.988,-21.484,8.789,-905.273,0.000
1737558124.165,-21.484,-12.695,-1.953,-205.078,0.000
1737558124.169,38.574,6.348,-41.504,717.285,0.000
1737558124.173,-58.594,-9.277,-18.066,727.051,0.000
1737558124.176,-192.871,-36.133,11.719,-167.969,0.000
1737558124.180,-195.801,-44.434,-15.137,-909.668,0.000
1737558124.184,-13.672,-13.672,-18.555,-301.270,0.000
1737558124.188,59.082,6.348,0.977,699.707,0.000
1737558124.192,-33.691,-13.672,-6.348,853.516,0.000
1737558124.196,-181.152,-13.672,-21.484,35.645,0.000
1737558124.200,-226.074,-5.859,-33.203,-891.602,0.000
1737558124.204,-53.223,-9.277,-42.969,-492.676,0.000
1737558124.208,48.340,-18.066,-5.859,463.379,0.000
1737558124.212,-16.602,-13.184,25.879,685.547,0.000
1737558124.216,-142.090,-14.648,21.484,23.438,0.000
1737558124.219,-194.336,-24.414,1.953,-879.883,0.000
1737558124.223,-37.109,-15.625,-22.949,-555.664,0.000
1737558124.227,72.754,-30.762,-5.371,470.215,0.000
1737558124.231,13.672,-20.020,-27.832,822.754,0.000
1737558124.235,-125.977,-3.906,-27.344,211.914,0.000
1737558124.239,-208.984,-18.555,3.906,-836.426,0.000
1737558124.243,-77.637,-24.414,-15.625,-754.395,0.000
1737558124.247,63.477,-25.879,-24.414,299.316,0.000
1737558124.251,49.805,-12.695,-16.602,843.750,0.000
1737558124.255,-90.820,-1.953,-28.809,328.125,0.000
1737558124.258,0.000,-37.598,-20.996,-704.590,0.000
1737558124.262,0.000,-48.828,-46.387,-750.977,0.000
1737558124.266,0.000,21.484,-20.508,320.801,0.000
1737558124.270,0.000,43.945,33.691,964.844,0.000
1737558124.274,0.000,21.484,-4.395,493.164,0.000
1737558124.278,0.000,-1.465,-20.508,-531.738,0.000
1737558124.282,0.000,-32.227,-18.555,-699.219,0.000
1737558124.286,0.000,-28.320,-21.484,189.453,0.000
1737558124.290,0.000,-25.879,-1.465,840.820,0.000
1737558124.294,0.000,-30.762,-15.625,645.508,0.000
1737558124.298,0.000,-9.277,-18.066,-356.445,0.000
1737558124.301,0.000,4.395,-5.859,-739.746,0.000
1737558124.305,18.555,-2.441,-20.996,120.117,0.000
1737558124.309,40.039,-5.859,-7.812,868.164,0.000
1737558124.313,-37.109,-31.250,-6.836,772.949,0.000
1737558124.317,-173.828,-56.641,-19.531,-208.984,0.000
1737558124.321,-169.922,-18.555,-45.898,-841.797,0.000
1737558124.325,16.602,21.973,-45.898,24.414,0.000
1737558124.329,53.223,-10.742,3.906,921.387,0.000
1737558124.333,-52.246,-20.508,11.719,774.902,0.000
1737558124.337,-189.453,-12.207,15.625,-215.332,0.000
1737558124.341,-199.707,-24.414,9.277,-934.082,0.000
1737558124.344,-27.344,-23.926,9.277,-295.410,0.000
1737558124.348,44.434,-31.738,-8.301,600.098,0.000
1737558124.352,0.000,0.977,-51.758,714.355,0.000
1737558124.356,0.000,13.184,-35.645,-43.945,0.000
1737558124.360,0.000,-20.020,-3.418,-864.258,0.000
1737558124.364,0.000,-14.160,9.766,-378.906,0.000
1737558124.368,0.000,13.672,9.766,581.543,0.000
1737558124.372,0.000,21.484,10.742,786.133,0.000
1737558124.376,0.000,-16.602,8.789,-3.418,0.000
1737558124.380,0.000,-50.781,-21.484,-951.660,0.000
1737558124.383,0.000,-37.598,-40.527,-633.301,0.000
1737558124.387,0.000,-11.230,-16.113,392.578,0.000
1737558124.391,0.000,0.488,-16.113,724.121,0.000
1737558124.395,0.000,-14.648,-21.484,77.148,0.000
1737558124.399,-203.125,-14.648,-7.324,-876.465,0.000
1737558124.403,-66.895,-3.906,2.930,-692.383,0.000
1737558124.407,72.266,-20.508,-11.719,408.203,0.000
1737558124.411,21.484,-19.043,-14.648,826.172,0.000
1737558124.415,-114.746,2.930,-3.906,184.570,0.000
1737558124.419,-189.453,0.000,-17.578,-743.652,0.000
1737558124.423,-69.336,-28.809,2.441,-655.762,0.000
1737558124.426,44.922,-25.391,-0.488,255.859,0.000
1737558124.430,9.766,-18.555,-18.066,687.988,0.000
1737558124.434,-83.496,-31.738,-0.977,276.855,0.000
1737558124.438,-186.035,-30.762,-1.465,-685.547,0.000
1737558124.442,-98.633,-13.184,-7.812,-758.789,0.000
1737558124.446,0.000,7.324,0.000,0.000,0.000
1737558124.450,0.000,18.066,0.000,0.000,0.000
1737558124.454,0.000,5.859,0.000,0.000,0.000
1737558124.458,0.000,-28.320,0.000,0.000,0.000
1737558124.462,0.000,-39.551,0.000,0.000,0.000
1737558124.466,0.000,-10.742,0.000,0.000,0.000
1737558124.469,0.000,-10.254,0.000,0.000,0.000
1737558124.473,0.000,-24.902,0.000,0.000,0.000
1737558124.477,0.000,-12.695,0.000,0.000,0.000
1737558124.481,0.000,-21.973,0.000,0.000,0.000
1737558124.485,0.000,-23.926,0.000,0.000,0.000
1737558124.489,0.000,-22.949,0.000,0.000,0.000
1737558124.493,-38.086,-20.508,-19.531,644.531,0.000
1737558124.497,-188.965,-5.371,-15.137,-382.812,0.000
1737558124.501,-174.316,-8.789,-22.949,-1000.000,0.000
1737558124.505,19.043,-18.066,-37.598,-240.723,0.000
1737558124.508,92.285,-21.484,-40.039,754.395,0.000
1737558124.512,5.859,-30.273,-35.645,842.285,0.000
1737558124.516,-168.457,-43.457,-10.742,-134.766,0.000
1737558124.520,-181.641,-42.969,14.648,-944.824,0.000
1737558124.524,0.488,-5.859,8.789,-300.781,0.000
1737558124.528,79.102,25.879,-36.621,655.273,0.000
1737558124.532,15.625,2.930,-33.691,755.859,0.000
1737558124.536,-136.230,-11.719,-12.207,-92.285,0.000
1737558124.540,-175.293,-4.883,-21.484,-931.641,0.000
1737558124.544,-17.578,-12.207,-13.184,-454.102,0.000
1737558124.548,92.285,-32.715,-10.742,606.934,0.000
1737558124.551,55.664,-27.344,-22.461,958.496,0.000
1737558124.555,-110.840,-19.043,-17.578,166.992,0.000
1737558124.559,-187.012,-19.531,-1.465,-773.438,0.000
1737558124.563,-47.363,17.578,-18.066,-445.312,0.000
1737558124.567,54.199,40.527,-54.688,455.566,0.000
1737558124.571,8.789,21.973,-58.594,720.215,0.000
1737558124.575,-136.719,-4.883,2.930,47.852,0.000
1737558124.579,-242.676,-15.137,-5.859,-922.852,0.000
1737558124.583,-97.168,-13.672,-26.855,-753.418,0.000
1737558124.587,66.406,-24.414,-30.273,346.191,0.000
1737558124.591,36.133,-37.109,-35.645,853.027,0.000
1737558124.594,-103.027,-9.277,-39.551,291.992,0.000
1737558124.598,-215.820,10.254,-41.016,-765.625,0.000
1737558124.602,-106.934,-7.812,-23.926,-839.844,0.000
1737558124.606,53.711,14.648,-9.277,204.590,0.000
1737558124.610,55.176,15.137,-2.930,857.910,0.000
1737558124.614,-79.102,-14.648,0.977,368.164,0.000
1737558124.618,-204.102,-4.395,-5.371,-716.797,0.000
1737558124.622,-112.793,26.855,-10.254,-855.957,0.000
1737558124.626,40.527,24.414,-22.949,155.762,0.000
1737558124.630,24.902,-8.301,-16.602,729.004,0.000
1737558124.633,0.000,-13.184,-9.766,337.402,0.000
1737558124.637,0.000,-17.578,-14.160,-611.816,0.000
1737558124.641,0.000,-29.785,-28.809,-902.832,0.000
1737558124.645,0.000,-30.762,-55.176,-24.902,0.000
1737558124.649,0.000,4.395,-9.277,725.098,0.000
1737558124.653,0.000,33.691,21.484,561.035,0.000
1737558124.657,0.000,15.625,-4.395,-414.062,0.000
1737558124.661,0.000,2.441,-11.719,-948.242,0.000
1737558124.665,0.000,4.883,-7.812,-184.082,0.000
1737558124.669,0.000,-19.531,-17.090,718.262,0.000
1737558124.673,0.000,-35.156,-13.672,775.879,0.000
1737558124.676,0.000,-33.203,-24.414,-202.148,0.000
1737558124.680,-84.961,-28.809,0.000,0.000,0.000
1737558124.684,-186.523,7.812,0.000,0.000,0.000
1737558124.688,-104.980,18.555,0.000,0.000,0.000
1737558124.692,50.293,-12.695,0.000,0.000,0.000
1737558124.696,52.246,-11.230,0.000,0.000,0.000
1737558124.700,-58.594,7.324,0.000,0.000,0.000
1737558124.704,-206.543,5.859,0.000,0.000,0.000
1737558124.708,-180.176,1.953,0.000,0.000,0.000
1737558124.712,-7.812,-5.371,0.000,0.000,0.000
1737558124.716,38.574,-19.043,0.000,0.000,0.000
1737558124.719,-38.574,-13.672,0.000,0.000,0.000
1737558124.723,-183.594,-6.348,0.000,0.000,0.000
1737558124.727,74.707,-38.574,-29.297,506.348,0.000
1737558124.731,35.156,-33.203,-24.902,815.430,0.000
1737558124.735,-115.234,22.949,-30.762,140.137,0.000
1737558124.739,-192.871,32.227,-18.066,-800.293,0.000
1737558124.743,-66.895,7.324,-6.836,-584.961,0.000
1737558124.747,54.688,-5.371,-3.906,436.523,0.000
1737558124.751,17.578,-9.766,3.418,931.641,0.000
1737558124.755,-149.902,-2.441,-14.160,241.211,0.000
1737558124.758,-240.234,-9.766,-30.762,-858.887,0.000
1737558124.762,-102.051,-31.250,-35.645,-805.664,0.000
1737558124.766,35.156,-26.367,-24.414,172.363,0.000
1737558124.770,31.250,-25.879,6.836,774.902,0.000
1737558124.774,-92.773,-30.273,0.000,316.895,0.000
1737558124.778,-207.520,-14.160,0.000,-743.164,0.000
1737558124.782,-113.770,2.441,0.000,-838.379,0.000
1737558124.786,30.273,2.441,0.000,117.676,0.000
1737558124.790,32.227,-15.625,0.000,746.094,0.000
1737558124.794,-72.754,-5.371,0.000,436.523,0.000
1737558124.798,-197.266,-4.883,0.000,-582.031,0.000
1737558124.801,-126.953,-49.805,0.000,-897.949,0.000
1737558124.805,30.762,-54.688,0.000,-45.898,0.000
1737558124.809,45.410,6.348,0.000,663.086,0.000
1737558124.813,-73.730,27.832,0.000,398.438,0.000
1737558124.817,-202.637,-3.906,0.000,-603.027,0.000
1737558124.821,-133.301,-20.020,36.133,-948.730,0.000
1737558124.825,18.555,-4.883,1.465,-108.398,0.000
1737558124.829,45.898,8.789,-14.648,691.406,0.000
1737558124.833,-59.570,-17.090,-2.930,537.598,0.000
1737558124.837,-212.402,-39.551,-6.836,-506.836,0.000
1737558124.841,-149.414,-27.344,-35.156,-953.613,0.000
1737558124.844,30.273,-23.438,-37.598,-161.621,0.000
1737558124.848,38.574,-3.906,2.441,595.703,0.000
1737558124.852,-53.223,20.508,10.742,617.676,0.000
1737558124.856,-188.477,5.859,-2.441,-221.680,0.000
1737558124.860,-205.566,-16.113,-5.859,-927.734,0.000
1737558124.864,-25.391,-26.367,5.859,-244.629,0.000
1737558124.868,66.406,-24.414,21.484,772.461,0.000
1737558124.872,-13.184,-21.484,10.254,915.039,0.000
1737558124.876,-156.738,-44.922,-10.254,60.547,0.000
1737558124.880,-168.457,-88.379,-44.922,-722.168,0.000
1737558124.883,-15.137,-43.945,-41.504,-218.262,0.000
1737558124.887,78.613,13.184,-5.859,769.531,0.000
1737558124.891,32.715,11.719,-2.441,999.512,0.000
1737558124.895,-115.723,2.930,11.230,256.348,0.000
1737558124.899,-195.312,-6.836,7.324,-714.355,0.000
1737558124.903,-53.711,-24.902,0.977,-368.652,0.000
1737558124.907,61.035,-21.484,5.859,606.445,0.000
1737558124.911,41.016,-16.113,-7.812,999.512,0.000
1737558124.915,-102.539,-24.414,-44.922,423.340,0.000
1737558124.919,-208.984,-30.273,-44.922,-644.531,0.000
1737558124.923,-52.246,-30.273,-20.508,-406.250,0.000
1737558124.926,78.125,-30.273,14.648,655.762,0.000
1737558124.930,5.371,-17.090,12.207,955.078,0.000
1737558124.934,-124.023,-0.977,3.906,358.887,0.000
1737558124.938,-203.125,-23.926,2.441,-641.602,0.000
1737558124.942,-65.918,-30.273,-16.113,-564.453,0.000
1737558124.946,70.801,-19.531,-5.371,461.914,0.000
1737558124.950,34.668,-24.414,0.977,917.969,0.000
1737558124.954,-82.031,-22.949,-24.414,424.805,0.000
1737558124.958,-179.199,-33.203,-47.852,-573.242,0.000
1737558124.962,-85.938,-37.598,-8.789,-634.277,0.000
1737558124.966,60.547,8.789,20.020,396.973,0.000
1737558124.969,41.504,21.484,2.441,959.961,0.000
1737558124.973,-92.285,-5.371,-13.672,477.539,0.000
1737558124.977,-205.566,-22.949,-20.996,-598.145,0.000
1737558124.981,-102.539,-33.203,0.488,-744.141,0.000
1737558124.985,66.406,-26.855,5.859,331.543,0.000
1737558124.989,41.016,-4.883,-4.395,891.113,0.000
1737558124.993,-65.430,-6.836,-9.277,559.570,0.000
1737558124.997,-191.895,-27.344,-28.809,-415.039,0.000
1737558125.001,-163.574,-27.344,-31.738,-901.855,0.000
1737558125.005,10.254,-7.324,0.977,-78.125,0.000
1737558125.008,60.059,-9.766,-2.441,761.230,0.000
1737558125.012,-23.926,-16.113,-20.508,690.430,0.000
1737558125.016,-170.410,-22.461,-26.367,-269.043,0.000
1737558125.020,-159.668,-44.434,-0.977,-887.695,0.000
1737558125.024,28.320,-66.895,-3.418,-127.441,0.000
1737558125.028,96.680,-23.926,-47.363,804.199,0.000
1737558125.032,-14.648,1.953,-32.227,764.160,0.000
1737558125.036,-174.316,-11.230,-11.719,-231.445,0.000
1737558125.040,-166.504,-8.301,0.000,-978.027,0.000
1737558125.044,7.812,0.977,-2.930,-346.191,0.000
1737558125.048,91.797,1.465,-13.184,661.133,0.000
1737558125.051,20.996,-5.371,12.695,825.195,0.000
1737558125.055,-131.348,-11.230,-11.230,-20.996,0.000
1737558125.059,-164.551,-17.090,-28.320,-899.902,0.000
1737558125.063,5.859,-44.922,7.812,-400.879,0.000
1737558125.067,83.496,-57.617,0.000,553.711,0.000
1737558125.071,17.090,-13.184,-12.207,766.602,0.000
1737558125.075,-113.770,-0.977,9.277,150.391,0.000
1737558125.079,-205.078,-7.812,17.578,-812.988,0.000
1737558125.083,-54.199,-11.719,8.789,-548.340,0.000
1737558125.087,70.801,-28.809,-35.156,462.891,0.000
1737558125.090,9.277,-30.273,-37.598,754.395,0.000
1737558125.094,-125.977,-22.949,4.883,143.555,0.000
1737558125.098,-196.289,-36.621,0.000,-826.172,0.000
1737558125.102,-54.199,-86.914,2.930,-704.102,0.000
1737558125.106,81.055,-51.758,20.508,377.930,0.000
1737558125.110,26.367,-4.395,-10.254,749.023,0.000
1737558125.114,-110.352,-2.930,-45.410,117.676,0.000
1737558125.118,-196.289,-20.020,-21.973,-850.586,0.000
1737558125.122,-51.270,-36.133,25.391,-737.793,0.000
1737558125.126,67.383,-10.254,7.324,202.637,0.000
1737558125.130,20.996,9.277,-33.203,593.262,0.000
1737558125.133,-76.660,-13.672,-27.832,219.238,0.000
1737558125.137,-175.293,-37.109,22.949,-708.496,0.000
1737558125.141,-87.891,-36.621,9.277,-857.422,0.000
1737558125.145,50.781,-14.160,-18.066,24.414,0.000
1737558125.149,36.621,-6.836,2.441,578.125,0.000
1737558125.153,-74.219,-24.902,7.812,237.793,0.000
1737558125.157,-184.570,-27.344,-0.488,-708.496,0.000
1737558125.161,-124.023,-10.742,-21.484,-994.141,0.000
1737558125.165,38.574,-7.812,-11.719,-117.676,0.000
1737558125.169,76.172,-3.418,13.184,706.055,0.000
1737558125.173,-28.320,-17.578,-12.207,494.629,0.000
1737558125.176,-166.504,-34.668,-28.320,-559.570,0.000
1737558125.180,-133.301,-18.555,-23.926,-1000.000,0.000
1737558125.184,23.438,-5.859,-35.156,-287.598,0.000
1737558125.188,86.914,-31.250,-3.906,583.496,0.000
1737558125.192,-6.836,-17.090,-5.371,582.520,0.000
1737558125.196,-145.996,0.000,-30.273,-262.695,0.000
1737558125.200,-127.441,-9.277,4.883,-817.871,0.000
1737558125.204,0.977,-8.789,-6.836,-277.832,0.000
1737558125.208,20.508,-26.855,-17.090,459.961,0.000
1737558125.212,-46.387,-27.344,6.348,444.824,0.000
1737558125.215,-146.484,-25.879,0.000,-288.086,0.000
1737558125.219,-164.062,-57.129,-18.555,-950.684,0.000
1737558125.223,-6.348,-45.898,-16.602,-476.562,0.000
1737558125.227,80.566,-8.301,7.812,456.055,0.000
1737558125.231,17.090,8.789,11.719,645.508,0.000
1737558125.235,-123.535,-11.719,3.906,-121.094,0.000
1737558125.239,-177.734,-27.832,5.371,-948.730,0.000
1737558125.243,-19.043,-9.766,-10.254,-557.617,0.000
1737558125.247,81.055,-24.414,-20.508,387.695,0.000
1737558125.251,25.391,-44.434,-41.504,657.715,0.000
1737558125.255,-87.891,-14.648,-37.109,56.641,0.000
1737558125.258,-157.227,7.812,16.602,-822.266,0.000
1737558125.262,-29.297,-4.883,24.414,-616.211,0.000
1737558125.266,83.496,-9.277,2.930,330.078,0.000
1737558125.270,34.180,6.348,-4.395,636.719,0.000
1737558125.274,-88.379,8.789,-20.020,35.645,0.000
1737558125.278,-168.945,-30.273,-27.344,-889.160,0.000
1737558125.282,-50.293,-30.762,-35.156,-818.848,0.000
1737558125.286,98.633,-10.742,0.000,226.562,0.000
1737558125.290,92.285,-26.367,19.043,874.512,0.000
1737558125.294,-47.852,-20.508,14.160,398.926,0.000
1737558125.298,-172.852,5.859,0.000,-707.031,0.000
1737558125.301,-85.449,13.184,-28.320,-898.926,0.000
1737558125.305,59.082,24.414,-28.320,44.922,0.000
1737558125.309,68.359,25.391,-16.113,751.953,0.000
1737558125.313,-38.574,-3.906,-2.441,420.898,0.000
1737558125.317,-180.664,-21.973,-1.465,-691.406,0.000
1737558125.321,-105.957,-18.555,-3.418,-1000.000,0.000
1737558125.325,44.434,-1.953,2.441,-115.723,0.000
1737558125.329,48.828,14.160,-12.207,655.762,0.000
1737558125.333,-55.664,22.461,-24.902,463.867,0.000
1737558125.337,0.000,0.488,-25.391,-523.926,0.000
1737558125.340,0.000,-45.898,-52.246,-955.078,0.000
1737558125.344,0.000,-32.715,-37.109,-109.375,0.000
1737558125.348,0.000,15.137,11.719,792.969,0.000
1737558125.352,0.000,-16.602,31.738,723.633,0.000
1737558125.356,0.000,-30.762,18.555,-278.809,0.000
1737558125.360,0.000,1.953,-11.719,-838.379,0.000
1737558125.364,0.000,17.578,-23.926,-220.215,0.000
1737558125.368,0.000,15.137,-31.738,582.520,0.000
1737558125.372,0.000,-2.930,-11.719,685.059,0.000
1737558125.376,0.000,-24.414,-2.930,-241.211,0.000
1737558125.380,0.000,-30.273,-17.578,-932.129,0.000
1737558125.383,25.391,-27.832,-34.668,-190.918,0.000
1737558125.387,102.539,-20.996,-24.414,818.848,0.000
1737558125.391,5.859,9.277,-13.672,907.715,0.000
1737558125.395,-163.574,11.230,-28.809,-81.055,0.000
1737558125.399,-168.457,-10.254,-21.484,-916.992,0.000
1737558125.403,11.230,-12.695,-32.715,-280.762,0.000
1737558125.407,98.145,-2.930,-28.320,750.977,0.000
1737558125.411,44.434,-20.996,15.137,999.512,0.000
1737558125.415,-92.285,-31.250,27.832,344.727,0.000
1737558125.419,-146.973,-8.301,11.719,-515.625,0.000
1737558125.423,2.441,0.488,-17.090,-156.738,0.000
1737558125.426,98.633,13.184,-48.828,784.668,0.000
1737558125.430,34.180,9.277,-16.602,999.512,0.000
1737558125.434,-100.586,-20.996,5.371,357.910,0.000
1737558125.438,-187.012,-20.508,-21.973,-706.543,0.000
1737558125.442,-59.570,-18.066,-27.344,-603.027,0.000
1737558125.446,39.062,-25.879,-21.973,346.191,0.000
1737558125.450,-10.254,-27.344,-18.066,734.863,0.000
1737558125.454,-114.746,-52.734,-1.953,236.328,0.000
1737558125.458,-200.195,-29.297,-18.066,-770.508,0.000
1737558125.462,-86.426,34.668,-51.270,-784.668,0.000
1737558125.465,60.547,36.133,-36.621,263.184,0.000
1737558125.469,47.363,23.438,-1.953,902.832,0.000
1737558125.473,-76.172,1.953,7.324,474.609,0.000
1737558125.477,0.000,-24.414,0.000,0.000,0.000
1737558125.481,0.000,-28.809,0.000,0.000,0.000
1737558125.485,0.000,-9.766,0.000,0.000,0.000
1737558125.489,0.000,-11.230,0.000,0.000,0.000
1737558125.493,0.000,-3.906,0.000,0.000,0.000
1737558125.497,0.000,-28.809,0.000,0.000,0.000
1737558125.501,0.000,-74.707,0.000,0.000,0.000
1737558125.505,0.000,-56.152,0.000,0.000,0.000
1737558125.508,0.000,-19.043,0.000,0.000,0.000
1737558125.512,0.000,-14.160,0.000,0.000,0.000
1737558125.516,0.000,-28.809,0.000,0.000,0.000
1737558125.520,0.000,-41.504,0.000,0.000,0.000
1737558125.524,62.012,-30.762,22.949,23.438,0.000
1737558125.528,101.562,-30.762,14.648,847.168,0.000
1737558125.532,5.371,-50.781,12.207,748.535,0.000
1737558125.536,-119.141,-63.965,0.977,-259.766,0.000
1737558125.540,-81.543,-78.613,12.695,-841.309,0.000
1737558125.544,107.910,-38.086,42.480,34.180,0.000
1737558125.548,126.953,-16.602,45.410,897.461,0.000
1737558125.551,22.949,-49.805,26.367,770.508,0.000
1737558125.555,-97.168,-55.664,-25.391,-221.680,0.000
1737558125.559,-85.938,-28.809,18.555,-924.805,0.000
1737558125.563,91.797,-22.949,65.430,-244.629,0.000
1737558125.567,156.738,-42.480,14.648,631.836,0.000
1737558125.571,74.707,-56.641,5.371,706.543,0.000
1737558125.575,-50.293,-48.828,23.926,-10.254,0.000
1737558125.579,-78.125,-50.293,14.648,-861.328,0.000
1737558125.583,73.730,-26.855,9.277,-556.152,0.000
1737558125.587,170.898,-11.230,-2.930,454.590,0.000
1737558125.590,135.742,-21.973,14.648,849.121,0.000
1737558125.594,-2.441,-14.160,34.180,150.879,0.000
1737558125.598,-80.566,-18.066,0.488,-860.840,0.000
1737558125.602,71.289,-24.902,-11.719,-599.609,0.000
1737558125.606,185.059,-23.926,8.789,449.707,0.000
1737558125.610,142.090,2.441,-3.906,898.926,0.000
1737558125.614,14.160,10.254,-40.039,319.824,0.000
1737558125.618,-71.289,-14.648,-29.785,-708.984,0.000
1737558125.622,55.176,-31.250,12.695,-633.301,0.000
1737558125.626,159.668,-40.039,29.297,304.688,0.000
1737558125.630,129.395,-18.066,11.719,731.445,0.000
1737558125.633,36.621,-10.254,-3.418,284.668,0.000
1737558125.637,-39.551,-37.598,21.484,-604.980,0.000
1737558125.641,53.711,-33.691,-3.418,-673.828,0.000
1737558125.645,169.922,1.953,-12.207,208.496,0.000
1737558125.649,162.109,-8.789,-11.230,812.012,0.000
1737558125.653,59.570,-31.738,-30.273,475.098,0.000
1737558125.657,-41.016,-14.648,13.184,-517.090,0.000
1737558125.661,26.855,4.883,16.602,-799.805,0.000
1737558125.665,166.016,7.812,-4.883,61.523,0.000
1737558125.669,184.570,8.301,-4.395,767.090,0.000
1737558125.673,85.449,-8.301,-15.625,533.203,0.000
1737558125.676,-44.434,-43.457,-24.902,-497.070,0.000
1737558125.680,20.508,-51.270,-36.133,-917.480,0.000
1737558125.684,208.984,-30.762,-16.602,-10.254,0.000
1737558125.688,210.449,-16.602,-12.695,800.293,0.000
1737558125.692,85.938,-29.785,-16.602,579.590,0.000
1737558125.696,-44.922,-27.832,-6.348,-437.012,0.000
1737558125.700,-10.742,-2.930,-9.277,-956.055,0.000
1737558125.704,150.879,9.277,-20.508,-221.680,0.000
1737558125.708,188.965,-0.977,-43.457,630.371,0.000
1737558125.712,126.465,-17.578,-27.344,665.527,0.000
1737558125.715,-7.812,-24.414,3.906,-253.906,0.000
1737558125.719,-14.648,-22.949,-21.973,-977.539,0.000
1737558125.723,154.785,-11.719,-38.086,-346.191,0.000
1737558125.727,186.035,-7.812,-18.555,526.367,0.000
1737558125.731,133.789,7.324,-5.859,623.535,0.000
1737558125.735,28.320,7.324,5.859,-179.688,0.000
1737558125.739,-15.137,-5.859,12.207,-977.539,0.000
1737558125.743,129.395,-1.953,0.000,-580.078,0.000
1737558125.747,217.285,-22.461,-19.531,379.395,0.000
1737558125.751,169.922,-39.062,-25.879,688.477,0.000
1737558125.755,32.227,-34.668,-37.598,-79.590,0.000
1737558125.758,-10.254,-50.293,-31.250,-966.309,0.000
1737558125.762,134.766,-15.625,3.418,-686.035,0.000
1737558125.766,237.793,29.297,9.766,306.641,0.000
1737558125.770,202.148,29.785,-13.184,775.391,0.000
1737558125.774,58.594,21.973,-4.883,111.328,0.000
1737558125.778,-23.926,-2.930,0.000,-898.926,0.000
1737558125.782,101.074,-20.508,-16.113,-789.062,0.000
1737558125.786,211.426,-37.598,-26.367,145.020,0.000
1737558125.790,179.199,-62.012,-20.508,624.023,0.000
1737558125.794,83.984,-30.762,8.789,140.137,0.000
1737558125.798,3.418,0.977,0.000,-817.383,0.000
1737558125.801,107.422,0.488,-16.602,-833.008,0.000
1737558125.805,234.375,-4.883,-18.555,151.367,0.000
1737558125.809,222.656,3.418,-10.254,785.156,0.000
1737558125.813,83.008,6.836,-32.715,291.504,0.000
1737558125.817,-35.645,0.488,-45.898,-783.691,0.000
1737558125.821,73.242,-27.344,-5.859,-939.941,0.000
1737558125.825,235.840,-47.852,-8.301,48.340,0.000
1737558125.829,232.422,-32.715,-11.230,829.590,0.000
1737558125.833,99.609,-3.906,2.930,470.703,0.000
1737558125.837,-14.648,7.812,-33.691,-588.867,0.000
1737558125.840,61.035,-1.465,-32.227,-900.879,0.000
1737558125.844,211.914,-23.438,-5.371,-39.062,0.000
1737558125.848,225.098,-29.785,-19.531,704.590,0.000
1737558125.852,123.047,-6.836,-30.273,485.840,0.000
1737558125.856,-14.160,-14.648,-1.465,-575.195,0.000
1737558125.860,37.109,-5.371,12.207,-1000.000,0.000
1737558125.864,201.660,9.277,11.719,-164.551,0.000
1737558125.868,231.445,-8.789,-11.719,691.406,0.000
1737558125.872,147.949,-7.812,-36.621,642.090,0.000
1737558125.876,1.953,-5.859,-35.156,-345.215,0.000
1737558125.880,9.766,-33.691,-20.020,-1000.000,0.000
1737558125.883,172.363,-23.926,6.348,-426.758,0.000
1737558125.887,224.609,-16.113,-7.324,495.605,0.000
1737558125.891,146.484,-37.109,-12.695,580.078,0.000
1737558125.895,9.766,-35.156,-9.277,-250.000,0.000
1737558125.899,0.000,-26.367,-10.742,-972.656,0.000
1737558125.903,0.000,-3.906,-29.297,-479.980,0.000
1737558125.907,0.000,3.906,-38.574,492.188,0.000
1737558125.911,0.000,2.441,-26.367,696.289,0.000
1737558125.915,0.000,-20.508,-15.137,-159.668,0.000
1737558125.919,0.000,-33.691,4.883,-967.773,0.000
1737558125.923,0.000,-2.930,-23.438,-592.773,0.000
1737558125.926,0.000,22.461,-56.641,255.371,0.000
1737558125.930,0.000,22.949,-33.691,583.984,0.000
1737558125.934,0.000,7.324,-40.527,-85.938,0.000
1737558125.938,0.000,-2.930,-39.551,-963.379,0.000
1737558125.942,0.000,2.930,-28.809,-747.559,0.000
1737558125.946,-11.230,-14.160,-63.965,138.184,0.000
1737558125.950,150.879,-27.344,-68.848,570.801,0.000
1737558125.954,229.980,-3.418,-64.941,68.359,0.000
1737558125.958,157.715,10.254,-45.898,-842.285,0.000
1737558125.962,22.949,0.977,-28.320,-740.234,0.000
1737558125.965,6.836,8.301,-36.621,273.438,0.000
1737558125.969,152.832,13.184,-28.320,761.719,0.000
1737558125.973,208.008,0.977,-16.602,182.617,0.000
1737558125.977,169.434,-19.043,-11.230,-836.914,0.000
1737558125.981,58.594,-20.508,-15.625,-923.828,0.000
1737558125.985,2.441,11.230,-24.902,-31.738,0.000
1737558125.989,146.973,8.301,-11.230,570.801,0.000
1737558125.993,221.191,-40.527,1.465,180.176,0.000
1737558125.997,181.152,-34.668,-4.883,-796.387,0.000
1737558126.001,84.961,0.000,-31.738,-982.910,0.000
1737558126.005,6.348,4.395,-15.137,-170.898,0.000
1737558126.008,122.559,14.648,1.465,449.219,0.000
1737558126.012,251.465,-0.488,-13.672,71.289,0.000
1737558126.016,210.449,-41.016,-20.020,-817.383,0.000
1737558126.020,81.543,-30.762,-0.977,-1000.000,0.000
1737558126.024,-5.371,0.488,20.508,-629.883,0.000
1737558126.028,109.375,13.184,9.766,40.527,0.000
1737558126.032,236.816,5.371,7.324,-18.555,0.000
1737558126.036,215.332,-12.207,7.812,-808.594,0.000
1737558126.040,54.199,-17.090,1.465,-1000.000,0.000
1737558126.044,175.293,-4.395,-10.742,-638.672,0.000
1737558126.047,189.941,7.812,-19.531,30.762,0.000
1737558126.051,69.824,6.348,-26.367,-58.594,0.000
1737558126.055,-76.660,3.418,-33.691,-832.031,0.000
1737558126.059,-62.500,2.441,-42.480,-1000.000,0.000
1737558126.063,7.324,4.883,-46.387,-882.324,0.000
1737558126.067,35.645,11.719,-59.082,-395.508,0.000
1737558126.071,-20.996,14.160,-60.547,-330.566,0.000
1737558126.075,-144.531,25.391,-59.082,-904.297,0.000
1737558126.079,-128.418,46.387,-86.914,-1000.000,0.000
1737558126.083,-71.289,30.762,-66.895,-987.305,0.000
1737558126.087,-75.195,11.719,-49.316,-932.129,0.000
1737558126.090,-92.285,17.090,-71.777,-892.090,0.000
1737558126.094,-123.047,33.203,-69.336,-998.535,0.000
1737558126.098,-95.215,54.688,-51.758,-994.141,0.000
1737558126.102,-57.617,85.938,-63.477,-1000.000,0.000
1737558126.106,-27.344,100.098,-92.773,-913.086,0.000
1737558126.110,-3.906,71.289,-109.863,-777.344,0.000
1737558126.114,-69.824,53.223,-104.004,-954.102,0.000
1737558126.118,-63.965,73.242,-77.637,-1000.000,0.000
1737558126.122,33.691,45.410,-81.055,-1000.000,0.000
1737558126.126,65.430,40.039,-78.613,-772.461,0.000
1737558126.130,78.613,69.824,-84.473,-408.691,0.000
1737558126.133,25.879,74.707,-81.055,-742.188,0.000
1737558126.137,-23.926,61.035,-43.945,-1000.000,0.000
1737558126.141,34.668,65.918,-47.363,-986.816,0.000
1737558126.145,141.113,68.359,-75.195,-590.820,0.000
1737558126.149,184.082,60.547,-88.379,-144.043,0.000
1737558126.153,113.281,43.945,-74.707,-466.309,0.000
1737558126.157,54.688,-5.859,-62.500,-982.910,0.000
1737558126.161,130.859,50.781,-66.406,-975.586,0.000
1737558126.165,226.074,123.535,-89.844,-334.961,0.000
1737558126.169,262.207,121.094,-86.426,166.992,0.000
1737558126.172,190.918,71.289,-61.035,-241.699,0.000
1737558126.176,106.934,34.180,-68.359,-934.570,0.000
1737558126.180,198.730,55.176,-87.402,-990.723,0.000
1737558126.184,339.355,70.312,-71.289,-293.945,0.000
1737558126.188,347.168,67.383,-49.316,296.875,0.000
1737558126.192,246.094,57.617,-49.316,33.691,0.000
1737558126.196,131.348,35.645,-51.270,-803.711,0.000
1737558126.200,210.449,42.480,-42.969,-968.750,0.000
1737558126.204,369.141,47.363,-52.734,-147.461,0.000
1737558126.208,372.559,27.344,-94.727,374.023,0.000
1737558126.212,305.664,22.949,-83.496,157.227,0.000
1737558126.215,227.539,3.906,-35.645,-539.062,0.000
1737558126.219,239.746,15.137,-29.297,-858.398,0.000
1737558126.223,368.652,35.156,-29.297,-221.191,0.000
1737558126.227,443.359,53.711,-41.992,486.328,0.000
1737558126.231,395.508,59.570,-77.148,547.363,0.000
1737558126.235,249.023,25.391,-47.363,-260.254,0.000
1737558126.239,207.520,11.719,-22.461,-950.195,0.000
1737558126.243,340.332,31.250,-38.086,-469.727,0.000
1737558126.247,428.711,40.039,-27.832,243.652,0.000
1737558126.251,364.258,-6.836,-12.695,179.199,0.000
1737558126.255,203.613,-29.297,-44.922,-633.789,0.000
1737558126.258,181.641,6.348,-45.410,-1000.000,0.000
1737558126.262,296.387,12.207,-12.695,-771.973,0.000
1737558126.266,372.070,23.926,-26.855,-232.422,0.000
1737558126.270,349.609,19.531,-41.992,-83.008,0.000
1737558126.274,212.891,-5.371,-23.438,-639.160,0.000
1737558126.278,168.457,10.254,-1.953,-1000.000,0.000
1737558126.282,264.648,3.418,-15.625,-796.387,0.000
1737558126.286,336.914,-11.230,-21.484,-272.461,0.000
1737558126.290,317.871,-5.859,-25.879,-201.172,0.000
1737558126.294,205.566,-17.578,-62.012,-684.570,0.000
1737558126.297,136.719,4.395,-16.113,-1000.000,0.000
1737558126.301,220.703,20.996,32.715,-855.957,0.000
1737558126.305,326.172,17.090,19.531,-223.633,0.000
1737558126.309,297.363,6.836,4.883,-30.273,0.000
1737558126.313,177.246,-17.578,-6.836,-530.273,0.000
1737558126.317,97.168,-24.414,-7.324,-1000.000,0.000
1737558126.321,171.387,-27.344,-5.371,-911.133,0.000
1737558126.325,290.039,-40.039,-30.762,-288.574,0.000
1737558126.329,290.039,-53.711,-31.250,1.953,0.000
1737558126.333,182.617,-43.457,8.789,-405.762,0.000
1737558126.337,83.496,-15.137,-14.648,-965.820,0.000
1737558126.340,140.625,5.859,-38.086,-922.363,0.000
1737558126.344,262.207,-10.254,-7.812,-234.863,0.000
1737558126.348,240.234,-39.551,12.207,-29.297,0.000
1737558126.352,91.309,-57.129,7.812,-607.422,0.000
1737558126.356,22.949,-65.918,11.719,-1000.000,0.000
1737558126.360,87.891,-25.391,9.277,-958.984,0.000
1737558126.364,205.566,8.301,-4.883,-369.141,0.000
1737558126.368,227.051,7.324,-2.930,68.359,0.000
1737558126.372,128.418,-6.348,0.000,-277.344,0.000
1737558126.376,25.391,-23.926,-12.695,-923.340,0.000
1737558126.379,71.777,-44.434,-4.883,-950.195,0.000
1737558126.383,198.242,-55.176,-23.926,-129.395,0.000
1737558126.387,207.520,-51.270,-40.527,303.223,0.000
1737558126.391,111.328,-62.988,0.000,-77.637,0.000
1737558126.395,4.883,-67.383,33.691,-797.363,0.000
1737558126.399,43.945,-38.574,18.555,-928.223,0.000
1737558126.403,172.852,-13.672,-24.414,-200.684,0.000
1737558126.407,210.938,-6.348,-17.090,214.844,0.000
1737558126.411,148.926,-2.441,2.441,40.039,0.000
1737558126.415,13.184,-8.789,7.324,-606.445,0.000
1737558126.419,-3.418,-37.598,17.578,-957.520,0.000
1737558126.422,140.137,-41.016,0.488,-199.219,0.000
1737558126.426,183.594,-24.902,-28.809,395.020,0.000
1737558126.430,104.492,-24.902,-19.043,184.570,0.000
1737558126.434,-6.836,-18.066,5.859,-415.527,0.000
1737558126.438,-32.715,-6.348,-3.418,-822.754,0.000
1737558126.442,104.980,-7.812,-3.906,-170.898,0.000
1737558126.446,165.527,-44.434,9.277,457.031,0.000
1737558126.450,97.168,-63.477,-5.859,270.508,0.000
1737558126.454,25.391,-20.996,1.953,-238.770,0.000
1737558126.458,10.742,-14.160,-2.441,-565.430,0.000
1737558126.462,102.051,-52.246,-43.457,-31.738,0.000
1737558126.465,136.719,-30.762,-42.969,447.266,0.000
1737558126.469,88.379,17.578,3.418,243.164,0.000
1737558126.473,17.090,14.648,10.254,-250.488,0.000
1737558126.477,-42.480,-12.695,3.418,-786.621,0.000
1737558126.481,87.402,-29.297,15.625,-226.074,0.000
1737558126.485,188.477,-26.855,6.348,628.906,0.000
1737558126.489,118.164,-16.113,2.930,517.090,0.000
1737558126.493,-4.395,-35.645,-5.859,-110.840,0.000
1737558126.497,-76.172,-52.734,-13.184,-745.605,0.000
1737558126.501,38.574,-34.668,-29.297,-397.461,0.000
1737558126.504,161.133,-9.766,-24.902,443.359,0.000
1737558126.508,0.000,-14.160,3.906,578.613,0.000
1737558126.512,0.000,-24.902,-6.836,106.445,0.000
1737558126.516,0.000,-53.711,-25.879,-558.594,0.000
1737558126.520,0.000,-41.504,-25.391,-299.805,0.000
1737558126.524,0.000,-1.465,7.812,644.043,0.000
1737558126.528,0.000,1.465,22.461,843.750,0.000
1737558126.532,0.000,3.906,5.859,302.734,0.000
1737558126.536,0.000,-19.043,1.465,-502.441,0.000
1737558126.540,0.000,-28.320,-11.230,-455.566,0.000
1737558126.544,0.000,-14.648,-17.578,431.641,0.000
1737558126.547,0.000,-8.789,-3.906,660.156,0.000
1737558126.551,0.000,-0.977,22.949,245.605,0.000
1737558126.555,-51.270,4.883,27.344,-406.738,0.000
1737558126.559,-4.395,-26.367,28.320,-454.590,0.000
1737558126.563,135.254,-34.668,10.254,388.184,0.000
1737558126.567,140.625,-23.926,-16.113,746.094,0.000
1737558126.571,59.082,-26.855,-15.137,351.074,0.000
1737558126.575,-51.270,0.488,-11.719,-329.590,0.000
1737558126.579,-41.016,13.184,-7.324,-497.559,0.000
1737558126.583,100.098,3.418,-10.254,247.559,0.000
1737558126.587,133.301,-12.695,-17.578,644.531,0.000
1737558126.590,56.152,-27.344,11.230,305.176,0.000
1737558126.594,-35.156,-35.156,34.180,-340.820,0.000
1737558126.598,-30.273,-26.367,8.789,-576.660,0.000
1737558126.602,84.473,-17.090,-19.531,140.625,0.000
1737558126.606,115.723,-13.672,-8.789,600.098,0.000
1737558126.610,74.219,-20.020,-2.441,408.691,0.000
1737558126.614,-23.438,-25.391,-18.066,-136.719,0.000
1737558126.618,-55.664,-19.043,-4.883,-479.004,0.000
1737558126.622,132.324,4.395,18.555,412.109,0.000
1737558126.626,168.945,-22.461,-7.812,999.512,0.000
1737558126.629,66.895,-51.270,-33.691,734.863,0.000
1737558126.633,-43.945,-38.086,-18.066,107.910,0.000
1737558126.637,-89.355,-13.672,-14.648,-479.980,0.000
1737558126.641,69.336,-2.441,-3.418,103.027,0.000
1737558126.645,163.086,-8.789,-7.812,847.168,0.000
1737558126.649,87.402,-27.344,-11.230,723.145,0.000
1737558126.653,-18.555,-42.969,2.930,208.008,0.000
1737558126.657,-99.121,-48.340,-24.902,-395.020,0.000
1737558126.661,-1.465,-54.688,-24.414,-58.594,0.000
1737558126.665,135.742,-25.391,16.113,757.324,0.000
1737558126.669,109.863,15.137,11.230,871.094,0.000
1737558126.672,-12.695,6.836,-22.461,415.039,0.000
1737558126.676,-96.191,-45.410,-40.527,-347.656,0.000
1737558126.680,13.184,-42.969,-24.414,-126.953,0.000
1737558126.684,121.094,-2.441,-26.367,680.176,0.000
1737558126.688,105.469,-25.879,0.000,797.852,0.000
1737558126.692,14.648,-59.570,0.977,367.188,0.000
1737558126.696,-102.539,-19.043,-30.762,-380.371,0.000
1737558126.700,-21.973,9.766,-23.926,-265.625,0.000
1737558126.704,143.066,-6.836,-5.859,662.109,0.000
1737558126.708,142.578,-11.719,-1.465,873.535,0.000
1737558126.712,41.992,-12.207,-8.301,414.062,0.000
1737558126.715,-51.758,-33.203,-16.113,-218.262,0.000
1737558126.719,-4.883,-11.230,-19.531,-175.293,0.000
1737558126.723,129.883,17.578,-12.207,675.781,0.000
1737558126.727,128.906,-4.395,-16.113,937.500,0.000
1737558126.731,21.484,-38.086,-8.789,442.871,0.000
1737558126.735,-96.680,-27.344,5.859,-256.836,0.000
1737558126.739,-69.336,-9.277,2.930,-324.219,0.000
1737558126.743,85.938,-9.766,-11.719,544.922,0.000
1737558126.747,107.910,6.348,-12.207,917.480,0.000
1737558126.751,11.719,-9.766,1.465,480.469,0.000
1737558126.754,-91.797,-25.879,-20.508,-191.895,0.000
1737558126.758,-65.918,-14.160,-15.625,-304.688,0.000
1737558126.762,92.285,-6.348,9.277,496.094,0.000
1737558126.766,123.535,-12.695,1.465,908.691,0.000
1737558126.770,21.973,-33.203,-11.719,533.691,0.000
1737558126.774,-86.914,-36.621,-10.254,-121.582,0.000
1737558126.778,-90.332,-55.664,-12.695,-416.992,0.000
1737558126.782,48.828,-48.828,-27.344,291.992,0.000
1737558126.786,105.469,-18.555,-33.691,836.914,0.000
1737558126.790,55.664,-0.488,-6.836,645.996,0.000
1737558126.794,-40.527,-14.648,12.207,103.027,0.000
1737558126.797,-95.215,-28.809,-19.043,-421.875,0.000
1737558126.801,35.645,-2.441,-53.711,90.820,0.000
1737558126.805,112.305,-31.250,-22.461,689.453,0.000
1737558126.809,54.688,-40.527,12.695,516.602,0.000
1737558126.813,-57.617,9.766,1.953,-51.758,0.000
1737558126.817,-125.977,11.719,-15.137,-642.090,0.000
1737558126.821,15.137,-12.207,-11.230,-107.422,0.000
1737558126.825,133.789,-8.301,-19.043,703.125,0.000
1737558126.829,79.102,-0.977,-17.090,598.145,0.000
1737558126.833,-15.625,-40.039,9.277,37.109,0.000
1737558126.837,-77.148,-52.734,3.418,-520.020,0.000
1737558126.840,34.668,-12.207,-16.113,-112.793,0.000
1737558126.844,179.199,13.184,-9.277,778.809,0.000
1737558126.848,126.465,-13.184,-8.301,791.992,0.000
1737558126.852,-14.648,-33.203,-31.738,159.180,0.000
1737558126.856,-91.309,-0.488,-21.973,-531.738,0.000
1737558126.860,10.742,26.367,0.977,-279.785,0.000
1737558126.864,138.672,10.742,-2.441,631.348,0.000
1737558126.868,103.027,-26.855,-11.230,717.285,0.000
1737558126.872,3.906,-27.832,-24.414,180.664,0.000
1737558126.876,-83.496,-20.020,-13.184,-462.402,0.000
1737558126.879,-7.812,-33.691,0.000,-298.828,0.000
1737558126.883,139.160,-17.578,-6.836,536.621,0.000
1737558126.887,124.023,18.066,-4.883,742.188,0.000
1737558126.891,19.531,4.883,-4.395,311.523,0.000
1737558126.895,-101.074,-27.344,-30.273,-485.352,0.000
1737558126.899,-52.246,-35.156,-48.828,-560.547,0.000
1737558126.903,132.812,-16.602,-32.227,426.270,0.000
1737558126.907,139.160,-2.441,-17.578,801.270,0.000
1737558126.911,27.832,-32.715,-2.930,338.379,0.000
1737558126.915,-84.473,-22.949,-1.465,-383.789,0.000
1737558126.919,-46.875,5.371,-13.184,-471.191,0.000
1737558126.922,111.816,4.883,-20.020,389.648,0.000
1737558126.926,125.977,-8.301,-11.719,733.398,0.000
1737558126.930,52.734,-17.090,-5.371,404.297,0.000
1737558126.934,-53.223,-12.207,-8.789,-180.664,0.000
1737558126.938,-64.941,0.488,-21.973,-494.141,0.000
1737558126.942,92.285,-7.324,-25.391,257.324,0.000
1737558126.946,145.508,-15.137,0.000,725.098,0.000
1737558126.950,70.312,-10.742,-0.488,447.266,0.000
1737558126.954,-57.617,-52.734,-30.273,-229.492,0.000
1737558126.958,-72.266,-67.871,-17.090,-702.637,0.000
1737558126.962,100.098,-0.488,5.371,80.566,0.000
1737558126.965,149.414,23.926,0.488,733.887,0.000
1737558126.969,79.590,-6.836,0.000,486.328,0.000
1737558126.973,-20.508,1.953,-4.395,-112.793,0.000
1737558126.977,-74.219,14.648,-30.273,-593.262,0.000
1737558126.981,69.336,-12.207,-26.855,7.812,0.000
1737558126.985,148.438,-70.801,-7.812,655.762,0.000
1737558126.989,62.988,-32.227,-23.438,417.480,0.000
1737558126.993,-22.461,32.227,-13.184,-155.273,0.000
1737558126.997,-46.387,17.578,-4.883,-566.406,0.000
1737558127.001,70.312,-33.691,-20.020,-51.758,0.000
1737558127.004,163.086,-18.066,-8.789,613.281,0.000
1737558127.008,103.516,6.348,2.441,540.039,0.000
1737558127.012,-4.883,-44.434,-14.160,18.555,0.000
1737558127.016,-72.754,-60.059,-28.809,-566.895,0.000
1737558127.020,19.531,-1.465,-1.953,-192.871,0.000
1737558127.024,142.578,10.742,7.812,665.039,0.000
1737558127.028,105.469,-2.930,-20.020,687.012,0.000
1737558127.032,3.418,9.766,-18.066,155.762,0.000
1737558127.036,-84.961,-12.207,-3.418,-529.297,0.000
1737558127.040,16.602,-19.043,-16.602,-234.863,0.000
1737558127.044,167.480,-38.086,-9.277,720.215,0.000
1737558127.047,119.141,-57.617,2.441,752.930,0.000
1737558127.051,-6.348,-22.461,-17.578,125.977,0.000
1737558127.055,-89.355,8.301,-14.648,-561.035,0.000
1737558127.059,-41.016,12.695,-6.348,-431.152,0.000
1737558127.063,91.309,8.301,-4.883,436.523,0.000
1737558127.067,115.234,-8.789,-22.949,655.762,0.000
1737558127.071,25.391,-3.906,-38.086,214.355,0.000
1737558127.075,-74.219,-2.441,-16.113,-451.172,0.000
1737558127.079,-18.555,-11.719,-3.418,-470.703,0.000
1737558127.083,128.906,7.812,-5.371,398.926,0.000
1737558127.087,127.930,11.230,-11.719,666.504,0.000
1737558127.090,50.293,-37.598,-6.348,312.988,0.000
1737558127.094,-58.105,-72.754,-6.836,-327.637,0.000
1737558127.098,-76.660,-13.184,-19.531,-605.469,0.000
1737558127.102,96.191,36.133,-10.254,287.598,0.000
1737558127.106,140.625,27.832,-0.488,798.340,0.000
1737558127.110,31.250,5.859,-22.949,383.789,0.000
1737558127.114,-103.027,-46.387,-35.645,-351.074,0.000
1737558127.118,-101.074,-55.664,-19.043,-695.312,0.000
1737558127.122,71.777,-12.695,-5.859,95.703,0.000
1737558127.126,118.164,-10.742,0.000,668.457,0.000
1737558127.129,50.781,-19.043,-2.930,461.426,0.000
1737558127.133,-56.641,-25.391,-15.625,-139.648,0.000
1737558127.137,-97.168,-5.859,-21.484,-603.516,0.000
1737558127.141,43.457,18.066,-3.906,34.668,0.000
1737558127.145,116.699,2.441,10.742,620.117,0.000
1737558127.149,40.039,-24.902,-26.367,332.031,0.000
1737558127.153,-80.078,-56.152,-39.551,-384.277,0.000
1737558127.157,-112.305,-42.480,-11.719,-890.137,0.000
1737558127.161,39.551,-5.859,-3.906,-265.625,0.000
1737558127.165,0.000,0.977,0.000,495.605,0.000
1737558127.169,0.000,18.555,0.000,389.648,0.000
1737558127.172,0.000,15.625,0.000,-188.477,0.000
1737558127.176,0.000,-13.184,0.000,-769.043,0.000
1737558127.180,0.000,-26.855,0.000,-357.422,0.000
1737558127.184,0.000,-17.578,0.000,545.410,0.000
1737558127.188,0.000,-6.348,0.000,569.824,0.000
1737558127.192,0.000,-11.719,0.000,-35.645,0.000
1737558127.196,0.000,-22.949,0.000,-618.164,0.000
1737558127.200,0.000,-44.922,0.000,-265.137,0.000
1737558127.204,0.000,-41.504,0.000,661.621,0.000
1737558127.208,0.000,4.883,0.000,750.488,0.000
1737558127.211,-41.504,15.625,-8.789,173.340,0.000
1737558127.215,-106.934,-3.906,-7.324,-436.523,0.000
1737558127.219,-2.930,-12.695,10.254,-152.344,0.000
1737558127.223,129.395,-26.367,1.953,748.535,0.000
1737558127.227,90.820,-29.785,-13.672,840.820,0.000
1737558127.231,-4.883,-17.090,-22.949,398.438,0.000
1737558127.235,-101.074,-17.578,-29.785,-236.816,0.000
1737558127.239,-41.504,-54.199,-16.113,-229.492,0.000
1737558127.243,118.652,-34.668,-10.742,641.602,0.000
1737558127.247,122.559,20.996,-24.902,965.332,0.000
1737558127.251,7.324,4.883,-18.555,518.066,0.000
1737558127.254,-130.371,-9.277,-10.742,-301.270,0.000
1737558127.258,0.000,-6.348,0.000,-421.875,0.000
1737558127.262,0.000,-3.906,8.301,469.727,0.000
1737558127.266,0.000,-10.742,-6.348,800.781,0.000
1737558127.270,0.000,-12.695,-23.438,475.098,0.000
1737558127.274,0.000,-23.926,-24.902,-185.059,0.000
1737558127.278,0.000,-54.199,-5.371,-387.695,0.000
1737558127.282,0.000,-65.918,-9.277,469.727,0.000
1737558127.286,0.000,-5.859,-41.992,830.566,0.000
1737558127.290,0.000,25.879,-35.645,474.609,0.000
1737558127.294,0.000,4.883,-12.207,-111.816,0.000
1737558127.297,0.000,-13.672,-13.184,-446.289,0.000
1737558127.301,0.000,-25.391,4.883,279.785,0.000
1737558127.305,139.160,-4.883,16.602,806.152,0.000
1737558127.309,38.086,-24.414,-9.766,454.590,0.000
1737558127.313,-48.828,-52.246,-32.715,-162.598,0.000
1737558127.317,-57.617,-9.277,-8.789,-502.441,0.000
1737558127.321,53.711,6.348,3.906,109.863,0.000
1737558127.325,128.418,-6.348,-11.230,746.094,0.000
1737558127.329,69.336,-15.137,-23.926,602.051,0.000
1737558127.333,-56.641,-17.090,-26.855,-39.551,0.000
1737558127.336,-121.582,-19.043,-21.973,-634.277,0.000
1737558127.340,3.418,-6.836,-20.508,-142.578,0.000
1737558127.344,108.398,-8.789,-49.805,593.750,0.000
1737558127.348,68.359,-36.133,-39.062,505.371,0.000
1737558127.352,-35.645,-36.621,4.395,-16.113,0.000
1737558127.356,-118.164,-8.789,-0.977,-638.672,0.000
1737558127.360,5.859,8.789,3.906,-245.605,0.000
1737558127.364,133.301,-8.301,16.602,582.520,0.000
1737558127.368,111.816,-13.672,-2.441,625.000,0.000
1737558127.372,25.391,4.883,-18.066,223.633,0.000
1737558127.376,-81.543,-5.371,-34.668,-429.688,0.000
1737558127.379,-35.156,-16.602,-41.016,-379.883,0.000
1737558127.383,98.145,-15.625,-4.395,344.727,0.000
1737558127.387,98.145,-66.406,3.418,473.145,0.000
1737558127.391,2.441,-72.754,-29.297,39.062,0.000
1737558127.395,-93.750,-4.883,-23.926,-568.848,0.000
1737558127.399,0.000,21.484,-3.418,-393.555,0.000
1737558127.403,0.000,8.789,4.883,439.941,0.000
1737558127.407,0.000,-14.648,6.348,602.051,0.000
1737558127.411,0.000,-15.625,-12.695,168.457,0.000
1737558127.415,0.000,-11.719,-18.555,-553.223,0.000
1737558127.419,0.000,-11.230,-8.789,-537.109,0.000
1737558127.422,0.000,-3.906,-19.531,424.316,0.000
1737558127.426,0.000,-31.738,-29.785,591.797,0.000
1737558127.430,0.000,-63.965,-22.949,128.418,0.000
1737558127.434,0.000,-38.086,-22.949,-496.582,0.000
1737558127.438,0.000,-1.953,4.883,-660.156,0.000
1737558127.442,0.000,4.395,9.277,222.168,0.000
1737558127.446,101.074,-2.930,-4.883,555.664,0.000
1737558127.450,20.996,-4.883,-14.160,135.742,0.000
1737558127.454,-55.176,-28.809,-30.762,-450.684,0.000
1737558127.458,-63.965,-39.062,-28.320,-708.496,0.000
1737558127.461,78.613,-21.973,-20.508,31.250,0.000
1737558127.465,149.414,-10.742,-17.578,624.023,0.000
1737558127.469,79.102,-18.555,-14.648,379.395,0.000
1737558127.473,-49.805,-6.836,-40.039,-312.012,0.000
1737558127.477,-89.355,-6.836,-34.180,-726.074,0.000
1737558127.481,57.617,-51.270,1.465,-37.598,0.000
1737558127.485,141.602,-46.875,13.672,576.660,0.000
1737558127.489,77.148,0.488,3.418,397.949,0.000
1737558127.493,-45.410,23.926,-18.066,-228.027,0.000
1737558127.497,-89.355,3.418,-23.926,-744.629,0.000
1737558127.501,55.176,-5.371,-17.578,-130.371,0.000
1737558127.504,149.414,-0.488,-9.277,575.195,0.000
1737558127.508,101.562,-7.812,-7.324,397.949,0.000
1737558127.512,-0.977,-25.391,-32.715,-132.324,0.000
1737558127.516,-60.059,-21.484,-26.855,-599.609,0.000
1737558127.520,48.828,-14.648,-6.836,-239.258,0.000
1737558127.524,158.203,-24.414,-0.977,485.840,0.000
1737558127.528,102.539,-12.695,0.488,473.633,0.000
1737558127.532,-8.301,7.812,2.441,-47.363,0.000
1737558127.536,-66.406,5.859,2.930,-577.637,0.000
1737558127.540,25.879,-9.766,-0.488,-292.480,0.000
1737558127.544,153.809,-24.414,-1.953,487.793,0.000
1737558127.547,131.348,-13.672,-17.578,553.223,0.000
1737558127.551,17.578,-18.555,-20.508,38.086,0.000
1737558127.555,-70.312,-39.551,-13.184,-624.512,0.000
1737558127.559,17.090,-24.902,-12.207,-424.805,0.000
1737558127.563,144.531,2.441,-30.273,433.105,0.000
1737558127.567,112.305,-10.254,-28.320,513.672,0.000
1737558127.571,31.738,-18.555,0.977,58.105,0.000
1737558127.575,-71.289,-6.348,-1.465,-575.195,0.000
1737558127.579,-37.598,-19.531,0.488,-563.477,0.000
1737558127.583,133.301,-26.367,7.324,334.473,0.000
1737558127.586,0.000,-4.883,-1.953,572.754,0.000
1737558127.590,0.000,10.742,-9.277,115.723,0.000
1737558127.594,0.000,1.465,-17.578,-505.859,0.000
1737558127.598,0.000,-17.578,-17.578,-523.438,0.000
1737558127.602,0.000,-16.602,-8.789,305.664,0.000
1737558127.606,0.000,-11.230,-15.137,609.863,0.000
1737558127.610,0.000,-26.855,-4.883,221.191,0.000
1737558127.614,0.000,-20.996,-7.324,-482.422,0.000
1737558127.618,0.000,-22.461,-26.367,-669.922,0.000
1737558127.622,0.000,-49.805,-26.367,216.797,0.000
1737558127.626,0.000,-8.789,-10.742,668.945,0.000
1737558127.629,0.000,4.395,2.441,268.066,0.000
1737558127.633,-59.082,-12.695,-5.371,-379.883,0.000
1737558127.637,-65.430,-17.090,-20.020,-664.062,0.000
1737558127.641,74.219,-11.719,-11.230,56.152,0.000
1737558127.645,138.184,8.789,-7.324,578.613,0.000
1737558127.649,72.266,4.395,-8.789,307.129,0.000
1737558127.653,-7.324,-37.598,-0.977,-177.734,0.000
1737558127.657,-43.457,-42.480,-22.949,-554.688,0.000
1737558127.661,64.941,-6.836,-46.875,-37.109,0.000
1737558127.665,135.742,-14.160,-21.484,540.527,0.000
1737558127.669,70.801,-7.324,-21.973,358.887,0.000
1737558127.672,-30.762,0.000,-20.996,-202.637,0.000
1737558127.676,-66.895,-4.883,-3.418,-683.594,0.000
1737558127.680,56.641,0.977,0.977,-182.617,0.000
1737558127.684,164.062,-3.418,-3.418,548.828,0.000
1737558127.688,96.680,-3.906,-3.418,457.520,0.000
1737558127.692,-49.316,-7.324,-14.160,-136.230,0.000
1737558127.696,-120.117,-28.809,-36.133,-744.629,0.000
1737558127.700,23.438,-45.898,-20.508,-244.629,0.000
1737558127.704,151.367,-42.480,-8.301,648.438,0.000
1737558127.708,77.637,-42.969,-33.203,511.230,0.000
1737558127.711,-32.227,-21.484,-33.203,-92.285,0.000
1737558127.715,-90.820,-8.301,-5.371,-658.691,0.000
1737558127.719,1.953,-15.137,0.977,-341.309,0.000
1737558127.723,121.094,-9.277,8.301,433.594,0.000
1737558127.727,110.840,6.836,13.184,498.535,0.000
1737558127.731,19.531,-15.137,-11.719,50.293,0.000
1737558127.735,-85.938,-29.785,-26.855,-674.805,0.000
1737558127.739,-5.371,-17.090,-13.672,-534.668,0.000
1737558127.743,136.230,-12.207,-7.324,373.535,0.000
1737558127.747,123.047,5.859,-5.859,580.566,0.000
1737558127.751,24.902,-14.648,-24.902,202.148,0.000
1737558127.754,-92.285,-32.715,-42.480,-467.285,0.000
1737558127.758,-41.016,-16.113,-17.578,-515.625,0.000
1737558127.762,111.328,-1.465,7.812,308.105,0.000
1737558127.766,105.469,-6.836,11.230,502.930,0.000
1737558127.770,29.785,-24.414,-8.789,125.488,0.000
1737558127.774,-70.801,-27.832,-37.109,-454.590,0.000
1737558127.778,-72.754,-23.926,-33.691,-690.918,0.000
1737558127.782,83.984,-7.324,-18.555,78.613,0.000
1737558127.786,153.320,-25.391,-9.766,586.914,0.000
1737558127.790,82.520,-41.992,-18.066,347.656,0.000
1737558127.794,-52.246,-5.859,-18.555,-232.422,0.000
1737558127.797,-86.426,-10.742,-19.043,-540.527,0.000
1737558127.801,64.453,-25.391,-27.344,129.883,0.000
1737558127.805,126.953,-6.348,-15.137,631.836,0.000
1737558127.809,29.785,-34.668,-9.766,269.043,0.000
1737558127.813,-72.754,-55.176,-7.324,-341.309,0.000
1737558127.817,-68.359,-14.648,-1.465,-586.914,0.000
1737558127.821,0.000,3.906,-2.441,229.004,0.000
1737558127.825,0.000,15.137,-8.301,906.250,0.000
1737558127.829,0.000,-15.137,-28.809,635.742,0.000
1737558127.833,0.000,-36.133,-19.043,-76.660,0.000
1737558127.836,0.000,-1.953,-19.531,-574.219,0.000
1737558127.840,0.000,11.230,-21.484,135.742,0.000
1737558127.844,0.000,6.836,-4.395,865.234,0.000
1737558127.848,0.000,10.254,15.137,641.113,0.000
1737558127.852,0.000,-3.906,19.043,54.688,0.000
1737558127.856,0.000,-38.086,3.418,-406.738,0.000
1737558127.860,0.000,-41.992,-12.207,128.418,0.000
1737558127.864,0.000,-27.344,-25.391,821.777,0.000
1737558127.868,74.219,-18.066,-20.996,0.000,0.000
1737558127.872,-35.156,-11.719,-16.602,0.000,0.000
1737558127.876,-106.934,-12.207,-12.695,0.000,0.000
1737558127.879,11.719,-2.441,-0.977,0.000,0.000
1737558127.883,137.695,-2.441,-6.348,0.000,0.000
1737558127.887,114.746,-26.855,-28.809,0.000,0.000
1737558127.891,35.645,-32.227,-8.789,0.000,0.000
1737558127.895,-50.781,-41.016,14.648,0.000,0.000
1737558127.899,11.719,-28.320,-3.906,0.000,0.000
1737558127.903,141.113,27.344,-43.945,0.000,0.000
1737558127.907,119.141,42.480,-25.391,0.000,0.000
1737558127.911,13.672,16.602,5.371,0.000,0.000
1737558127.915,-69.336,-20.996,7.324,-465.332,0.000
1737558127.919,-13.672,-34.668,-2.930,-420.898,0.000
1737558127.922,120.605,-25.879,-15.625,398.926,0.000
1737558127.926,135.254,-13.672,3.418,685.059,0.000
1737558127.930,59.082,-32.715,5.371,311.523,0.000
1737558127.934,-58.105,-19.043,-8.789,-331.055,0.000
1737558127.938,-57.129,5.859,-1.465,-422.852,0.000
1737558127.942,90.820,0.977,-6.348,358.398,0.000
1737558127.946,132.812,1.953,-9.766,696.289,0.000
1737558127.950,42.969,-2.441,-21.973,288.086,0.000
1737558127.954,-74.707,-14.160,-11.230,-401.855,0.000
1737558127.958,-56.152,-18.555,8.789,-580.566,0.000
1737558127.961,105.957,-23.926,-8.789,205.078,0.000
1737558127.965,132.324,-20.996,-28.809,605.957,0.000
1737558127.969,46.875,-20.020,-11.230,226.074,0.000
1737558127.973,-53.223,-32.715,-10.742,-422.852,0.000
1737558127.977,-66.406,-10.742,-30.762,-700.195,0.000
1737558127.981,100.098,14.648,-16.113,107.910,0.000
1737558127.985,167.480,6.836,-13.184,704.102,0.000
1737558127.989,66.895,-8.789,-23.926,331.543,0.000
1737558127.993,-44.434,-16.602,-7.324,-353.027,0.000
1737558127.997,-72.266,-24.414,-4.883,-772.461,0.000
1737558128.001,73.242,-24.414,-9.766,-92.773,0.000
1737558128.004,161.133,-6.836,-5.859,611.816,0.000
1737558128.008,70.801,15.137,-15.137,367.676,0.000
1737558128.012,-52.734,10.742,-22.949,-333.496,0.000
1737558128.016,-52.734,-11.719,-21.973,-711.426,0.000
1737558128.020,77.637,-35.156,-36.621,-76.172,0.000
1737558128.024,118.652,-29.785,-32.715,496.582,0.000
1737558128.028,71.289,5.859,0.000,383.789,0.000
1737558128.032,-24.414,3.418,6.836,-92.773,0.000
1737558128.036,-107.910,-46.875,-0.488,-736.328,0.000
1737558128.040,28.320,-38.574,-19.531,-302.246,0.000
1737558128.044,155.273,-6.836,-21.484,534.180,0.000
1737558128.047,119.141,-36.621,-7.812,483.398,0.000
1737558128.051,3.906,-46.387,-19.531,-86.914,0.000
1737558128.055,-88.867,-4.395,-16.113,-728.027,0.000
1737558128.059,34.668,19.043,0.000,-315.918,0.000
1737558128.063,150.879,22.949,-8.301,552.734,0.000
1737558128.067,81.543,3.906,-38.086,458.496,0.000
1737558128.071,-11.719,-12.207,-12.207,-98.145,0.000
1737558128.075,-72.266,-6.836,2.930,-637.695,0.000
1737558128.079,1.953,-30.273,-8.789,-415.527,0.000
1737558128.083,116.211,-37.109,-6.348,356.445,0.000
1737558128.086,88.867,1.465,-22.461,441.895,0.000
1737558128.090,13.184,-5.859,-15.137,26.855,0.000
1737558128.094,-54.688,-16.602,-10.742,-509.766,0.000
1737558128.098,-36.133,-20.508,-27.832,-564.453,0.000
1737558128.102,89.844,-32.715,-26.367,157.227,0.000
1737558128.106,113.281,0.000,-9.277,506.836,0.000
1737558128.110,19.043,2.930,11.719,157.227,0.000
1737558128.114,-77.148,-7.324,2.441,-505.859,0.000
1737558128.118,-29.785,-1.953,-9.766,-514.648,0.000
1737558128.122,106.934,-11.230,-0.977,383.301,0.000
1737558128.126,77.148,-23.926,-23.438,579.590,0.000
1737558128.129,-21.973,-14.160,-36.621,47.852,0.000
1737558128.133,-96.191,-9.277,-14.160,-560.059,0.000
1737558128.137,-72.266,-16.113,0.488,-671.875,0.000
1737558128.141,85.449,-8.301,5.859,161.133,0.000
1737558128.145,119.629,-14.160,-0.488,594.727,0.000
1737558128.149,36.133,-6.836,-7.324,253.906,0.000
1737558128.153,-49.805,-14.160,-11.230,-347.656,0.000
1737558128.157,-69.824,-32.227,-13.672,-683.594,0.000
1737558128.161,51.270,-20.508,-2.930,-17.090,0.000
1737558128.165,120.605,-11.719,-9.766,578.125,0.000
1737558128.168,65.430,-20.508,-28.320,385.254,0.000
1737558128.172,-34.180,-29.785,-23.438,-216.309,0.000
1737558128.176,-67.871,-6.836,-8.301,-621.582,0.000
1737558128.180,45.898,14.160,-2.441,-6.836,0.000
1737558128.184,109.375,-8.789,7.812,508.301,0.000
1737558128.188,48.828,-22.461,-1.953,227.539,0.000
1737558128.192,-41.016,-44.434,-19.531,-288.086,0.000
1737558128.196,-80.566,-43.457,-23.926,-711.914,0.000
1737558128.200,29.297,1.953,-21.484,-223.633,0.000
1737558128.204,117.188,22.949,-19.043,519.531,0.000
1737558128.208,70.312,18.066,-22.949,462.891,0.000
1737558128.211,-8.789,13.672,-31.250,33.203,0.000
1737558128.215,-75.684,-17.090,-16.602,-475.098,0.000
1737558128.219,0.977,-32.715,2.930,-228.516,0.000
1737558128.223,94.727,-23.926,-0.488,376.465,0.000
1737558128.227,68.359,-36.133,0.488,319.824,0.000
1737558128.231,-15.625,-44.922,6.348,-124.512,0.000
1737558128.235,-102.051,-24.414,-10.742,-657.715,0.000
1737558128.239,-21.973,-0.977,-23.926,-424.316,0.000
1737558128.243,122.559,-2.930,-11.230,455.078,0.000
1737558128.247,87.402,11.230,-9.277,548.340,0.000
1737558128.251,-17.090,8.789,-32.715,36.133,0.000
1737558128.254,-95.703,-24.414,-36.621,-574.219,0.000
1737558128.258,-24.414,-37.109,-16.602,-453.613,0.000
1737558128.262,128.418,-21.973,-1.465,433.105,0.000
1737558128.266,124.023,0.000,8.789,695.801,0.000
1737558128.270,1.953,-6.348,4.395,203.125,0.000
1737558128.274,-118.164,-33.203,-4.883,-538.086,0.000
1737558128.278,-77.637,-22.461,-5.859,-640.625,0.000
1737558128.282,73.730,-1.953,-18.066,135.254,0.000
1737558128.286,103.027,-0.977,-31.250,474.609,0.000
1737558128.290,42.969,-25.879,-32.227,216.797,0.000
1737558128.293,-66.895,-42.480,-20.996,-328.125,0.000
1737558128.297,-89.844,-7.812,-3.418,-584.961,0.000
1737558128.301,57.129,23.438,-2.441,177.734,0.000
1737558128.305,72.266,5.859,-12.207,505.371,0.000
1737558128.309,7.812,-14.160,-21.973,167.480,0.000
1737558128.313,-72.266,-42.969,-4.395,-318.359,0.000
1737558128.317,-100.098,-45.898,3.906,-639.648,0.000
1737558128.321,45.898,-0.977,-7.812,38.086,0.000
1737558128.325,95.215,-8.789,-21.484,538.574,0.000
1737558128.329,-7.812,-23.438,-14.648,192.871,0.000
1737558128.333,-104.004,-9.277,-18.555,-382.324,0.000
1737558128.336,0.000,-15.137,0.000,-712.402,0.000
1737558128.340,0.000,0.000,0.000,-92.773,0.000
1737558128.344,0.000,0.488,0.000,528.809,0.000
1737558128.348,0.000,-44.922,0.000,357.422,0.000
1737558128.352,0.000,-56.641,0.000,-219.238,0.000
1737558128.356,0.000,-14.648,0.000,-660.156,0.000
1737558128.360,0.000,2.930,0.000,-82.520,0.000
1737558128.364,0.000,0.488,0.000,563.965,0.000
1737558128.368,0.000,-21.973,0.000,389.160,0.000
1737558128.372,0.000,-43.457,0.000,-196.289,0.000
1737558128.376,0.000,-24.902,0.000,-730.469,0.000
1737558128.379,0.000,-8.301,0.000,-296.387,0.000
1737558128.383,105.957,-5.859,-38.574,484.375,0.000
1737558128.387,70.801,-38.086,-14.648,459.473,0.000
1737558128.391,-37.109,-32.227,2.930,-76.172,0.000
1737558128.395,-119.141,-3.418,-1.953,-698.730,0.000
1737558128.399,-12.695,0.977,0.488,-364.258,0.000
1737558128.403,132.812,0.977,-5.859,544.434,0.000
1737558128.407,112.793,-23.926,-18.066,643.066,0.000
1737558128.411,-28.809,-32.227,-19.531,20.508,0.000
1737558128.415,-130.371,-11.230,-23.438,-728.516,0.000
1737558128.418,-9.277,-3.906,-18.066,-464.844,0.000
1737558128.422,144.531,-18.066,-9.766,503.418,0.000
1737558128.426,113.281,-9.766,-15.625,622.070,0.000
1737558128.430,29.297,0.488,-5.371,188.965,0.000
1737558128.434,-70.801,-18.066,-18.066,-365.234,0.000
1737558128.438,-46.387,-27.832,-6.348,-333.496,0.000
1737558128.442,103.027,-16.602,-12.695,525.879,0.000
1737558128.446,116.699,-18.555,-23.926,828.125,0.000
1737558128.450,6.348,-24.414,-30.762,375.000,0.000
1737558128.454,-103.516,-0.977,-33.203,-287.598,0.000
1737558128.458,-66.406,17.090,-17.578,-410.156,0.000
1737558128.461,99.609,9.277,2.441,406.250,0.000
1737558128.465,112.793,-9.766,-12.207,766.113,0.000
1737558128.469,14.648,-28.809,-4.883,332.031,0.000
1737558128.473,-86.426,-43.945,7.324,-306.152,0.000
1737558128.477,-83.984,-39.551,-15.137,-566.895,0.000
1737558128.481,106.934,-32.715,-18.555,282.715,0.000
1737558128.485,155.762,-25.879,-12.695,887.207,0.000
1737558128.489,27.832,1.465,-23.926,470.703,0.000
1737558128.493,-93.262,23.926,-28.320,-273.438,0.000
1737558128.497,-69.824,22.461,-27.832,-546.875,0.000
1737558128.501,83.008,-1.465,-20.996,151.855,0.000
1737558128.504,127.441,-8.301,-8.789,620.117,0.000
1737558128.508,67.383,-2.930,6.836,379.395,0.000
1737558128.512,-42.969,-20.508,7.812,-186.035,0.000
1737558128.516,-81.055,-17.090,-3.418,-582.520,0.000
1737558128.520,55.664,-6.836,-2.441,74.707,0.000
1737558128.524,110.352,-15.625,-23.926,647.461,0.000
1737558128.528,59.570,-17.090,-17.090,425.781,0.000
1737558128.532,-27.344,-10.742,-5.371,-78.613,0.000
1737558128.536,-104.004,-7.812,-20.508,-596.191,0.000
1737558128.540,20.020,-26.855,-18.066,-130.859,0.000
1737558128.543,135.254,-41.016,-24.414,649.902,0.000
1737558128.547,69.336,-22.461,-33.691,556.152,0.000
1737558128.551,-43.457,-25.391,-13.184,-44.434,0.000
1737558128.555,-107.910,-25.879,-4.883,-669.922,0.000
1737558128.559,43.457,-13.672,-15.137,-210.938,0.000
1737558128.563,167.969,-6.348,-22.461,662.598,0.000
1737558128.567,109.375,13.672,-39.551,590.820,0.000
1737558128.571,8.301,-9.766,-28.809,16.113,0.000
1737558128.575,-93.750,-34.668,4.883,-657.715,0.000
1737558128.579,0.977,-30.762,8.789,-353.516,0.000
1737558128.583,125.000,-8.789,-8.301,473.145,0.000
1737558128.586,113.770,-11.719,-1.953,556.152,0.000
1737558128.590,10.742,-28.320,-25.391,92.773,0.000
1737558128.594,-121.582,-8.789,-48.828,-635.254,0.000
1737558128.598,-57.617,11.719,-12.695,-604.004,0.000
1737558128.602,104.492,5.859,1.465,279.785,0.000
1737558128.606,98.633,-11.719,-13.672,486.328,0.000
1737558128.610,4.395,-26.855,-20.996,25.879,0.000
1737558128.614,-90.332,-42.480,-13.672,-597.168,0.000
1737558128.618,-39.551,-6.348,-18.555,-570.801,0.000
1737558128.622,104.492,18.555,-10.742,265.625,0.000
1737558128.625,94.727,-33.203,10.254,480.469,0.000
1737558128.629,10.254,-42.969,13.672,58.594,0.000
1737558128.633,-97.168,-0.977,-12.695,-541.016,0.000
1737558128.637,-64.941,0.977,-20.996,-621.582,0.000
1737558128.641,96.191,-15.137,-20.020,196.289,0.000
1737558128.645,104.980,-10.254,-27.344,520.020,0.000
1737558128.649,15.137,-10.254,-19.531,133.301,0.000
1737558128.653,-82.520,-24.414,-3.906,-482.910,0.000
1737558128.657,-69.824,-27.832,-6.836,-686.523,0.000
1737558128.661,73.730,-8.301,-25.879,104.980,0.000
1737558128.665,107.422,-1.465,-13.672,0.000,0.000
1737558128.668,24.414,-15.137,5.371,0.000,0.000
1737558128.672,-85.449,3.906,-1.953,0.000,0.000
1737558128.676,-104.004,12.207,-7.324,0.000,0.000
1737558128.680,42.969,-9.766,0.488,0.000,0.000
1737558128.684,123.535,-9.277,1.465,0.000,0.000
1737558128.688,57.617,16.113,-11.230,0.000,0.000
1737558128.692,-53.223,1.465,-10.254,0.000,0.000
1737558128.696,-118.164,-55.664,-3.418,0.000,0.000
1737558128.700,28.809,-46.875,-11.230,0.000,0.000
1737558128.704,125.488,-4.395,-16.113,0.000,0.000
1737558128.708,51.758,-5.859,-10.742,0.000,0.000
1737558128.711,-46.387,0.000,-15.625,-178.711,0.000
1737558128.715,-124.023,2.930,-16.113,-714.355,0.000
1737558128.719,0.977,-12.207,-24.414,-276.855,0.000
1737558128.723,123.535,-19.531,-20.996,533.691,0.000
1737558128.727,36.621,-30.762,2.930,408.203,0.000
1737558128.731,-65.918,-33.691,-2.930,-117.188,0.000
1737558128.735,-122.070,-24.902,-13.672,-619.141,0.000
1737558128.739,-39.062,-23.926,-16.113,-344.727,0.000
1737558128.743,81.055,-8.789,-28.320,423.340,0.000
1737558128.747,53.711,-12.695,-16.602,455.566,0.000
1737558128.750,-34.668,-29.785,2.930,-0.977,0.000
1737558128.754,-113.770,-54.199,-6.836,-604.980,0.000
1737558128.758,-42.969,-37.598,-34.180,-458.008,0.000
1737558128.762,89.844,8.789,-32.715,365.723,0.000
1737558128.766,82.031,15.625,-11.719,508.789,0.000
1737558128.770,-19.531,7.812,-1.465,51.758,0.000
1737558128.774,-120.605,-14.160,0.488,-564.453,0.000
1737558128.778,-56.641,-32.227,-5.371,-475.098,0.000
1737558128.782,91.309,-26.855,-10.254,382.324,0.000
1737558128.786,87.402,-3.418,-14.160,545.410,0.000
1737558128.790,8.301,4.883,-21.484,158.691,0.000
1737558128.793,-97.168,-20.996,-16.113,-414.551,0.000
1737558128.797,-65.918,-43.457,-11.230,-521.973,0.000
1737558128.801,99.121,-41.016,-17.090,288.574,0.000
1737558128.805,104.004,-12.207,-16.602,556.152,0.000
1737558128.809,1.953,36.133,-6.348,100.586,0.000
1737558128.813,-101.562,29.785,-5.859,-532.227,0.000
1737558128.817,-92.773,-1.465,-12.207,-696.777,0.000
1737558128.821,62.988,-18.555,-15.137,123.535,0.000
1737558128.825,115.723,-43.945,-19.043,589.355,0.000
1737558128.829,25.879,-30.762,-27.832,238.770,0.000
1737558128.833,-74.219,18.066,0.000,-399.902,0.000
1737558128.836,-84.473,29.297,11.230,-737.305,0.000
1737558128.840,61.523,15.625,0.488,-32.227,0.000
1737558128.844,132.812,0.000,-5.371,552.734,0.000
1737558128.848,61.035,-18.555,-23.438,335.938,0.000
1737558128.852,-44.434,-18.555,-25.879,-230.469,0.000
1737558128.856,-92.773,-7.324,-14.160,-669.434,0.000
1737558128.860,25.879,-21.484,1.953,-94.238,0.000
1737558128.864,100.098,-40.039,2.441,508.789,0.000
1737558128.868,21.973,-18.066,-15.625,222.656,0.000
1737558128.872,-62.500,-20.508,-10.742,-316.895,0.000
1737558128.875,-101.074,-44.434,-7.812,-726.074,0.000
1737558128.879,4.883,-1.953,-23.438,-255.859,0.000
1737558128.883,105.957,21.973,-22.461,446.289,0.000
1737558128.887,52.734,0.977,-27.832,333.496,0.000
1737558128.891,-55.176,0.000,-29.297,-230.469,0.000
1737558128.895,-115.234,-16.113,-21.484,-779.297,0.000
1737558128.899,11.230,-41.016,-11.719,-358.887,0.000
1737558128.903,134.277,-23.438,0.488,423.340,0.000
1737558128.907,96.191,-5.371,2.441,402.832,0.000
1737558128.911,-4.395,-10.254,0.977,-44.922,0.000
1737558128.915,-106.934,-20.508,-11.719,-672.852,0.000
1737558128.918,-16.113,-45.898,-8.789,-418.457,0.000
1737558128.922,110.840,-27.832,-4.395,450.195,0.000
1737558128.926,71.289,15.137,-17.090,509.277,0.000
1737558128.930,-49.316,0.488,-22.949,-73.242,0.000
1737558128.934,-131.348,-22.461,-8.789,-698.242,0.000
1737558128.938,-46.387,-28.320,-12.207,-485.840,0.000
1737558128.942,89.355,-28.809,-43.945,343.262,0.000
1737558128.946,87.891,-17.578,-24.414,504.883,0.000
1737558128.950,-15.137,-16.602,5.371,43.457,0.000
1737558128.954,-110.840,-15.137,-1.953,-590.332,0.000
1737558128.958,-49.316,-31.250,-16.113,-549.805,0.000
1737558128.961,90.820,-35.156,-15.625,280.762,0.000
1737558128.965,101.562,2.441,-0.977,573.730,0.000
1737558128.969,17.578,10.742,-15.625,202.148,0.000
1737558128.973,-93.750,-10.742,-28.320,-458.984,0.000
1737558128.977,-65.430,-41.992,-34.668,-588.379,0.000
1737558128.981,84.961,-63.477,-18.555,174.316,0.000
1737558128.985,99.609,-5.371,1.953,494.141,0.000
1737558128.989,21.484,23.926,-16.113,159.668,0.000
1737558128.993,-82.031,1.465,-30.273,-458.984,0.000
1737558128.997,-86.426,-2.930,-7.324,-720.703,0.000
1737558129.000,76.660,-9.277,8.789,62.500,0.000
1737558129.004,134.766,-25.879,-1.465,631.348,0.000
1737558129.008,23.926,-38.574,-14.160,289.551,0.000
1737558129.012,-84.473,-11.230,-20.996,-331.543,0.000
1737558129.016,-89.844,-19.531,-24.902,-613.281,0.000
1737558129.020,22.461,-50.781,-27.832,-29.785,0.000
1737558129.024,87.402,-43.457,-34.180,532.715,0.000
1737558129.028,33.203,-1.953,-34.180,387.695,0.000
1737558129.032,-79.590,34.668,-1.465,-161.621,0.000
1737558129.036,-115.723,27.832,14.160,-554.199,0.000
1737558129.040,17.578,0.977,-2.930,32.227,0.000
1737558129.043,102.539,-17.090,0.000,662.598,0.000
1737558129.047,46.875,-32.227,2.930,533.203,0.000
1737558129.051,-49.805,-28.320,-7.812,85.449,0.000
1737558129.055,-129.883,-13.184,-30.762,-500.000,0.000
1737558129.059,-10.254,-14.648,-24.414,-56.152,0.000
1737558129.063,99.609,7.324,-20.508,736.328,0.000
1737558129.067,45.898,5.859,-29.297,615.234,0.000
1737558129.071,-46.875,-27.832,-4.883,83.496,0.000
1737558129.075,-121.582,-31.738,0.977,-509.277,0.000
1737558129.079,-17.090,-16.113,-8.301,-167.480,0.000
1737558129.083,119.629,-35.645,-18.555,674.805,0.000
1737558129.086,0.000,-26.367,-25.391,652.832,0.000
1737558129.090,0.000,7.812,-14.160,175.781,0.000
1737558129.094,0.000,4.395,-3.906,-357.910,0.000
1737558129.098,0.000,-18.555,-6.836,-232.422,0.000
1737558129.102,0.000,-18.555,-19.043,569.824,0.000
1737558129.106,0.000,-10.254,-17.090,757.812,0.000
1737558129.110,0.000,-1.953,-15.625,287.598,0.000
1737558129.114,0.000,-10.254,-13.672,-438.965,0.000
1737558129.118,0.000,-46.387,-4.395,-413.086,0.000
1737558129.122,0.000,-63.477,-10.254,459.473,0.000
1737558129.125,0.000,-14.160,-7.812,678.223,0.000
1737558129.129,0.000,33.691,-6.348,218.750,0.000
1737558129.133,-137.207,13.184,-8.789,0.000,0.000
1737558129.137,-81.055,-14.160,-24.414,0.000,0.000
1737558129.141,74.707,-27.344,-38.086,0.000,0.000
1737558129.145,90.332,-36.133,-31.250,0.000,0.000
1737558129.149,-4.883,-11.230,-10.254,0.000,0.000
1737558129.153,-107.422,7.324,5.371,0.000,0.000
1737558129.157,-89.355,-31.250,15.137,0.000,0.000
1737558129.161,48.828,-39.551,5.371,0.000,0.000
1737558129.165,75.684,15.625,-17.578,0.000,0.000
1737558129.168,8.789,18.066,-12.207,0.000,0.000
1737558129.172,-83.496,-28.809,-13.672,0.000,0.000
1737558129.176,-113.770,-24.414,-20.508,0.000,0.000
1737558129.180,30.273,-13.672,-12.695,42.480,0.000
1737558129.184,102.539,-17.578,-16.113,567.383,0.000
1737558129.188,33.691,-29.297,-32.227,294.434,0.000
1737558129.192,-82.520,-44.922,-25.391,-296.387,0.000
1737558129.196,-129.395,-19.043,1.953,-676.270,0.000
1737558129.200,27.832,18.066,11.719,2.441,0.000
1737558129.204,98.145,20.020,6.348,601.562,0.000
1737558129.208,23.438,-10.254,-12.207,338.379,0.000
1737558129.211,-76.172,-20.020,-30.762,-270.508,0.000
1737558129.215,-119.629,3.418,-15.137,-775.391,0.000
1737558129.219,18.555,-3.906,-1.465,-196.777,0.000
1737558129.223,114.258,-14.648,-3.418,544.922,0.000
1737558129.227,50.293,0.000,7.324,360.840,0.000
1737558129.231,-67.383,-9.766,8.301,-253.906,0.000
1737558129.235,-146.484,-45.410,-9.277,-822.266,0.000
1737558129.239,-29.297,-26.367,-24.414,-400.879,0.000
1737558129.243,88.379,15.137,-22.461,412.109,0.000
1737558129.247,49.316,17.578,-15.137,448.730,0.000
1737558129.250,-71.289,2.930,-14.648,-108.398,0.000
1737558129.254,-158.691,-9.277,-14.648,-819.824,0.000
1737558129.258,-25.879,-13.672,-13.184,-473.145,0.000
1737558129.262,107.910,-25.391,-28.320,421.875,0.000
1737558129.266,68.359,-46.875,-39.062,492.188,0.000
1737558129.270,-44.434,-42.480,-20.996,-50.293,0.000
1737558129.274,-131.348,-19.043,1.465,-698.730,0.000
1737558129.278,-37.598,-4.395,0.488,-500.488,0.000
1737558129.282,102.051,0.000,6.836,355.957,0.000
1737558129.286,76.660,-11.230,-0.488,477.539,0.000
1737558129.290,-16.602,-24.902,-21.973,45.898,0.000
1737558129.293,-97.656,-10.254,-14.648,-435.547,0.000
1737558129.297,-77.148,12.695,-11.230,-391.113,0.000
1737558129.301,25.391,-16.113,-18.555,216.797,0.000
1737558129.305,52.734,-54.688,-14.648,360.352,0.000
1737558129.309,5.371,-27.832,-22.461,32.715,0.000
1737558129.313,-84.961,-19.531,-27.344,-529.785,0.000
1737558129.317,-58.105,-40.039,-22.949,-562.500,0.000
1737558129.321,0.000,3.418,0.000,256.836,0.000
1737558129.325,0.000,28.809,0.000,606.445,0.000
1737558129.329,0.000,-1.465,0.000,266.602,0.000
1737558129.333,0.000,-20.996,0.000,-331.055,0.000
1737558129.336,0.000,-27.832,0.000,-660.156,0.000
1737558129.340,0.000,-33.203,0.000,64.941,0.000
1737558129.344,0.000,-11.230,0.000,552.246,0.000
1737558129.348,0.000,2.930,0.000,174.316,0.000
1737558129.352,0.000,-4.883,0.000,-417.480,0.000
1737558129.356,0.000,-11.719,0.000,-715.332,0.000
1737558129.360,0.000,-18.066,0.000,-22.949,0.000
1737558129.364,0.000,-13.672,0.000,558.594,0.000
1737558129.368,84.961,-2.441,-6.348,0.000,0.000
1737558129.372,104.492,-16.602,-34.180,0.000,0.000
1737558129.375,21.973,-52.734,-29.785,0.000,0.000
1737558129.379,-87.891,-49.316,3.906,0.000,0.000
1737558129.383,-112.305,-20.996,0.977,0.000,0.000
1737558129.387,45.410,11.230,-16.602,0.000,0.000
1737558129.391,91.309,22.949,-14.648,0.000,0.000
1737558129.395,2.930,-6.836,-13.672,0.000,0.000
1737558129.399,-81.055,-20.996,-3.906,0.000,0.000
1737558129.403,-95.215,-5.859,2.441,0.000,0.000
1737558129.407,49.316,-5.371,-15.137,0.000,0.000
1737558129.411,121.094,-10.254,-26.367,0.000,0.000
1737558129.415,-108.887,-27.344,-16.113,-665.039,0.000
1737558129.418,-0.977,-39.062,-15.137,-308.105,0.000
1737558129.422,115.723,-37.598,-16.602,500.000,0.000
1737558129.426,82.031,-25.879,-15.137,471.191,0.000
1737558129.430,-21.973,0.488,-19.043,-37.598,0.000
1737558129.434,-110.352,6.348,-5.371,-616.211,0.000
1737558129.438,-17.090,-13.184,-4.395,-366.699,0.000
1737558129.442,108.887,-6.836,-20.508,421.387,0.000
1737558129.446,64.941,-9.766,-5.859,392.578,0.000
1737558129.450,-26.855,-19.531,1.953,-68.359,0.000
1737558129.454,-100.586,-0.488,-4.883,-613.770,0.000
1737558129.457,-33.203,7.324,-9.277,-516.602,0.000
1737558129.461,0.000,8.301,7.812,340.820,0.000
1737558129.465,0.000,-3.418,11.230,525.391,0.000
1737558129.469,0.000,-33.203,-11.230,69.336,0.000
1737558129.473,0.000,-16.113,-30.273,-552.246,0.000
1737558129.477,0.000,-5.859,-29.297,-587.891,0.000
1737558129.481,0.000,-31.738,-15.137,272.949,0.000
1737558129.485,0.000,-14.160,-32.227,557.129,0.000
1737558129.489,0.000,-3.906,-33.691,59.570,0.000
1737558129.493,0.000,-7.812,-15.625,-556.152,0.000
1737558129.497,0.000,-16.113,8.789,-702.148,0.000
1737558129.500,0.000,-40.039,18.555,82.520,0.000
1737558129.504,0.000,-8.301,0.977,495.117,0.000
1737558129.508,109.375,22.949,-2.441,125.000,0.000
1737558129.512,99.121,-2.441,-16.113,-500.000,0.000
1737558129.516,10.742,-20.020,-30.273,-792.969,0.000
1737558129.520,-87.891,-21.484,-15.625,-4.883,0.000
1737558129.524,-48.828,-40.039,-16.602,550.781,0.000
1737558129.528,116.699,-30.273,-19.531,272.949,0.000
1737558129.532,126.465,-7.812,-19.043,-308.594,0.000
1737558129.536,17.578,-8.301,-5.859,-759.766,0.000
1737558129.540,-88.379,2.441,-6.348,-160.645,0.000
1737558129.543,-79.102,18.066,-22.949,493.164,0.000
1737558129.547,79.590,-1.465,-0.977,366.211,0.000
1737558129.551,111.328,-10.742,-5.859,-104.004,0.000
1737558129.555,-124.512,-5.859,-16.113,-696.289,0.000
1737558129.559,3.906,-12.695,5.371,-249.512,0.000
1737558129.563,129.883,-20.020,5.371,533.691,0.000
1737558129.567,56.641,-8.301,-33.203,372.070,0.000
1737558129.571,-46.387,-25.391,-35.645,-217.285,0.000
1737558129.575,-78.613,-42.969,-16.602,-597.168,0.000
1737558129.579,22.461,-29.297,-9.766,-111.328,0.000
1737558129.582,111.816,-4.395,0.000,524.414,0.000
1737558129.586,62.988,-2.441,-4.395,390.625,0.000
1737558129.590,-37.109,-15.137,-13.672,-93.750,0.000
1737558129.594,-115.723,-12.695,-34.668,-622.559,0.000
1737558129.598,-19.043,-13.184,-30.273,-345.703,0.000
1737558129.602,105.957,-13.184,3.418,413.574,0.000
1737558129.606,68.848,-25.879,-14.648,423.828,0.000
1737558129.610,-12.207,-53.223,-32.715,9.766,0.000
1737558129.614,-110.352,-27.832,-29.785,-582.031,0.000
1737558129.618,-49.805,25.879,-22.461,-426.270,0.000
1737558129.622,124.023,29.297,-3.418,582.520,0.000
1737558129.625,103.027,5.371,2.930,842.285,0.000
1737558129.629,-45.410,1.953,-0.488,233.887,0.000
1737558129.633,-139.648,-0.977,-15.625,-477.051,0.000
1737558129.637,-70.312,-12.695,-21.484,-406.738,0.000
1737558129.641,87.891,-20.996,-6.348,458.984,0.000
1737558129.645,100.098,-18.066,-10.254,771.973,0.000
1737558129.649,-5.371,-6.348,0.000,399.902,0.000
1737558129.653,-108.887,-20.508,0.000,-210.449,0.000
1737558129.657,-74.219,-68.848,0.000,-343.262,0.000
1737558129.661,76.660,-57.129,0.000,422.852,0.000
1737558129.664,88.867,18.066,0.000,757.812,0.000
1737558129.668,8.789,33.691,0.000,455.566,0.000
1737558129.672,-107.910,0.977,0.000,-213.867,0.000
1737558129.676,-110.352,-6.348,0.000,-565.430,0.000
1737558129.680,66.895,8.301,0.000,252.930,0.000
1737558129.684,98.145,10.742,0.000,752.441,0.000
1737558129.688,-1.465,-20.020,0.000,395.996,0.000
1737558129.692,-96.191,-22.949,0.000,-188.965,0.000
1737558129.696,0.000,-20.996,-24.902,0.000,0.000
1737558129.700,0.000,-59.082,-42.480,0.000,0.000
1737558129.704,0.000,-56.152,-8.301,0.000,0.000
1737558129.707,0.000,-20.508,6.836,0.000,0.000
1737558129.711,0.000,3.906,-12.695,0.000,0.000
1737558129.715,0.000,-4.395,-23.926,0.000,0.000
1737558129.719,0.000,-18.555,-30.273,0.000,0.000
1737558129.723,0.000,4.395,-17.578,0.000,0.000
1737558129.727,0.000,9.766,-14.160,0.000,0.000
1737558129.731,0.000,-16.602,-22.461,0.000,0.000
1737558129.735,0.000,-20.020,-18.555,0.000,0.000
1737558129.739,0.000,-54.688,-5.859,0.000,0.000
1737558129.743,118.652,-57.617,-10.742,583.496,0.000
1737558129.747,52.246,3.418,-17.578,427.734,0.000
1737558129.750,-34.180,25.391,-11.230,-66.406,0.000
1737558129.754,-106.445,1.953,-12.695,-587.402,0.000
1737558129.758,-13.672,-17.090,-21.484,-273.438,0.000
1737558129.762,111.816,-12.695,-32.715,569.824,0.000
1737558129.766,65.430,-17.578,-20.508,555.176,0.000
1737558129.770,-26.855,-9.277,3.418,19.531,0.000
1737558129.774,-104.980,-7.812,-0.488,-568.848,0.000
1737558129.778,-20.020,-50.293,-16.113,-343.262,0.000
1737558129.782,124.023,-56.641,-20.020,536.133,0.000
1737558129.786,82.031,-18.555,-21.973,582.031,0.000
1737558129.789,-22.949,-18.555,-15.137,67.383,0.000
1737558129.793,-108.398,-34.180,-16.113,-519.043,0.000
1737558129.797,-41.504,-1.465,-3.906,-426.758,0.000
1737558129.801,101.074,30.273,0.488,371.582,0.000
1737558129.805,80.566,25.391,-7.812,508.789,0.000
1737558129.809,7.324,17.090,-6.836,141.602,0.000
1737558129.813,-85.449,2.930,-14.160,-382.324,0.000
1737558129.817,-74.707,-21.973,-14.160,-507.812,0.000
1737558129.821,64.453,-32.715,-12.695,195.801,0.000
1737558129.825,76.660,-30.273,-14.160,416.992,0.000
1737558129.829,-7.324,-46.387,-15.137,62.500,0.000
1737558129.832,-111.328,-69.336,-13.184,-500.488,0.000
1737558129.836,-85.449,-41.504,-42.480,-613.281,0.000
1737558129.840,57.617,-18.066,-44.434,173.340,0.000
1737558129.844,79.590,0.000,0.488,524.902,0.000
1737558129.848,-2.930,17.578,-31.250,161.133,0.000
1737558129.852,-103.516,-19.043,-33.203,-470.703,0.000
1737558129.856,-94.727,-26.855,-1.465,-685.059,0.000
1737558129.860,41.016,-19.531,-1.465,85.449,0.000
1737558129.864,89.355,-8.301,-8.301,548.828,0.000
1737558129.868,15.137,-12.207,2.441,234.375,0.000
1737558129.872,-93.262,-32.227,-6.836,-374.512,0.000
1737558129.875,-112.793,-18.066,-38.574,-771.973,0.000
1737558129.879,40.527,-6.348,-19.531,-100.098,0.000
1737558129.883,114.746,-6.348,9.277,537.598,0.000
1737558129.887,41.016,1.953,6.836,311.523,0.000
1737558129.891,-56.641,-21.973,2.930,-210.449,0.000
1737558129.895,-116.699,-50.293,0.000,-670.410,0.000
1737558129.899,-17.578,-23.926,-16.113,-201.172,0.000
1737558129.903,101.562,1.953,-13.672,560.547,0.000
1737558129.907,48.340,-3.906,-10.254,449.707,0.000
1737558129.911,-68.359,-8.301,-9.766,-185.059,0.000
1737558129.914,-126.953,-22.461,-11.230,-756.348,0.000
1737558129.918,1.465,-46.387,-7.324,-302.246,0.000
1737558129.922,132.812,-12.695,-8.301,486.328,0.000
1737558129.926,83.496,10.742,-26.367,438.477,0.000
1737558129.930,-24.902,-5.371,-6.836,-50.781,0.000
1737558129.934,-106.934,-26.855,5.371,-653.809,0.000
1737558129.938,-18.555,-41.016,-7.812,-390.137,0.000
1737558129.942,103.516,-12.207,-20.020,395.996,0.000
1737558129.946,66.895,19.043,-24.902,416.504,0.000
1737558129.950,-25.391,4.883,-2.930,-2.930,0.000
1737558129.954,-100.098,-41.016,1.953,-481.445,0.000
1737558129.957,-67.383,-33.691,-17.090,-440.430,0.000
1737558129.961,44.922,6.348,-11.719,227.051,0.000
1737558129.965,41.504,16.113,-3.418,381.836,0.000
1737558129.969,-47.852,11.230,-5.859,-43.457,0.000
1737558129.973,-134.766,0.000,-5.371,-633.789,0.000
1737558129.977,-67.871,-20.020,-7.812,-571.777,0.000
1737558129.981,78.613,-48.340,-26.367,228.516,0.000
1737558129.985,80.078,-44.922,-11.230,463.379,0.000
1737558129.989,9.766,8.301,3.906,140.625,0.000
1737558129.993,-98.145,8.789,-9.277,-466.797,0.000
1737558129.997,-79.102,-23.438,-14.648,-563.965,0.000
1737558130.000,78.125,11.719,-4.395,295.898,0.000
1737558130.004,77.637,8.301,8.301,583.008,0.000
1737558130.008,-14.648,-19.531,-17.090,170.898,0.000
1737558130.012,-116.211,-16.602,-25.391,-414.551,0.000
1737558130.016,-114.258,-16.602,-3.906,-647.461,0.000
1737558130.020,41.992,1.953,-15.625,111.816,0.000
1737558130.024,80.078,4.395,-20.020,566.406,0.000
1737558130.028,7.324,-16.113,-9.766,262.207,0.000
1737558130.032,-102.539,-13.672,-17.090,-354.004,0.000
1737558130.036,-132.324,-5.859,-22.949,-727.539,0.000
1737558130.039,25.391,-32.227,-9.277,-39.062,0.000
1737558130.043,95.215,-28.809,-16.113,558.105,0.000
1737558130.047,-1.465,-22.461,-17.578,275.879,0.000
1737558130.051,-116.699,-43.457,-4.883,-370.117,0.000
1737558130.055,-135.742,-36.621,-10.742,-778.809,0.000
1737558130.059,13.184,-34.180,-7.812,-152.344,0.000
1737558130.063,88.867,-20.996,-13.672,483.398,0.000
1737558130.067,16.602,2.930,-23.438,314.453,0.000
1737558130.071,-94.238,-2.441,-29.785,-252.441,0.000
1737558130.075,-145.996,-7.324,-26.855,-771.973,0.000
1737558130.079,-15.625,-9.766,-6.836,-268.066,0.000
1737558130.082,92.285,-35.156,2.930,442.871,0.000
1737558130.086,37.109,-47.852,-20.996,327.637,0.000
1737558130.090,-56.641,-3.418,-17.090,-129.395,0.000
1737558130.094,-120.117,-3.906,-3.906,-642.090,0.000
1737558130.098,-21.973,-15.625,-8.789,-328.613,0.000
1737558130.102,93.262,-8.789,-15.137,430.664,0.000
1737558130.106,48.340,-40.527,-14.648,391.602,0.000
1737558130.110,-50.293,-48.340,-4.395,-105.469,0.000
1737558130.114,-141.113,-14.160,-7.324,-694.824,0.000
1737558130.118,0.000,4.883,0.000,0.000,0.000
1737558130.122,0.000,0.000,0.000,0.000,0.000
1737558130.125,0.000,-14.648,0.000,0.000,0.000
1737558130.129,0.000,-10.742,0.000,0.000,0.000
1737558130.133,0.000,-7.324,0.000,0.000,0.000
1737558130.137,0.000,-15.137,0.000,0.000,0.000
1737558130.141,0.000,-22.461,0.000,0.000,0.000
1737558130.145,0.000,-12.695,0.000,0.000,0.000
1737558130.149,0.000,-2.441,0.000,0.000,0.000
1737558130.153,0.000,-8.789,0.000,0.000,0.000
1737558130.157,0.000,-5.859,0.000,0.000,0.000
1737558130.161,0.000,-19.531,0.000,0.000,0.000
1737558130.164,82.031,-22.461,-24.414,507.812,0.000
1737558130.168,9.766,-13.672,-28.320,218.750,0.000
1737558130.172,-111.816,-13.184,-11.719,-395.508,0.000
1737558130.176,-111.816,-8.301,-19.043,-634.766,0.000
1737558130.180,46.387,-13.672,-8.789,166.992,0.000
1737558130.184,78.613,-22.949,-7.324,573.730,0.000
1737558130.188,-19.043,-23.926,-11.719,121.094,0.000
1737558130.192,-119.629,-14.648,-9.766,-545.898,0.000
1737558130.196,-111.328,-7.324,-11.719,-791.992,0.000
1737558130.200,39.551,-5.371,-19.531,-41.504,0.000
1737558130.204,100.586,-12.695,-27.832,480.957,0.000
1737558130.207,32.227,-31.250,-20.996,254.883,0.000
1737558130.211,0.000,-30.273,0.000,0.000,0.000
1737558130.215,0.000,-27.832,0.000,0.000,0.000
1737558130.219,0.000,-19.043,0.000,0.000,0.000
1737558130.223,0.000,-27.344,0.000,0.000,0.000
1737558130.227,0.000,-30.273,0.000,0.000,0.000
1737558130.231,0.000,-4.883,0.000,0.000,0.000
1737558130.235,0.000,-2.441,0.000,0.000,0.000
1737558130.239,0.000,-3.906,0.000,0.000,0.000
1737558130.243,0.000,5.859,0.000,0.000,0.000
1737558130.247,0.000,2.441,0.000,0.000,0.000
1737558130.250,0.000,-24.902,0.000,0.000,0.000
1737558130.254,0.000,-50.293,0.000,0.000,0.000
1737558130.258,-20.508,-47.852,-33.691,-68.359,0.000
1737558130.262,98.633,-15.625,-18.066,786.621,0.000
1737558130.266,39.062,2.441,-10.254,685.059,0.000
1737558130.270,-76.172,-10.254,-20.020,81.543,0.000
1737558130.274,-145.020,-24.902,-23.438,-489.258,0.000
1737558130.278,-30.273,-23.438,-18.555,-102.051,0.000
1737558130.282,98.145,-5.371,-15.625,778.320,0.000
1737558130.286,41.992,-9.277,-26.367,740.723,0.000
1737558130.289,-72.754,-20.508,-18.066,183.105,0.000
1737558130.293,-156.738,-15.625,2.930,-432.129,0.000
1737558130.297,-78.613,-20.996,4.395,-292.480,0.000
1737558130.301,60.547,-2.930,0.000,484.863,0.000
1737558130.305,46.387,3.418,-9.766,597.168,0.000
1737558130.309,-45.410,-20.996,-10.254,162.109,0.000
1737558130.313,-136.719,-50.293,-14.648,-432.129,0.000
1737558130.317,-85.449,-43.945,-19.043,-407.227,0.000
1737558130.321,62.500,0.977,-41.504,377.930,0.000
1737558130.325,78.613,22.461,-50.293,631.836,0.000
1737558130.329,-14.160,-15.625,6.348,224.609,0.000
1737558130.332,-116.699,-40.527,37.598,-430.176,0.000
1737558130.336,-81.055,-18.066,7.812,-514.160,0.000
1737558130.340,65.918,-11.719,-18.555,301.270,0.000
1737558130.344,94.238,-7.324,-19.043,671.387,0.000
1737558130.348,8.301,0.488,-22.949,266.113,0.000
1737558130.352,-79.590,-0.488,-16.602,-328.125,0.000
1737558130.356,-78.613,1.465,-14.648,-498.047,0.000
1737558130.360,52.246,-6.836,-6.348,218.262,0.000
1737558130.364,87.891,-34.668,-10.742,649.414,0.000
1737558130.368,0.488,-22.461,-20.508,330.078,0.000
1737558130.372,-111.328,8.301,-30.762,-216.309,0.000
1737558130.375,-142.090,5.371,-44.434,-522.461,0.000
1737558130.379,-11.719,-41.016,-28.320,68.359,0.000
1737558130.383,50.293,-58.105,-2.930,534.180,0.000
1737558130.387,-1.465,-33.691,1.953,254.395,0.000
1737558130.391,-79.590,-1.465,-15.625,-229.004,0.000
1737558130.395,-126.953,7.812,-13.672,-615.234,0.000
1737558130.399,-1.465,-12.207,1.465,-87.402,0.000
1737558130.403,83.496,-11.719,6.348,546.875,0.000
1737558130.407,22.949,-15.137,1.465,400.391,0.000
1737558130.411,-79.102,-17.090,-15.625,-118.652,0.000
1737558130.414,-144.531,-37.598,-25.391,-648.438,0.000
1737558130.418,-7.324,-45.898,-27.344,-120.117,0.000
1737558130.422,67.871,-0.488,-31.250,525.391,0.000
1737558130.426,2.930,-11.230,-27.344,266.602,0.000
1737558130.430,-71.289,-31.738,-32.715,-259.277,0.000
1737558130.434,-123.047,-6.348,-14.648,-677.246,0.000
1737558130.438,-26.367,2.441,2.441,-270.020,0.000
1737558130.442,76.172,-12.207,0.488,422.363,0.000
1737558130.446,49.805,-20.508,-2.930,412.598,0.000
1737558130.450,-51.758,-32.227,-5.859,-84.473,0.000
1737558130.454,-146.973,-32.227,-19.043,-709.961,0.000
1737558130.457,-61.523,-13.672,-15.625,-470.703,0.000
1737558130.461,84.961,0.000,-5.371,380.371,0.000
1737558130.465,76.172,-4.883,-10.742,562.988,0.000
1737558130.469,-29.785,-17.090,-19.043,159.180,0.000
1737558130.473,-145.996,-35.156,-16.113,-550.293,0.000
1737558130.477,-79.102,-51.270,-16.113,-575.195,0.000
1737558130.481,85.938,-25.391,-24.414,279.785,0.000
1737558130.485,79.102,16.113,-16.113,477.051,0.000
1737558130.489,-20.508,14.648,-14.648,40.039,0.000
1737558130.493,0.000,-22.461,-10.742,-595.703,0.000
1737558130.497,0.000,-24.414,3.906,-635.254,0.000
1737558130.500,0.000,5.859,0.488,224.121,0.000
1737558130.504,0.000,13.672,-19.531,562.988,0.000
1737558130.508,0.000,-3.418,-30.273,152.832,0.000
1737558130.512,0.000,-10.742,-10.254,-401.855,0.000
1737558130.516,0.000,-10.742,0.977,-482.910,0.000
1737558130.520,0.000,-16.113,-12.695,221.191,0.000
1737558130.524,0.000,-18.066,-12.207,567.871,0.000
1737558130.528,0.000,-27.832,-26.855,147.461,0.000
1737558130.532,0.000,-32.715,-28.320,-486.816,0.000
1737558130.536,0.000,-19.043,-2.930,-709.473,0.000
1737558130.539,17.578,7.324,-9.277,17.090,0.000
1737558130.543,68.848,4.883,-21.973,519.531,0.000
1737558130.547,4.883,-28.809,-29.297,260.742,0.000
1737558130.551,-92.285,-37.598,-14.160,-265.137,0.000
1737558130.555,-145.020,-22.949,-14.648,-681.641,0.000
1737558130.559,0.488,-18.555,-15.625,-72.266,0.000
1737558130.563,73.730,-10.254,-10.742,501.953,0.000
1737558130.567,8.301,-16.113,-16.602,215.332,0.000
1737558130.571,-75.195,-35.645,-21.484,-322.266,0.000
1737558130.575,-121.094,-16.602,-34.668,-721.191,0.000
1737558130.579,-14.160,-3.418,-30.273,-196.777,0.000
1737558130.582,75.195,-0.488,-10.742,475.586,0.000
1737558130.586,49.805,-23.926,0.000,423.828,0.000
1737558130.590,-57.129,-56.641,0.000,-165.039,0.000
1737558130.594,-144.043,-25.879,0.000,-765.137,0.000
1737558130.598,-26.367,-1.953,0.000,-284.668,0.000
1737558130.602,89.355,-6.348,0.000,490.723,0.000
1737558130.606,48.340,0.000,0.000,455.078,0.000
1737558130.610,-68.359,-9.277,0.000,-26.855,0.000
1737558130.614,-147.949,-47.363,0.000,-637.207,0.000
1737558130.618,-49.316,-31.738,0.000,-373.047,0.000
1737558130.621,60.059,4.395,0.000,392.090,0.000
1737558130.625,31.250,-3.418,0.000,406.250,0.000
1737558130.629,-57.617,-9.277,0.000,-51.270,0.000
1737558130.633,-154.785,-9.766,-6.348,-657.715,0.000
1737558130.637,-73.242,-6.836,-7.812,-478.027,0.000
1737558130.641,76.660,-1.953,-14.160,385.742,0.000
1737558130.645,42.969,-19.531,-5.371,467.285,0.000
1737558130.649,-46.387,-37.109,-13.184,10.254,0.000
1737558130.653,-119.141,-27.832,-10.254,-510.254,0.000
1737558130.657,-74.219,-23.438,3.418,-479.004,0.000
1737558130.661,53.711,-23.926,-5.859,202.148,0.000
1737558130.664,77.148,-2.930,-17.090,406.250,0.000
1737558130.668,-11.719,8.789,-32.715,62.500,0.000
1737558130.672,-136.230,0.488,-32.227,-542.969,0.000
1737558130.676,-108.398,-30.762,-9.766,-630.859,0.000
1737558130.680,40.527,-26.855,-16.602,173.828,0.000
1737558130.684,53.711,-8.301,-8.301,460.938,0.000
1737558130.688,-13.184,-6.348,8.301,132.324,0.000
1737558130.692,-111.328,-2.930,6.836,-440.918,0.000
1737558130.696,-114.746,-29.297,-5.371,-673.340,0.000
1737558130.700,54.199,-36.133,-5.371,156.250,0.000
1737558130.704,87.402,-11.230,-6.836,617.676,0.000
1737558130.707,-20.996,-18.555,-35.156,161.621,0.000
1737558130.711,-114.746,-16.602,-36.621,-476.562,0.000
1737558130.715,-108.887,5.371,-11.230,-688.477,0.000
1737558130.719,24.902,-2.930,-9.277,36.621,0.000
1737558130.723,65.430,-14.160,-13.184,502.441,0.000
1737558130.727,7.812,-3.418,0.488,200.684,0.000
1737558130.731,-83.984,-0.488,-5.371,-309.082,0.000
1737558130.735,-136.230,-20.020,-7.324,-718.262,0.000
1737558130.739,6.348,-26.367,8.301,-140.625,0.000
1737558130.743,88.867,-16.602,1.465,520.020,0.000
1737558130.746,24.414,-11.719,-0.488,378.906,0.000
1737558130.750,-79.102,-12.695,3.906,-177.734,0.000
1737558130.754,-133.301,-5.859,-8.301,-690.918,0.000
1737558130.758,-24.414,-12.207,-25.391,-290.527,0.000
1737558130.762,87.891,-13.672,-25.391,373.535,0.000
1737558130.766,59.082,-18.066,-7.812,331.543,0.000
1737558130.770,-45.898,-19.043,-8.789,-160.645,0.000
1737558130.774,-110.840,-2.441,-2.930,-721.680,0.000
1737558130.778,-18.066,-26.367,-20.996,-370.605,0.000
1737558130.782,80.566,-42.480,-58.594,373.535,0.000
1737558130.786,53.223,-19.531,-36.133,362.305,0.000
1737558130.789,-39.551,-14.160,-5.371,-105.469,0.000
1737558130.793,-113.281,4.395,0.977,-615.234,0.000
1737558130.797,-34.668,22.461,-2.441,-382.324,0.000
1737558130.801,94.238,1.465,-25.879,340.332,0.000
1737558130.805,80.566,0.000,-17.578,390.137,0.000
1737558130.809,-15.137,-29.785,3.906,-25.879,0.000
1737558130.813,-117.188,-38.086,-1.465,-611.328,0.000
1737558130.817,-66.895,0.000,-10.254,-548.340,0.000
1737558130.821,83.496,18.555,-29.297,298.340,0.000
1737558130.825,78.125,-16.113,-18.066,488.281,0.000
1737558130.829,-20.020,-47.852,-9.277,43.945,0.000
1737558130.832,-113.770,-21.973,-17.090,-575.195,0.000
1737558130.836,-65.918,0.977,-6.836,-578.613,0.000
1737558130.840,83.008,25.391,0.000,310.059,0.000
1737558130.844,70.312,23.926,-2.441,519.531,0.000
1737558130.848,-20.020,4.395,-3.906,38.086,0.000
1737558130.852,-99.121,-17.090,3.906,-502.441,0.000
1737558130.856,-92.773,-39.062,-5.371,-660.156,0.000
1737558130.860,53.711,-33.691,-19.043,70.312,0.000
1737558130.864,93.262,-39.062,-27.344,460.938,0.000
1737558130.868,23.926,-42.969,-39.062,193.359,0.000
1737558130.871,-81.543,-28.809,-36.133,-375.977,0.000
1737558130.875,-100.098,-7.812,-0.977,-677.246,0.000
1737558130.879,38.086,18.066,12.695,15.625,0.000
1737558130.883,88.867,12.207,-3.906,480.957,0.000
1737558130.887,22.461,-14.160,-6.836,208.008,0.000
1737558130.891,-81.055,-18.066,0.977,-322.266,0.000
1737558130.895,-132.812,-15.137,-9.277,-738.281,0.000
1737558130.899,5.371,-7.324,-19.531,-169.434,0.000
1737558130.903,98.633,-26.855,-17.090,431.641,0.000
1737558130.907,32.715,-38.086,-18.066,237.793,0.000
1737558130.911,-79.590,0.488,-36.621,-291.016,0.000
1737558130.914,-117.188,5.859,-42.969,-701.660,0.000
1737558130.918,17.578,-8.789,-21.484,-100.098,0.000
1737558130.922,94.238,-20.996,-19.043,585.449,0.000
1737558130.926,15.625,-42.969,-5.859,397.949,0.000
1737558130.930,-99.609,-39.062,4.883,-165.527,0.000
1737558130.934,-154.297,-26.855,-3.418,-708.496,0.000
1737558130.938,-24.902,-2.441,-0.977,-260.742,0.000
1737558130.942,67.383,5.371,-6.836,436.523,0.000
1737558130.946,7.324,-12.695,-29.297,331.543,0.000
1737558130.950,-87.891,-20.020,-32.227,-172.363,0.000
1737558130.954,-144.531,-23.438,-20.996,-640.137,0.000
1737558130.957,-50.781,-15.625,-7.812,-282.715,0.000
1737558130.961,59.082,-13.672,-12.207,463.867,0.000
1737558130.965,21.484,-12.695,-32.227,445.801,0.000
1737558130.969,-79.590,-18.066,-22.461,-65.918,0.000
1737558130.973,-166.992,-29.297,-3.906,-639.648,0.000
1737558130.977,-75.195,-39.551,-6.348,-395.508,0.000
1737558130.981,75.684,-36.621,-12.207,490.723,0.000
1737558130.985,33.691,-6.836,-17.578,577.148,0.000
1737558130.989,-89.355,-10.742,-19.043,0.977,0.000
1737558130.993,-175.293,-43.945,-31.738,-681.641,0.000
1737558130.996,-104.980,-30.273,-33.691,-551.758,0.000
1737558131.000,26.855,7.324,-24.902,309.082,0.000
1737558131.004,22.461,12.695,-21.484,481.445,0.000
1737558131.008,-54.688,-8.301,-26.367,35.156,0.000
1737558131.012,-137.207,-30.762,-20.508,-554.199,0.000
1737558131.016,-109.375,-15.625,-6.348,-622.559,0.000
1737558131.020,29.297,11.230,4.883,169.434,0.000
1737558131.024,40.039,3.906,-11.719,506.348,0.000
1737558131.028,-34.180,-25.391,-26.855,209.473,0.000
1737558131.032,-130.371,-27.344,-8.301,-311.035,0.000
1737558131.036,-147.461,-14.648,-11.230,-566.406,0.000
1737558131.039,16.113,-1.465,-24.902,225.586,0.000
1737558131.043,60.547,-14.160,-16.602,763.672,0.000
1737558131.047,-25.879,-19.043,-27.344,463.379,0.000
1737558131.051,-109.863,7.812,-38.086,-19.043,0.000
1737558131.055,-136.719,1.953,0.000,-238.281,0.000
1737558131.059,-18.555,-16.602,0.000,353.027,0.000
1737558131.063,40.039,-35.156,0.000,808.105,0.000
1737558131.067,-25.391,-19.043,0.000,582.031,0.000
1737558131.071,-138.672,2.930,0.000,12.207,0.000
1737558131.075,-174.316,-6.348,0.000,-360.840,0.000
1737558131.079,-17.578,-20.996,0.000,314.941,0.000
1737558131.082,62.988,-30.273,0.000,898.926,0.000
1737558131.086,-19.043,-3.906,0.000,564.453,0.000
1737558131.090,-106.934,13.184,0.000,50.293,0.000
1737558131.094,-155.762,-3.906,0.000,-402.832,0.000
1737558131.098,-34.180,-13.184,0.000,88.379,0.000
1737558131.102,65.430,-5.371,-21.973,808.105,0.000
1737558131.106,1.465,-10.254,-5.859,633.301,0.000
1737558131.110,-95.215,-52.734,-9.766,57.617,0.000
1737558131.114,-157.227,-51.270,-15.625,-527.832,0.000
1737558131.118,-56.152,-1.465,-8.301,-166.504,0.000
1737558131.121,75.684,18.555,-4.883,669.922,0.000
1737558131.125,32.715,-1.953,-15.625,646.484,0.000
1737558131.129,-76.172,-14.160,-26.367,62.012,0.000
1737558131.133,-158.691,-23.438,-21.484,-547.852,0.000
1737558131.137,-58.594,-18.066,-18.555,-269.043,0.000
1737558131.141,79.102,-6.836,-16.602,560.547,0.000
1737558131.145,51.758,-14.160,-11.719,643.066,0.000
1737558131.149,-44.922,-12.695,4.883,151.367,0.000
1737558131.153,-142.578,-3.418,-1.465,-501.465,0.000
1737558131.157,-67.871,-23.926,-8.301,-358.398,0.000
1737558131.161,60.059,-37.598,-13.672,417.480,0.000
1737558131.164,46.875,-16.602,-39.551,525.391,0.000
1737558131.168,-27.344,-9.766,-39.551,168.945,0.000
1737558131.172,-132.324,-16.113,-20.020,-416.992,0.000
1737558131.176,-99.121,-22.949,0.488,-515.625,0.000
1737558131.180,64.453,-1.953,2.930,315.918,0.000
1737558131.184,67.871,-8.301,-30.762,619.629,0.000
1737558131.188,-43.457,-28.809,-40.039,174.805,0.000
1737558131.192,-140.137,-14.160,-12.207,-441.406,0.000
1737558131.196,0.000,-8.301,-2.930,-565.430,0.000
1737558131.200,0.000,0.488,-12.695,238.281,0.000
1737558131.204,0.000,0.977,-14.160,610.840,0.000
1737558131.207,0.000,-25.879,-13.672,234.375,0.000
1737558131.211,0.000,-22.461,-34.668,-265.625,0.000
1737558131.215,0.000,2.441,-33.691,-416.504,0.000
1737558131.219,0.000,-10.742,-14.160,194.336,0.000
1737558131.223,0.000,-23.926,-13.672,551.270,0.000
1737558131.227,0.000,-10.254,-11.719,209.473,0.000
1737558131.231,0.000,-5.859,-4.395,-362.305,0.000
1737558131.235,0.000,-14.160,-1.953,-720.703,0.000
1737558131.239,0.000,-30.762,6.348,-154.785,0.000
1737558131.243,82.031,-9.766,0.000,419.922,0.000
1737558131.246,28.320,5.859,0.000,236.816,0.000
1737558131.250,-74.219,-17.090,0.000,-304.199,0.000
1737558131.254,-120.605,-20.996,0.000,-721.191,0.000
1737558131.258,10.254,4.395,0.000,-148.438,0.000
1737558131.262,98.145,0.977,0.000,552.734,0.000
1737558131.266,22.949,-20.508,0.000,380.859,0.000
1737558131.270,-85.449,-22.461,0.000,-198.242,0.000
1737558131.274,-153.320,-20.508,0.000,-754.395,0.000
1737558131.278,-39.551,-24.902,0.000,-366.699,0.000
1737558131.282,95.703,-22.461,0.000,452.148,0.000
1737558131.286,48.340,-22.461,0.000,422.852,0.000
1737558131.289,0.000,-18.555,-7.324,-131.348,0.000
1737558131.293,0.000,3.906,-11.719,-682.617,0.000
1737558131.297,0.000,14.160,-10.254,-295.898,0.000
1737558131.301,0.000,9.277,0.977,479.980,0.000
1737558131.305,0.000,4.883,6.836,388.672,0.000
1737558131.309,0.000,4.883,2.441,-56.641,0.000
1737558131.313,0.000,-9.277,-7.324,-615.234,0.000
1737558131.317,0.000,-19.531,-19.043,-563.477,0.000
1737558131.321,0.000,-6.348,-19.043,123.535,0.000
1737558131.325,0.000,-2.930,-22.949,146.973,0.000
1737558131.329,0.000,3.906,-25.879,-416.504,0.000
1737558131.332,0.000,1.465,-13.184,-936.035,0.000
1737558131.336,-200.195,-4.883,0.000,0.000,0.000
1737558131.340,-114.258,-2.441,0.000,0.000,0.000
1737558131.344,-119.141,11.719,0.000,0.000,0.000
1737558131.348,-205.566,0.977,0.000,0.000,0.000
1737558131.352,-291.504,-20.508,0.000,0.000,0.000
1737558131.356,-295.410,-37.598,0.000,0.000,0.000
1737558131.360,-206.543,-89.355,0.000,0.000,0.000
1737558131.364,-175.293,-69.336,0.000,0.000,0.000
1737558131.368,-231.934,11.719,0.000,0.000,0.000
1737558131.371,-324.219,34.180,0.000,0.000,0.000
1737558131.375,-307.617,33.203,0.000,0.000,0.000
1737558131.379,-151.367,26.367,0.000,0.000,0.000
1737558131.383,0.000,-4.883,-6.836,97.656,0.000
1737558131.387,0.000,-21.484,-0.488,-89.844,0.000
1737558131.391,0.000,-12.207,-11.230,-535.156,0.000
1737558131.395,0.000,-11.230,-45.898,-675.293,0.000
1737558131.399,0.000,16.602,-45.410,220.215,0.000
1737558131.403,0.000,24.414,-18.555,949.219,0.000
1737558131.407,0.000,-23.438,-10.254,843.750,0.000
1737558131.411,0.000,-40.039,-17.090,279.297,0.000
1737558131.414,0.000,0.000,-40.039,-136.719,0.000
1737558131.418,0.000,29.297,-25.391,486.816,0.000
1737558131.422,0.000,10.254,-2.441,985.352,0.000
1737558131.426,0.000,7.812,-19.531,676.270,0.000
1737558131.430,-118.652,17.578,-34.180,80.078,0.000
1737558131.434,-148.438,-27.832,-23.438,-443.848,0.000
1737558131.438,-8.301,-39.062,-19.043,35.645,0.000
1737558131.442,87.402,5.859,-23.926,760.742,0.000
1737558131.446,39.062,18.555,-20.020,612.305,0.000
1737558131.450,-22.949,3.906,-31.738,128.906,0.000
1737558131.454,-79.102,-11.719,-35.645,-364.746,0.000
1737558131.457,13.184,-20.020,-22.949,-89.844,0.000
1737558131.461,142.578,-49.316,-20.996,625.000,0.000
1737558131.465,116.699,-48.340,-38.574,595.215,0.000
1737558131.469,28.809,-6.348,-42.969,114.746,0.000
1737558131.473,-44.922,-36.621,-31.250,-464.844,0.000
1737558131.477,31.250,-53.223,-23.438,-232.910,0.000
1737558131.481,143.555,-0.488,-11.719,565.430,0.000
1737558131.485,100.098,9.277,-3.906,561.035,0.000
1737558131.489,19.531,-25.879,-0.977,105.957,0.000
1737558131.493,-70.801,-39.551,-13.184,-469.727,0.000
1737558131.496,1.465,-16.602,-19.531,-340.332,0.000
1737558131.500,166.504,-8.301,3.418,624.023,0.000
1737558131.504,140.137,-26.855,2.441,736.816,0.000
1737558131.508,9.766,-37.109,-19.531,71.777,0.000
1737558131.512,-84.961,-28.809,-14.160,-568.848,0.000
1737558131.516,-17.090,-8.301,-9.277,-472.168,0.000
1737558131.520,106.445,5.859,-23.438,308.105,0.000
1737558131.524,114.258,-5.859,-41.992,548.828,0.000
1737558131.528,42.969,-23.926,-42.480,183.105,0.000
1737558131.532,-52.734,-22.461,-15.137,-354.980,0.000
1737558131.536,-32.715,-16.602,6.348,-389.160,0.000
1737558131.539,100.586,-25.391,4.395,363.281,0.000
1737558131.543,145.508,-43.945,-10.254,745.117,0.000
1737558131.547,61.035,-43.457,-5.859,390.625,0.000
1737558131.551,-55.176,-61.523,-3.418,-266.602,0.000
1737558131.555,-54.688,-44.434,-13.672,-553.711,0.000
1737558131.559,90.820,14.160,-14.160,180.176,0.000
1737558131.563,124.023,24.414,-8.301,636.230,0.000
1737558131.567,45.898,4.395,3.418,297.852,0.000
1737558131.571,-51.758,-10.742,3.906,-261.230,0.000
1737558131.575,-81.543,-7.324,-26.367,-633.789,0.000
1737558131.578,68.848,-15.137,-23.926,28.809,0.000
1737558131.582,127.441,-37.109,-20.020,643.555,0.000
1737558131.586,43.457,-32.227,-39.062,398.438,0.000
1737558131.590,-47.363,-14.160,-14.648,-119.141,0.000
1737558131.594,-108.398,-27.344,8.789,-635.254,0.000
1737558131.598,15.625,-47.363,7.812,-205.566,0.000
1737558131.602,122.559,-35.156,2.930,487.793,0.000
1737558131.606,59.082,-2.930,-10.254,372.070,0.000
1737558131.610,-55.176,5.371,-15.137,-194.336,0.000
1737558131.614,-95.215,-12.207,-13.184,-659.668,0.000
1737558131.618,0.000,-4.883,0.000,-301.270,0.000
1737558131.621,0.000,0.977,0.000,202.637,0.000
1737558131.625,0.000,-7.324,0.000,-84.473,0.000
1737558131.629,0.000,-0.977,0.000,-680.176,0.000
1737558131.633,0.000,4.883,0.000,-1000.000,0.000
