timestamps,TP9,AF7,AF8,TP10,Right AUX
1737553009.928,7.812,-39.551,-8.789,-217.285,0.000
1737553009.932,15.137,-1.465,-4.395,999.512,0.000
1737553009.936,2.930,14.648,-27.832,729.980,0.000
1737553009.940,-44.922,-14.160,-36.621,-701.660,0.000
1737553009.944,-48.828,-28.809,-13.184,-1000.000,0.000
1737553009.947,-22.461,-27.344,-13.184,-916.992,0.000
1737553009.951,0.977,-26.367,-20.508,334.961,0.000
1737553009.955,11.719,-28.320,-33.203,928.711,0.000
1737553009.959,-13.672,-23.438,-41.504,-625.000,0.000
1737553009.963,-41.016,-20.020,-33.203,-1000.000,0.000
1737553009.967,-46.875,-10.254,-6.836,-977.051,0.000
1737553009.971,-29.297,-8.789,7.324,-204.102,0.000
1737553009.975,2.930,-30.273,-0.488,869.629,0.000
1737553009.979,-15.625,-29.785,-2.441,-320.312,0.000
1737553009.983,-31.738,-15.625,-1.953,-1000.000,0.000
1737553009.986,-16.113,-4.395,-15.137,-196.777,0.000
1737553009.990,15.137,9.277,-32.715,927.734,0.000
1737553009.994,36.133,0.000,-29.785,981.934,0.000
1737553009.998,22.461,-31.250,-33.691,936.035,0.000
1737553010.002,2.441,-33.691,-31.250,980.469,0.000
1737553010.006,-18.555,-24.902,-8.789,970.215,0.000
1737553010.010,-17.090,-15.137,3.418,970.703,0.000
1737553010.014,-3.906,-5.859,2.930,970.703,0.000
1737553010.018,-17.090,-15.137,1.953,970.703,0.000
1737553010.022,-33.691,-10.254,4.883,970.703,0.000
1737553010.026,-32.227,-3.418,-3.418,970.703,0.000
1737553010.029,-30.762,-6.836,-28.809,970.703,0.000
1737553010.033,-33.203,-5.371,-26.855,970.703,0.000
1737553010.037,-20.508,-5.371,-33.203,970.703,0.000
1737553010.041,-1.953,-2.441,-18.066,970.703,0.000
1737553010.045,-12.695,-8.789,-5.859,970.215,0.000
1737553010.049,-54.199,-12.695,-15.625,970.703,0.000
1737553010.053,-67.871,-19.043,-7.812,970.703,0.000
1737553010.057,-66.406,-30.273,-25.879,970.703,0.000
1737553010.061,-71.289,-33.203,-31.738,970.703,0.000
1737553010.065,-82.031,-28.809,-12.695,970.703,0.000
1737553010.068,-82.031,-13.672,-14.648,970.703,0.000
1737553010.072,-74.707,-32.715,-38.574,970.703,0.000
1737553010.076,-95.215,-34.180,-40.527,970.703,0.000
1737553010.080,-103.516,-6.836,-14.160,970.703,0.000
1737553010.084,-100.586,-10.742,-8.789,970.703,0.000
1737553010.088,-119.141,-7.324,-17.090,970.703,0.000
1737553010.092,-107.422,2.930,-29.297,970.703,0.000
1737553010.096,-88.379,-7.324,-22.461,970.703,0.000
1737553010.100,-74.707,-15.137,-20.020,970.703,0.000
1737553010.104,-43.945,-34.668,-36.133,970.703,0.000
1737553010.108,-43.945,-41.992,-24.414,970.703,0.000
1737553010.111,-50.293,-14.160,-7.812,970.703,0.000
1737553010.115,-39.062,2.441,-8.789,970.703,0.000
1737553010.119,-44.434,2.930,-7.812,970.703,0.000
1737553010.123,-41.504,-12.695,-28.320,970.703,0.000
1737553010.127,-45.898,-34.668,-21.973,970.703,0.000
1737553010.131,-59.082,-32.227,-20.508,970.703,0.000
1737553010.135,-60.059,-20.508,-31.738,970.703,0.000
1737553010.139,-52.734,-29.785,-25.879,970.703,0.000
1737553010.143,-36.133,-32.227,-13.672,970.703,0.000
1737553010.147,-39.551,-31.250,0.977,970.703,0.000
1737553010.151,-40.527,-14.648,-17.090,970.703,0.000
1737553010.154,-40.527,10.254,-13.672,970.703,0.000
1737553010.158,-55.176,-1.953,-4.883,970.703,0.000
1737553010.162,-56.152,-15.137,-17.578,970.703,0.000
1737553010.166,-39.551,-12.207,-22.949,970.703,0.000
1737553010.170,-32.715,-38.086,-30.273,970.703,0.000
1737553010.174,-34.668,-39.551,-37.109,970.703,0.000
1737553010.178,-22.949,-4.883,-12.695,970.703,0.000
1737553010.182,-17.090,-12.207,-4.883,970.703,0.000
1737553010.186,-41.992,-13.184,-11.719,970.703,0.000
1737553010.190,-55.176,-11.719,-9.766,970.703,0.000
1737553010.193,-40.527,-21.973,-13.184,970.703,0.000
1737553010.197,-25.391,-20.508,-21.484,970.703,0.000
1737553010.201,-2.930,-17.090,-15.625,970.703,0.000
1737553010.205,0.000,-15.137,-25.391,970.703,0.000
1737553010.209,-28.809,-13.672,-33.203,970.703,0.000
1737553010.213,-44.922,-10.254,-29.785,970.703,0.000
1737553010.217,-22.461,-13.672,-37.109,970.703,0.000
1737553010.221,4.395,-7.324,-17.090,970.703,0.000
1737553010.225,-10.742,-10.742,1.953,983.887,0.000
1737553010.229,-26.855,-38.574,-6.348,922.852,0.000
1737553010.233,-28.809,-35.156,-14.160,986.816,0.000
1737553010.236,-26.367,-9.766,-21.973,980.469,0.000
1737553010.240,-39.062,-8.789,-20.508,-548.340,0.000
1737553010.244,-44.922,-16.602,-34.668,-911.621,0.000
1737553010.248,-10.254,-1.953,-27.344,733.887,0.000
1737553010.252,-6.348,-9.277,-8.789,999.512,0.000
1737553010.256,-19.531,-15.625,-15.137,901.855,0.000
1737553010.260,-24.902,-13.672,-23.926,986.328,0.000
1737553010.264,-6.348,-36.133,-26.367,970.703,0.000
1737553010.268,-5.859,-41.016,-5.371,970.703,0.000
1737553010.272,-31.250,-20.996,-7.324,970.703,0.000
1737553010.276,-16.113,-6.836,-8.301,970.703,0.000
1737553010.279,-13.672,-20.996,-8.301,970.703,0.000
1737553010.283,-11.719,-19.531,-13.672,970.703,0.000
1737553010.287,-16.113,-10.254,-22.461,970.703,0.000
1737553010.291,-29.297,-8.301,-22.949,970.703,0.000
1737553010.295,-24.414,-28.320,-31.738,970.703,0.000
1737553010.299,-33.691,-25.879,-28.809,970.703,0.000
1737553010.303,-43.457,0.977,-2.930,970.703,0.000
1737553010.307,-28.809,-0.977,6.836,974.609,0.000
1737553010.311,-21.973,-19.531,-2.441,947.754,0.000
1737553010.315,-21.484,-21.484,-16.602,999.512,0.000
1737553010.318,-22.949,-10.254,-7.324,846.680,0.000
1737553010.322,-14.160,-1.465,-2.930,604.492,0.000
1737553010.326,2.441,-7.812,-8.789,861.816,0.000
1737553010.330,-4.883,-26.367,-10.742,999.512,0.000
1737553010.334,-25.879,-36.133,-29.785,856.445,0.000
1737553010.338,-32.227,-30.273,-15.625,-563.965,0.000
1737553010.342,-37.109,-7.812,3.418,-1000.000,0.000
1737553010.346,-50.781,-2.441,-7.324,-925.781,0.000
1737553010.350,-53.223,-32.715,-24.414,-1000.000,0.000
1737553010.354,-78.125,-32.227,-29.785,-992.188,0.000
1737553010.358,-93.750,-17.578,-14.648,-959.473,0.000
1737553010.361,-81.543,-30.273,-25.879,-1000.000,0.000
1737553010.365,-67.383,-20.508,-19.531,-170.898,0.000
1737553010.369,-50.781,3.906,-4.395,987.305,0.000
1737553010.373,-22.461,1.465,-16.113,963.867,0.000
1737553010.377,-6.348,-24.902,-6.348,943.848,0.000
1737553010.381,-41.992,-33.691,-7.324,978.516,0.000
1737553010.385,-58.105,-19.043,-11.719,970.703,0.000
1737553010.389,-44.922,-19.531,-7.812,970.703,0.000
1737553010.393,-43.945,-11.719,-11.719,970.703,0.000
1737553010.397,-36.133,-3.906,-27.344,970.703,0.000
1737553010.400,-25.879,-10.742,-42.480,970.703,0.000
1737553010.404,-20.508,-7.812,-27.344,970.703,0.000
1737553010.408,-32.715,-23.438,-19.531,970.703,0.000
1737553010.412,-59.082,-42.969,-25.391,970.703,0.000
1737553010.416,-45.898,-36.621,-9.766,970.703,0.000
1737553010.420,-52.246,-35.645,-9.277,970.703,0.000
1737553010.424,-68.359,-35.645,-35.156,970.703,0.000
1737553010.428,-55.664,-22.461,-38.086,970.703,0.000
1737553010.432,-41.016,-15.625,-20.996,970.703,0.000
1737553010.436,-34.668,-12.207,-17.090,970.703,0.000
1737553010.440,-21.484,-18.555,-23.926,970.703,0.000
1737553010.443,-8.301,-30.762,-23.438,974.609,0.000
1737553010.447,-5.859,-30.273,-26.855,965.332,0.000
1737553010.451,-21.484,-11.230,-29.297,915.527,0.000
1737553010.455,-34.180,-14.160,-27.832,999.512,0.000
1737553010.459,-44.922,-29.297,-28.809,197.266,0.000
1737553010.463,-50.781,-13.672,-26.855,-823.730,0.000
1737553010.467,-12.695,-2.441,-21.484,551.758,0.000
1737553010.471,-5.371,-26.367,-15.625,999.512,0.000
1737553010.475,-11.719,-27.832,-20.508,891.602,0.000
1737553010.479,-14.648,-6.836,-25.879,947.266,0.000
1737553010.483,0.000,-10.254,-28.809,941.895,0.000
1737553010.486,7.812,-41.504,-25.879,978.516,0.000
1737553010.490,-22.461,-46.387,-15.137,967.773,0.000
1737553010.494,-40.039,-19.531,0.488,971.191,0.000
1737553010.498,-32.715,-24.414,-1.953,970.703,0.000
1737553010.502,-15.625,-25.879,-19.043,970.703,0.000
1737553010.506,-19.043,-19.043,-19.531,970.703,0.000
1737553010.510,-49.805,-27.344,-13.672,970.703,0.000
1737553010.514,-43.457,-20.996,-20.996,970.703,0.000
1737553010.518,-15.625,-23.438,-50.781,970.703,0.000
1737553010.522,-14.160,-23.926,-18.555,970.703,0.000
1737553010.525,-20.020,-7.812,9.766,970.703,0.000
1737553010.529,-19.043,-28.320,-7.324,970.703,0.000
1737553010.533,-7.812,-36.133,-9.277,970.703,0.000
1737553010.537,-21.484,-33.203,-8.301,970.703,0.000
1737553010.541,-44.434,-39.062,-24.902,970.703,0.000
1737553010.545,-45.410,-17.090,-28.320,970.703,0.000
1737553010.549,-31.738,-6.836,-20.508,970.703,0.000
1737553010.553,-30.762,-18.066,-29.785,970.703,0.000
1737553010.557,-40.039,-23.438,-16.113,970.703,0.000
1737553010.561,-36.133,-18.066,-13.184,970.703,0.000
1737553010.565,-27.344,-1.953,-10.254,970.703,0.000
1737553010.568,-25.391,-9.277,-7.812,970.703,0.000
1737553010.572,-7.812,-26.367,-18.066,970.703,0.000
1737553010.576,10.742,-22.461,-21.484,970.703,0.000
1737553010.580,15.137,-23.438,-17.578,970.703,0.000
1737553010.584,20.020,-42.969,-24.414,970.215,0.000
1737553010.588,-12.207,-35.156,-36.133,970.703,0.000
1737553010.592,-26.367,-16.113,-20.020,970.703,0.000
1737553010.596,-2.930,-16.602,1.465,970.703,0.000
1737553010.600,-4.883,-8.301,-9.277,970.703,0.000
1737553010.604,-6.836,-7.812,-16.602,970.703,0.000
1737553010.608,-7.812,-14.160,-17.578,970.703,0.000
1737553010.611,-4.883,-14.648,-25.391,970.703,0.000
1737553010.615,-1.953,-32.715,-33.203,970.703,0.000
1737553010.619,-27.832,-33.691,-49.316,970.703,0.000
1737553010.623,-22.461,-14.160,-28.809,971.680,0.000
1737553010.627,-15.137,-34.180,-1.953,979.004,0.000
1737553010.631,-37.598,-35.156,-1.465,903.809,0.000
1737553010.635,-43.457,-3.418,0.000,999.512,0.000
1737553010.639,-49.316,-2.441,-24.902,555.664,0.000
1737553010.643,-61.035,-16.113,-25.391,-772.461,0.000
1737553010.647,-25.879,-12.207,-11.230,309.570,0.000
1737553010.650,12.695,-12.695,-19.531,999.512,0.000
1737553010.654,16.113,-23.438,-14.648,977.539,0.000
1737553010.658,1.953,-11.230,-25.391,801.758,0.000
1737553010.662,-42.480,-15.137,-39.551,-709.961,0.000
1737553010.666,-42.969,-16.602,-28.320,-29.297,0.000
1737553010.670,-11.230,-23.438,-15.625,999.512,0.000
1737553010.674,-9.277,-40.039,-8.789,997.559,0.000
1737553010.678,-21.973,-51.758,-8.789,762.695,0.000
1737553010.682,-65.430,-42.969,-15.137,-783.691,0.000
1737553010.686,-48.828,3.418,-19.531,-333.496,0.000
1737553010.690,-7.324,11.230,-20.508,964.844,0.000
1737553010.693,-18.555,-4.395,-24.902,992.188,0.000
1737553010.697,-14.648,-13.672,-10.742,911.621,0.000
1737553010.701,-37.109,-9.766,-12.207,-593.750,0.000
1737553010.705,-55.176,-19.531,-13.672,-815.430,0.000
1737553010.709,-11.719,-36.621,-20.508,709.961,0.000
1737553010.713,2.930,-32.715,-29.785,999.512,0.000
1737553010.717,-7.324,-18.555,3.418,620.117,0.000
1737553010.721,-31.738,-10.742,2.441,-745.605,0.000
1737553010.725,-22.949,-13.184,-17.578,-1000.000,0.000
1737553010.729,19.043,-3.906,-16.113,139.160,0.000
1737553010.733,27.832,-4.883,-29.297,999.512,0.000
1737553010.736,-2.441,-21.484,-32.227,827.637,0.000
1737553010.740,-41.992,-28.320,-20.996,-697.266,0.000
1737553010.744,-36.621,-31.738,2.930,-1000.000,0.000
1737553010.748,4.883,-22.461,-2.441,581.543,0.000
1737553010.752,10.254,-7.812,-20.996,999.512,0.000
1737553010.756,-3.906,1.953,-11.230,999.512,0.000
1737553010.760,-21.973,0.000,-10.254,132.324,0.000
1737553010.764,-42.969,-17.578,-19.531,-810.547,0.000
1737553010.768,-27.344,-20.020,-19.043,597.168,0.000
1737553010.772,-17.578,-15.625,-15.137,999.512,0.000
1737553010.775,-11.230,-20.020,-20.020,888.672,0.000
1737553010.779,-8.301,-24.414,-23.438,986.816,0.000
1737553010.783,-9.277,-14.648,-11.719,978.516,0.000
1737553010.787,-15.137,-15.137,-9.277,944.336,0.000
1737553010.791,-25.391,-25.879,-13.672,958.496,0.000
1737553010.795,-26.855,-24.902,-22.461,999.512,0.000
1737553010.799,-40.039,-14.648,-29.297,-142.090,0.000
1737553010.803,-41.992,-11.719,-15.137,-1000.000,0.000
1737553010.807,-41.992,-28.320,-34.180,-973.145,0.000
1737553010.811,-33.203,-36.133,-46.387,93.750,0.000
1737553010.815,-6.348,-27.344,-23.926,999.512,0.000
1737553010.818,-19.043,-23.926,-11.719,-219.238,0.000
1737553010.822,-23.926,-30.273,-23.438,-1000.000,0.000
1737553010.826,-23.438,-20.020,-15.137,-927.734,0.000
1737553010.830,-23.926,-6.836,-15.137,229.980,0.000
1737553010.834,-13.184,1.465,-12.695,999.512,0.000
1737553010.838,-50.293,-4.395,-14.648,-44.434,0.000
1737553010.842,-63.477,-15.625,-23.926,-1000.000,0.000
1737553010.846,-37.109,-33.691,-15.137,-1000.000,0.000
1737553010.850,-9.766,-38.574,-17.090,-452.637,0.000
1737553010.854,12.207,-34.180,-17.090,898.926,0.000
1737553010.857,7.324,-12.207,-19.531,649.414,0.000
1737553010.861,-16.602,-0.488,-30.273,-942.871,0.000
1737553010.865,-25.391,-4.883,-23.438,-838.379,0.000
1737553010.869,-7.812,-3.418,-8.789,647.461,0.000
1737553010.873,-3.418,-14.160,-20.020,999.512,0.000
1737553010.877,16.602,-21.973,-38.574,901.855,0.000
1737553010.881,0.000,-28.809,-17.578,-554.199,0.000
1737553010.885,-34.668,-14.160,-0.488,-599.609,0.000
1737553010.889,-5.859,-10.742,-14.648,920.898,0.000
1737553010.893,-11.230,-26.855,-8.789,999.512,0.000
1737553010.897,-21.973,-13.672,-11.230,923.340,0.000
1737553010.900,-9.766,-22.949,-19.531,702.148,0.000
1737553010.904,4.395,-28.809,-4.395,830.566,0.000
1737553010.908,-5.859,-5.371,-4.395,987.793,0.000
1737553010.912,-22.949,4.883,-12.207,931.152,0.000
1737553010.916,-13.184,-5.371,-22.949,999.512,0.000
1737553010.920,-39.551,-6.836,-26.367,-271.484,0.000
1737553010.924,-48.828,-5.859,-27.832,-904.785,0.000
1737553010.928,-2.441,-20.020,-14.648,635.254,0.000
1737553010.932,-3.906,-22.949,-18.066,999.512,0.000
1737553010.936,-27.344,-31.738,-34.180,841.309,0.000
1737553010.940,-56.152,-54.199,-21.973,-402.344,0.000
1737553010.943,-77.148,-44.922,-26.855,-1000.000,0.000
1737553010.947,-52.246,-8.301,-16.113,-861.328,0.000
1737553010.951,-24.414,4.883,7.812,525.879,0.000
1737553010.955,-5.371,-15.137,-11.719,999.512,0.000
1737553010.959,-28.320,-24.414,-34.180,-522.461,0.000
1737553010.963,-46.875,-24.414,-23.926,-1000.000,0.000
1737553010.967,-45.410,-24.414,-23.438,-1000.000,0.000
1737553010.971,-30.762,-23.438,-31.738,-444.824,0.000
1737553010.975,0.000,-54.199,-21.973,780.762,0.000
1737553010.979,-26.367,-41.016,-14.160,-246.582,0.000
1737553010.982,-26.367,18.555,-22.949,-1000.000,0.000
1737553010.986,3.906,20.508,-12.207,-959.961,0.000
1737553010.990,16.113,-3.906,-9.766,-24.414,0.000
1737553010.994,6.836,-6.836,-12.207,999.512,0.000
1737553010.998,-33.691,-6.348,-14.160,125.488,0.000
1737553011.002,-37.109,-7.324,-18.555,-1000.000,0.000
1737553011.006,-23.438,-18.066,-6.836,-797.852,0.000
1737553011.010,-13.672,-28.809,-5.371,578.125,0.000
1737553011.014,8.789,-19.043,-11.230,999.512,0.000
1737553011.018,-4.883,-12.207,-28.320,582.031,0.000
1737553011.022,-70.801,-20.996,-41.016,-865.723,0.000
1737553011.025,-62.988,-25.879,-26.855,-715.820,0.000
1737553011.029,-15.625,0.000,-7.324,731.445,0.000
1737553011.033,-22.461,3.906,-1.465,999.512,0.000
1737553011.037,-26.855,-22.461,-10.742,714.355,0.000
1737553011.041,-37.598,-33.691,-11.719,-758.301,0.000
1737553011.045,-30.273,-11.230,-17.090,-953.613,0.000
1737553011.049,0.000,0.000,-31.250,544.434,0.000
1737553011.053,19.531,-9.277,-25.879,999.512,0.000
1737553011.057,20.996,-24.414,-28.809,701.660,0.000
1737553011.061,-19.043,-49.805,-24.414,-702.148,0.000
1737553011.064,-50.293,-35.645,-4.395,-1000.000,0.000
1737553011.068,-29.785,-4.883,-20.020,259.766,0.000
1737553011.072,-4.395,-5.371,-22.949,999.512,0.000
1737553011.076,-7.812,-11.719,-11.719,797.363,0.000
1737553011.080,-18.555,-20.020,-30.762,-554.688,0.000
1737553011.084,-14.648,-18.555,-30.762,-1000.000,0.000
1737553011.088,8.789,-18.066,-14.648,-421.387,0.000
1737553011.092,42.969,-17.578,-38.574,798.828,0.000
1737553011.096,-2.930,-29.297,-17.578,999.512,0.000
1737553011.100,-55.664,-47.852,4.395,-352.539,0.000
1737553011.104,-71.777,-36.621,-11.230,-1000.000,0.000
1737553011.107,-59.082,-13.672,-8.301,380.859,0.000
1737553011.111,-47.852,3.906,-10.742,999.512,0.000
1737553011.115,-57.129,-3.418,-31.250,999.512,0.000
1737553011.119,-55.664,0.488,-35.645,233.887,0.000
1737553011.123,-57.129,-3.906,-17.578,-889.648,0.000
1737553011.127,-39.062,-20.020,-16.602,415.039,0.000
1737553011.131,-10.742,-23.438,-11.719,999.512,0.000
1737553011.135,-15.137,-29.785,-5.371,949.707,0.000
1737553011.139,-38.086,-38.086,-10.742,178.223,0.000
1737553011.143,-36.621,-36.133,-20.996,-1000.000,0.000
1737553011.147,-21.484,-12.207,-34.668,-878.418,0.000
1737553011.150,-7.812,2.930,-20.508,624.023,0.000
1737553011.154,-3.906,-6.836,-13.184,999.512,0.000
1737553011.158,-34.668,-16.602,-20.508,-453.613,0.000
1737553011.162,-52.246,-10.742,-42.480,-1000.000,0.000
1737553011.166,-38.086,-6.348,-37.598,-932.617,0.000
1737553011.170,-19.531,-9.766,-12.207,-1000.000,0.000
1737553011.174,-22.949,-22.949,-20.020,-1000.000,0.000
1737553011.178,-11.719,-18.555,-15.137,-1000.000,0.000
1737553011.182,9.277,-0.488,-16.113,-1000.000,0.000
1737553011.186,8.789,-12.207,-22.949,-1000.000,0.000
1737553011.189,11.719,-31.738,-30.762,-1000.000,0.000
1737553011.193,-3.418,-14.160,-36.621,-1000.000,0.000
1737553011.197,-33.203,2.930,-33.691,-940.430,0.000
1737553011.201,-43.945,-8.301,-11.719,-1000.000,0.000
1737553011.205,-22.461,-16.602,-3.418,-608.887,0.000
1737553011.209,5.859,-5.859,-16.602,730.957,0.000
1737553011.213,-15.625,-16.602,-20.996,999.512,0.000
1737553011.217,-23.926,-34.668,-20.996,964.355,0.000
1737553011.221,-30.273,-27.344,-25.879,-402.344,0.000
1737553011.225,-45.410,-4.395,-24.414,-885.254,0.000
1737553011.229,-23.438,-1.465,-8.789,729.004,0.000
1737553011.232,-7.324,-21.973,-12.207,999.512,0.000
1737553011.236,-26.855,-28.320,-26.855,999.512,0.000
1737553011.240,-57.129,-6.348,-20.508,314.453,0.000
1737553011.244,-73.730,-6.836,-17.578,-873.047,0.000
1737553011.248,-26.855,-29.297,-21.484,248.535,0.000
1737553011.252,19.043,-9.766,-26.367,999.512,0.000
1737553011.256,15.137,12.207,-40.039,830.078,0.000
1737553011.260,-21.973,4.883,-37.109,-516.113,0.000
1737553011.264,-35.645,-9.277,-32.715,-1000.000,0.000
1737553011.268,-18.555,-11.719,-26.855,-926.758,0.000
1737553011.272,-12.695,-11.230,-12.695,-1000.000,0.000
1737553011.275,-7.324,-5.859,-36.133,-1000.000,0.000
1737553011.279,12.695,-13.672,-38.086,-1000.000,0.000
1737553011.283,50.781,-23.926,-5.371,-1000.000,0.000
1737553011.287,54.199,-15.137,-7.324,-1000.000,0.000
1737553011.291,12.207,-7.324,-21.973,-1000.000,0.000
1737553011.295,-17.090,-9.766,-24.902,-1000.000,0.000
1737553011.299,-37.598,-17.578,-34.668,-1000.000,0.000
1737553011.303,-28.809,-15.137,-41.992,-1000.000,0.000
1737553011.307,18.555,-15.137,-26.367,-1000.000,0.000
1737553011.311,16.113,-27.832,-31.738,-1000.000,0.000
1737553011.314,-27.832,-20.996,-45.898,-1000.000,0.000
1737553011.318,-29.297,-24.414,-24.902,-1000.000,0.000
1737553011.322,-12.695,-17.578,2.441,-1000.000,0.000
1737553011.326,0.000,7.324,4.883,-1000.000,0.000
1737553011.330,10.254,1.953,-12.207,-1000.000,0.000
1737553011.334,5.859,-13.184,-25.879,-1000.000,0.000
1737553011.338,-6.348,-18.555,-29.297,-968.750,0.000
1737553011.342,-4.395,-33.203,-46.875,-1000.000,0.000
1737553011.346,6.836,-29.297,-54.688,-990.234,0.000
1737553011.350,24.902,-0.977,-29.785,141.113,0.000
1737553011.354,15.625,0.488,0.000,999.512,0.000
1737553011.357,-20.508,-22.461,3.418,640.137,0.000
1737553011.361,-46.875,-39.551,-13.184,-744.629,0.000
1737553011.365,-31.250,-21.484,-16.113,-1000.000,0.000
1737553011.369,-25.879,-11.230,-22.949,-912.109,0.000
1737553011.373,-27.832,-45.410,-43.457,-986.816,0.000
1737553011.377,-23.438,-41.992,-55.176,-1000.000,0.000
1737553011.381,-19.043,-21.484,-42.480,-999.512,0.000
1737553011.385,1.953,-3.906,-9.277,-1000.000,0.000
1737553011.389,-7.324,12.207,4.883,-1000.000,0.000
1737553011.393,-26.367,-10.254,-1.465,-1000.000,0.000
1737553011.396,-30.762,-12.695,-10.254,-1000.000,0.000
1737553011.400,-15.137,-2.441,-26.367,-1000.000,0.000
1737553011.404,12.207,-9.277,-31.738,-1000.000,0.000
1737553011.408,14.160,-17.578,-36.621,-1000.000,0.000
1737553011.412,-5.371,-18.555,-45.898,-1000.000,0.000
1737553011.416,-27.832,-26.855,-21.973,-1000.000,0.000
1737553011.420,-29.785,-29.297,-11.719,-1000.000,0.000
1737553011.424,-19.043,-15.137,-17.090,-1000.000,0.000
1737553011.428,-11.230,-18.066,-25.391,-1000.000,0.000
1737553011.432,-10.742,-38.086,-24.902,-1000.000,0.000
1737553011.436,-9.277,-35.156,-22.461,-999.512,0.000
1737553011.439,-0.488,-20.508,-24.902,-957.031,0.000
1737553011.443,-2.441,-14.160,-26.855,-1000.000,0.000
1737553011.447,-11.230,4.395,-28.320,-441.406,0.000
1737553011.451,1.465,8.301,-24.902,831.055,0.000
1737553011.455,6.836,-0.977,-16.602,999.512,0.000
1737553011.459,-28.320,-20.508,-0.977,-251.465,0.000
1737553011.463,-50.781,-20.020,-6.348,-1000.000,0.000
1737553011.467,-22.461,-21.484,-14.648,71.289,0.000
1737553011.471,10.742,-28.809,-11.230,965.332,0.000
1737553011.475,-12.695,-21.973,-10.742,999.512,0.000
1737553011.479,-42.480,-24.902,-11.719,486.816,0.000
1737553011.482,-68.848,-27.344,-35.645,-945.312,0.000
1737553011.486,-62.500,-22.949,-52.734,-485.840,0.000
1737553011.490,-28.809,-22.949,-27.344,836.426,0.000
1737553011.494,-31.250,-7.324,-30.273,999.512,0.000
1737553011.498,-49.805,-7.812,-24.902,692.871,0.000
1737553011.502,-82.520,-21.484,-15.625,-809.082,0.000
1737553011.506,-72.266,-19.043,-11.719,-805.176,0.000
1737553011.510,-42.969,-16.113,-7.324,688.965,0.000
1737553011.514,-50.293,-4.395,-27.832,999.512,0.000
1737553011.518,-47.363,-10.254,-39.062,716.309,0.000
1737553011.521,-61.035,-11.230,-34.668,-786.133,0.000
1737553011.525,-51.270,-0.488,-20.508,-733.398,0.000
1737553011.529,4.883,-2.441,-10.254,747.559,0.000
1737553011.533,18.066,-26.367,-11.230,999.512,0.000
1737553011.537,-18.555,-21.484,-18.066,792.480,0.000
1737553011.541,-76.660,-15.625,-26.855,-653.809,0.000
1737553011.545,-83.984,-39.551,-7.812,-1000.000,0.000
1737553011.549,-39.062,-23.438,-20.996,388.184,0.000
1737553011.553,-16.602,3.418,-46.875,999.512,0.000
1737553011.557,-7.812,0.488,-21.484,812.012,0.000
1737553011.561,0.000,-4.883,-8.301,-664.551,0.000
1737553011.564,-16.113,-18.555,-9.766,-1000.000,0.000
1737553011.568,-28.809,-20.508,-11.719,524.902,0.000
1737553011.572,-21.484,-3.418,-17.578,999.512,0.000
1737553011.576,-28.809,-20.508,-16.602,962.891,0.000
1737553011.580,-70.312,-13.184,-9.277,-355.957,0.000
1737553011.584,-77.637,13.672,-2.441,-964.355,0.000
1737553011.588,-31.250,7.812,-7.324,666.504,0.000
1737553011.592,-36.621,-11.230,-12.207,999.512,0.000
1737553011.596,-26.367,-18.066,-14.648,999.512,0.000
1737553011.600,-22.461,-20.996,-16.602,491.699,0.000
1737553011.604,-27.344,-37.598,-25.391,-571.777,0.000
1737553011.607,16.113,-41.992,-25.879,578.613,0.000
1737553011.611,21.484,-11.230,-13.184,999.512,0.000
1737553011.615,-11.230,-5.859,-20.508,989.258,0.000
1737553011.619,-46.875,-15.137,-13.672,673.340,0.000
1737553011.623,-71.777,2.441,2.441,-733.398,0.000
1737553011.627,-46.875,6.836,1.953,159.668,0.000
1737553011.631,-6.836,0.977,-5.371,999.512,0.000
1737553011.635,22.949,-6.836,-15.137,995.117,0.000
1737553011.639,41.504,-24.902,-21.484,736.816,0.000
1737553011.643,19.531,-38.086,-47.363,-712.891,0.000
1737553011.646,-9.277,-19.043,-53.223,81.055,0.000
1737553011.650,-24.902,10.254,-10.742,999.512,0.000
1737553011.654,-22.461,-5.859,5.371,986.816,0.000
1737553011.658,-33.203,-17.578,-9.277,817.871,0.000
1737553011.662,-39.551,-19.043,-11.719,-111.328,0.000
1737553011.666,22.949,-20.508,-9.277,565.430,0.000
1737553011.670,48.340,-2.930,-8.301,999.512,0.000
1737553011.674,-12.695,-11.230,-20.996,907.227,0.000
1737553011.678,-51.758,-34.668,-30.273,981.445,0.000
1737553011.682,-53.711,-36.133,-34.668,970.703,0.000
1737553011.686,-39.551,-28.320,-27.832,970.703,0.000
1737553011.689,-18.066,-21.484,-7.324,970.703,0.000
1737553011.693,-10.742,-21.484,-10.742,970.703,0.000
1737553011.697,-18.555,-27.344,-14.648,970.703,0.000
1737553011.701,10.254,-30.762,-6.836,970.703,0.000
1737553011.705,31.250,-13.672,-5.371,970.703,0.000
1737553011.709,16.113,-5.859,0.977,970.703,0.000
1737553011.713,-3.906,9.277,-2.441,970.703,0.000
1737553011.717,2.441,10.254,-22.461,970.703,0.000
1737553011.721,-1.953,-7.324,-30.273,970.703,0.000
1737553011.725,-61.035,-3.906,-25.391,970.703,0.000
1737553011.728,-81.055,-16.113,-24.414,970.703,0.000
1737553011.732,-56.152,-23.926,-31.250,970.703,0.000
1737553011.736,-38.086,-9.766,-52.246,970.703,0.000
1737553011.740,-27.344,7.812,-36.133,970.703,0.000
1737553011.744,-11.719,26.855,-30.762,970.703,0.000
1737553011.748,-15.137,30.762,-50.781,970.703,0.000
1737553011.752,-18.555,28.320,-42.969,970.703,0.000
1737553011.756,3.906,33.203,-41.016,970.703,0.000
1737553011.760,17.578,12.207,-40.039,970.703,0.000
1737553011.764,16.602,4.883,-36.621,970.703,0.000
1737553011.768,15.137,34.180,-44.922,970.703,0.000
1737553011.771,20.508,30.273,-39.551,970.703,0.000
1737553011.775,22.461,13.672,-23.926,970.703,0.000
1737553011.779,9.277,6.836,-27.344,970.703,0.000
1737553011.783,7.324,8.301,-34.180,970.703,0.000
1737553011.787,27.344,18.066,-18.066,970.703,0.000
1737553011.791,34.180,12.695,-14.160,970.703,0.000
1737553011.795,38.574,-7.324,-37.109,970.703,0.000
1737553011.799,59.570,-10.254,-37.109,970.703,0.000
1737553011.803,41.992,-1.953,-7.324,970.703,0.000
1737553011.807,-8.301,-4.883,-6.348,970.703,0.000
1737553011.811,-43.457,-15.137,-29.785,970.703,0.000
1737553011.814,-42.969,-12.207,-19.043,970.703,0.000
1737553011.818,-30.273,-11.719,-13.672,970.703,0.000
1737553011.822,-4.395,-1.465,-6.836,970.703,0.000
1737553011.826,1.465,4.883,-16.113,970.703,0.000
1737553011.830,13.672,-38.086,-45.898,970.703,0.000
1737553011.834,-0.488,-46.875,-35.645,970.703,0.000
1737553011.838,-39.551,-34.180,-10.742,970.703,0.000
1737553011.842,-57.617,-38.086,-15.137,970.703,0.000
1737553011.846,-61.523,0.488,-29.785,970.703,0.000
1737553011.850,-60.547,14.160,-16.602,970.703,0.000
1737553011.853,-37.109,-18.555,-5.859,970.703,0.000
1737553011.857,-20.020,-22.461,4.883,970.703,0.000
1737553011.861,-22.461,-6.348,-4.395,970.703,0.000
1737553011.865,-15.137,-27.344,-13.672,970.703,0.000
1737553011.869,-16.113,-24.414,-17.578,970.703,0.000
1737553011.873,-9.766,1.465,-21.484,970.703,0.000
1737553011.877,-4.395,8.301,-12.695,970.703,0.000
1737553011.881,8.301,3.906,-2.930,970.703,0.000
1737553011.885,19.531,-7.812,0.000,970.703,0.000
1737553011.889,0.000,-26.367,-0.977,970.703,0.000
1737553011.893,-12.207,-48.340,-13.184,970.703,0.000
1737553011.896,0.000,-16.113,-6.836,970.703,0.000
1737553011.900,7.324,-0.977,-1.465,970.703,0.000
1737553011.904,9.766,-18.555,-10.254,970.703,0.000
1737553011.908,23.926,-2.930,-34.668,970.703,0.000
1737553011.912,49.805,0.488,-33.203,970.703,0.000
1737553011.916,33.691,-28.809,4.395,970.703,0.000
1737553011.920,-28.320,-29.785,2.930,970.703,0.000
1737553011.924,-41.016,-13.184,-12.207,970.703,0.000
1737553011.928,-19.531,-18.066,-15.625,970.703,0.000
1737553011.932,-13.672,-13.672,-21.484,970.703,0.000
1737553011.936,-0.977,-17.090,-35.645,970.703,0.000
1737553011.939,-0.488,-30.273,-33.691,970.703,0.000
1737553011.943,-32.227,-30.762,-13.672,970.703,0.000
1737553011.947,-34.180,-35.645,-10.254,970.703,0.000
1737553011.951,-28.809,-20.508,-19.531,970.703,0.000
1737553011.955,-13.184,-9.766,-14.160,970.703,0.000
1737553011.959,-6.348,-26.367,-20.020,970.703,0.000
1737553011.963,-6.348,-31.250,-40.039,970.703,0.000
1737553011.967,1.465,-13.184,-33.691,970.703,0.000
1737553011.971,10.742,-18.555,-32.715,970.703,0.000
1737553011.975,-2.441,-25.391,-18.555,970.703,0.000
1737553011.978,-26.855,-21.484,0.488,970.703,0.000
1737553011.982,-50.293,-24.414,-15.137,970.703,0.000
1737553011.986,-67.383,-19.043,-20.996,970.703,0.000
1737553011.990,-57.617,-23.438,-8.301,970.703,0.000
1737553011.994,-37.109,-30.273,-9.277,970.703,0.000
1737553011.998,-31.250,-28.320,-23.438,970.703,0.000
1737553012.002,-28.320,-28.320,-24.902,970.703,0.000
1737553012.006,-24.902,-18.555,-35.156,975.098,0.000
1737553012.010,-29.785,-22.949,-40.039,950.684,0.000
1737553012.014,-19.531,-26.855,-15.137,990.234,0.000
1737553012.018,-32.227,-30.273,-13.184,967.773,0.000
1737553012.021,-38.574,-22.949,-20.508,423.828,0.000
1737553012.025,-16.602,-18.066,-14.160,666.992,0.000
1737553012.029,8.789,-30.273,-15.625,991.211,0.000
1737553012.033,19.531,-34.180,-23.438,999.512,0.000
1737553012.037,11.719,-12.207,-20.508,685.059,0.000
1737553012.041,7.324,8.789,-24.902,-796.875,0.000
1737553012.045,33.691,-1.953,-34.180,-941.895,0.000
1737553012.049,47.363,-20.020,-27.832,488.281,0.000
1737553012.053,24.902,-19.531,-27.832,999.512,0.000
1737553012.057,-22.949,-30.762,-28.320,895.508,0.000
1737553012.060,-64.941,-29.297,4.883,687.012,0.000
1737553012.064,-59.082,-4.395,-11.719,846.191,0.000
1737553012.068,-47.363,0.000,-28.320,999.512,0.000
1737553012.072,-42.969,-23.438,-1.465,953.125,0.000
1737553012.076,-22.949,-18.555,-7.324,974.609,0.000
1737553012.080,-15.137,1.953,-25.391,931.152,0.000
1737553012.084,-12.207,-12.207,-27.344,956.055,0.000
1737553012.088,-29.785,-27.344,-34.180,966.309,0.000
1737553012.092,-40.527,-30.762,-22.461,932.129,0.000
1737553012.096,-34.668,-25.879,-13.672,999.512,0.000
1737553012.100,-42.969,-20.508,-25.879,163.574,0.000
1737553012.103,-67.871,-32.715,-20.996,-1000.000,0.000
1737553012.107,-35.156,-39.062,-18.066,-613.281,0.000
1737553012.111,4.883,-15.137,-19.531,837.891,0.000
1737553012.115,-27.344,8.789,-20.996,909.668,0.000
1737553012.119,-57.129,-15.137,-31.250,-655.273,0.000
1737553012.123,-30.762,-33.691,-51.758,-1000.000,0.000
1737553012.127,-41.992,-30.273,-45.410,-926.270,0.000
1737553012.131,-61.035,-41.016,-4.395,-1000.000,0.000
1737553012.135,-56.152,-34.668,1.953,-1000.000,0.000
1737553012.139,-50.781,-15.625,-9.277,-1000.000,0.000
1737553012.143,-42.969,-0.977,-28.320,-1000.000,0.000
1737553012.146,-17.578,4.883,-28.320,-1000.000,0.000
1737553012.150,-5.371,-20.020,-25.391,-1000.000,0.000
1737553012.154,-18.555,-30.273,-29.785,-1000.000,0.000
1737553012.158,-19.531,-12.695,-33.203,-1000.000,0.000
1737553012.162,-31.250,-21.484,-32.227,-1000.000,0.000
1737553012.166,-12.695,-38.574,-11.719,-1000.000,0.000
1737553012.170,13.184,-30.762,-16.602,-1000.000,0.000
1737553012.174,-11.230,-4.395,-31.738,-1000.000,0.000
1737553012.178,-41.504,6.348,-21.973,-1000.000,0.000
1737553012.182,-41.504,1.465,-15.137,-1000.000,0.000
1737553012.185,-22.949,-19.531,-27.344,-1000.000,0.000
1737553012.189,-13.672,-39.551,-40.039,-1000.000,0.000
1737553012.193,-11.230,-29.785,-33.691,-1000.000,0.000
1737553012.197,-12.695,-11.719,-2.930,-1000.000,0.000
1737553012.201,-34.668,-3.418,5.859,-1000.000,0.000
1737553012.205,-57.129,-7.812,-19.043,-1000.000,0.000
1737553012.209,-30.273,-15.625,-24.902,-1000.000,0.000
1737553012.213,-10.254,-2.930,-8.789,-1000.000,0.000
1737553012.217,-24.902,-5.371,-15.137,-1000.000,0.000
1737553012.221,-31.250,-22.949,-45.410,-1000.000,0.000
1737553012.225,-21.973,-26.855,-41.504,-1000.000,0.000
1737553012.228,-4.883,-21.973,-22.461,-1000.000,0.000
1737553012.232,-11.230,-24.902,-22.949,-1000.000,0.000
1737553012.236,-32.715,-26.367,-29.297,-1000.000,0.000
1737553012.240,-36.621,-15.625,-23.438,-1000.000,0.000
1737553012.244,-19.043,-10.742,-10.254,-1000.000,0.000
1737553012.248,-0.488,-8.789,-15.625,-1000.000,0.000
1737553012.252,-10.742,-11.230,-24.902,-1000.000,0.000
1737553012.256,-27.344,-10.742,-16.113,-1000.000,0.000
1737553012.260,-36.621,-15.625,-15.137,-1000.000,0.000
1737553012.264,-45.898,-24.902,-20.996,-1000.000,0.000
1737553012.268,-44.434,-21.973,-19.531,-1000.000,0.000
1737553012.271,-36.133,-22.949,-13.672,-1000.000,0.000
1737553012.275,-87.891,-40.527,-19.531,-1000.000,0.000
1737553012.279,-161.621,-50.293,-19.043,-1000.000,0.000
1737553012.283,-174.805,-46.387,-10.254,-1000.000,0.000
1737553012.287,-211.426,-46.387,-0.977,-1000.000,0.000
1737553012.291,-242.676,-41.504,-3.418,-1000.000,0.000
1737553012.295,-245.605,-48.828,-9.766,-1000.000,0.000
1737553012.299,-243.164,-70.312,1.465,-1000.000,0.000
1737553012.303,-233.398,-72.266,14.160,-1000.000,0.000
1737553012.307,-218.262,-61.523,19.043,-1000.000,0.000
1737553012.310,-226.074,-51.758,9.277,-1000.000,0.000
1737553012.314,-211.914,-71.289,1.953,-1000.000,0.000
1737553012.318,-184.082,-83.984,-0.488,-1000.000,0.000
1737553012.322,-161.621,-58.594,16.113,-1000.000,0.000
1737553012.326,-159.668,-43.457,27.344,-1000.000,0.000
1737553012.330,-143.555,-56.152,19.531,-1000.000,0.000
1737553012.334,-111.328,-76.660,34.180,-1000.000,0.000
1737553012.338,-104.492,-80.078,40.527,-1000.000,0.000
1737553012.342,-76.172,-64.453,9.277,-1000.000,0.000
1737553012.346,-42.480,-62.500,0.977,-1000.000,0.000
1737553012.350,-35.156,-54.688,8.789,-1000.000,0.000
1737553012.353,-49.316,-47.363,0.977,-1000.000,0.000
1737553012.357,-82.520,-56.641,9.277,-1000.000,0.000
1737553012.361,-72.266,-52.246,9.277,-1000.000,0.000
1737553012.365,-48.828,-54.688,-5.859,-1000.000,0.000
1737553012.369,-31.250,-59.570,-11.230,-1000.000,0.000
1737553012.373,-4.395,-53.223,-14.648,-1000.000,0.000
1737553012.377,0.488,-41.504,-18.066,-1000.000,0.000
1737553012.381,-2.441,-33.691,-19.531,-1000.000,0.000
1737553012.385,9.766,-62.988,-24.902,-1000.000,0.000
1737553012.389,-3.418,-75.195,-18.066,-1000.000,0.000
1737553012.392,-20.996,-34.180,-4.395,-1000.000,0.000
1737553012.396,-7.324,-16.113,0.488,-1000.000,0.000
1737553012.400,-1.953,-18.066,-2.441,-1000.000,0.000
1737553012.404,7.324,-18.555,-13.184,-1000.000,0.000
1737553012.408,14.160,-25.879,-14.160,-1000.000,0.000
1737553012.412,12.695,-20.020,-20.508,-1000.000,0.000
1737553012.416,24.902,-29.785,-46.875,-1000.000,0.000
1737553012.420,41.992,-59.082,-42.969,-1000.000,0.000
1737553012.424,24.414,-40.039,-6.836,-1000.000,0.000
1737553012.428,-3.418,-10.742,-8.789,-1000.000,0.000
1737553012.432,-1.953,-5.859,-19.043,-1000.000,0.000
1737553012.435,-16.113,-1.953,-3.906,-1000.000,0.000
1737553012.439,-18.555,-15.625,-9.277,-1000.000,0.000
1737553012.443,4.883,-39.062,-30.273,-1000.000,0.000
1737553012.447,1.953,-25.391,-37.109,-1000.000,0.000
1737553012.451,-3.418,-9.277,-24.902,-1000.000,0.000
1737553012.455,-1.465,-29.297,-30.762,-1000.000,0.000
1737553012.459,6.836,-37.598,-61.035,-1000.000,0.000
1737553012.463,7.324,-12.695,-50.293,-1000.000,0.000
1737553012.467,19.043,-12.207,-19.531,-1000.000,0.000
1737553012.471,39.551,-39.551,-27.344,-1000.000,0.000
1737553012.475,30.273,-30.273,-24.414,-1000.000,0.000
1737553012.478,25.391,-0.488,-17.578,-1000.000,0.000
1737553012.482,41.504,-1.953,-9.766,-1000.000,0.000
1737553012.486,46.387,-8.301,-14.648,-1000.000,0.000
1737553012.490,6.348,-17.578,-21.484,-1000.000,0.000
1737553012.494,-42.480,-27.344,-23.438,-1000.000,0.000
1737553012.498,-43.457,-2.930,-37.109,-1000.000,0.000
1737553012.502,-6.348,3.906,-38.086,-1000.000,0.000
1737553012.506,4.883,-16.602,-25.879,-1000.000,0.000
1737553012.510,-19.043,-15.137,-25.879,-1000.000,0.000
1737553012.514,-27.832,-3.906,-30.762,-1000.000,0.000
1737553012.517,-19.531,-6.348,-17.090,-1000.000,0.000
1737553012.521,-15.625,-7.812,-2.930,-1000.000,0.000
1737553012.525,-10.254,-14.160,-15.625,-1000.000,0.000
1737553012.529,-9.277,-22.461,-18.555,-1000.000,0.000
1737553012.533,-11.719,-24.414,-27.344,-1000.000,0.000
1737553012.537,-9.766,-24.902,-49.805,-1000.000,0.000
1737553012.541,-9.277,-14.648,-30.762,-1000.000,0.000
1737553012.545,-14.160,-9.277,-8.301,-1000.000,0.000
1737553012.549,-18.555,-20.508,-27.344,-1000.000,0.000
1737553012.553,-12.695,-11.719,-38.574,-1000.000,0.000
1737553012.557,-5.371,-14.648,-9.766,-1000.000,0.000
1737553012.560,-1.953,-18.066,1.465,-1000.000,0.000
1737553012.564,1.953,-0.488,-15.137,-1000.000,0.000
1737553012.568,6.348,-2.930,-17.090,-1000.000,0.000
1737553012.572,6.348,-6.836,-30.273,-1000.000,0.000
1737553012.576,8.789,-4.883,-36.133,-1000.000,0.000
1737553012.580,2.930,-10.742,1.953,-1000.000,0.000
1737553012.584,-15.137,-25.879,-6.348,-1000.000,0.000
1737553012.588,-16.113,-18.066,-34.668,-1000.000,0.000
1737553012.592,-8.789,-11.719,-12.207,-1000.000,0.000
1737553012.596,-14.648,-13.184,-4.395,-1000.000,0.000
1737553012.600,-35.645,-10.742,-7.324,-1000.000,0.000
1737553012.603,-14.648,-2.930,-17.578,-1000.000,0.000
1737553012.607,-6.836,-11.230,-28.320,-1000.000,0.000
1737553012.611,-36.621,-28.320,-26.367,-1000.000,0.000
1737553012.615,-39.551,-15.137,-28.809,-1000.000,0.000
1737553012.619,-35.156,2.441,-27.832,-1000.000,0.000
1737553012.623,-26.855,1.465,-16.602,-1000.000,0.000
1737553012.627,-23.438,-13.672,-7.324,-1000.000,0.000
1737553012.631,-24.902,-20.508,-10.254,-1000.000,0.000
1737553012.635,-27.344,-11.719,-9.766,-1000.000,0.000
1737553012.639,-25.391,-4.395,-11.719,-1000.000,0.000
1737553012.642,-16.602,-8.789,-19.531,-1000.000,0.000
1737553012.646,2.441,-24.902,-28.809,-1000.000,0.000
1737553012.650,9.277,-24.902,-34.668,-1000.000,0.000
1737553012.654,-10.742,-3.906,-28.320,-1000.000,0.000
1737553012.658,-19.531,0.488,-33.203,-1000.000,0.000
1737553012.662,-7.812,2.441,-44.434,-1000.000,0.000
1737553012.666,0.000,3.418,-30.762,-1000.000,0.000
1737553012.670,0.000,-1.465,-24.902,-1000.000,0.000
1737553012.674,24.414,-10.742,-25.879,-1000.000,0.000
1737553012.678,43.945,-14.160,-9.766,-1000.000,0.000
1737553012.682,4.883,-25.879,-15.137,-1000.000,0.000
1737553012.685,4.395,-29.297,-19.531,-1000.000,0.000
1737553012.689,33.691,-3.418,-18.555,-1000.000,0.000
1737553012.693,31.250,1.953,-39.062,-1000.000,0.000
1737553012.697,-3.906,0.977,-28.809,-1000.000,0.000
1737553012.701,-41.992,0.000,-27.832,-1000.000,0.000
1737553012.705,-53.223,-32.227,-53.711,-1000.000,0.000
1737553012.709,-42.969,-36.133,-37.109,-1000.000,0.000
1737553012.713,-32.227,-18.555,-13.672,-1000.000,0.000
1737553012.717,-39.062,-20.508,-10.254,-1000.000,0.000
1737553012.721,-40.039,-19.531,-20.996,-1000.000,0.000
1737553012.725,-17.090,-5.859,-30.762,-1000.000,0.000
1737553012.728,-16.602,-6.348,-35.645,-1000.000,0.000
1737553012.732,-24.414,-19.043,-17.090,-1000.000,0.000
1737553012.736,-3.418,-15.625,-20.996,-1000.000,0.000
1737553012.740,6.836,-19.043,-31.250,-1000.000,0.000
1737553012.744,2.441,-20.020,-23.926,-1000.000,0.000
1737553012.748,-0.977,-8.789,-22.461,-1000.000,0.000
1737553012.752,-6.836,-7.324,-18.555,-1000.000,0.000
1737553012.756,-4.395,0.977,-25.879,-1000.000,0.000
1737553012.760,7.812,2.930,-20.508,-1000.000,0.000
1737553012.764,12.695,-11.719,-9.766,-1000.000,0.000
1737553012.767,2.930,-28.809,-16.113,-1000.000,0.000
1737553012.771,12.207,-32.715,-25.391,-1000.000,0.000
1737553012.775,9.277,-18.555,-24.902,-992.188,0.000
1737553012.779,0.488,-18.066,-28.809,-962.402,0.000
1737553012.783,2.930,-18.555,-23.438,-1000.000,0.000
1737553012.787,4.395,-4.883,-21.484,-208.496,0.000
1737553012.791,36.133,-7.324,-51.270,917.480,0.000
1737553012.795,58.105,-13.672,-45.410,999.512,0.000
1737553012.799,-1.953,-13.672,-6.348,173.828,0.000
1737553012.803,-75.684,-21.484,-13.672,-1000.000,0.000
1737553012.807,-52.246,-15.625,-22.461,-647.461,0.000
1737553012.810,-11.719,0.000,-12.207,719.238,0.000
1737553012.814,-7.812,-12.207,-9.766,999.512,0.000
1737553012.818,-20.508,-27.344,-8.789,250.977,0.000
1737553012.822,-50.781,-15.625,-17.090,-1000.000,0.000
1737553012.826,-24.414,-13.184,-19.531,-721.191,0.000
1737553012.830,13.184,-19.043,-25.391,666.504,0.000
1737553012.834,-4.883,-26.367,-37.598,999.512,0.000
1737553012.838,-2.441,-36.133,-22.949,604.492,0.000
1737553012.842,-28.320,-19.531,-17.090,-783.691,0.000
1737553012.846,-35.645,0.488,-6.836,-1000.000,0.000
1737553012.849,-1.953,8.789,-13.672,349.121,0.000
1737553012.853,1.465,13.184,-36.133,999.512,0.000
1737553012.857,-14.160,6.348,-25.879,690.430,0.000
1737553012.861,-41.016,-13.672,-4.883,-670.410,0.000
1737553012.865,-32.227,-33.203,-2.930,-1000.000,0.000
1737553012.869,-4.395,-45.410,-28.320,-126.953,0.000
1737553012.873,-1.953,-42.969,-41.992,946.289,0.000
1737553012.877,-11.719,-17.090,-10.254,999.512,0.000
1737553012.881,-37.109,1.953,-6.836,-423.828,0.000
1737553012.885,-27.832,3.906,-22.949,-1000.000,0.000
1737553012.889,4.883,3.418,-19.531,545.898,0.000
1737553012.892,14.160,-5.371,-12.207,999.512,0.000
1737553012.896,31.250,-13.184,-24.902,901.855,0.000
1737553012.900,36.621,-20.508,-23.926,937.012,0.000
1737553012.904,21.973,-32.715,-16.113,938.965,0.000
1737553012.908,19.043,-31.738,-28.320,979.980,0.000
1737553012.912,1.465,-3.906,-21.973,967.773,0.000
1737553012.916,-47.852,3.906,-13.672,971.191,0.000
1737553012.920,-57.617,-9.277,-24.902,970.703,0.000
1737553012.924,-43.457,4.883,-4.395,970.703,0.000
1737553012.928,-28.809,13.672,0.488,970.703,0.000
1737553012.932,-12.695,-3.906,-13.184,970.215,0.000
1737553012.935,-21.973,-14.160,-13.672,970.703,0.000
1737553012.939,-31.250,-18.555,-11.230,970.703,0.000
1737553012.943,-16.113,-43.457,-27.344,970.703,0.000
1737553012.947,-19.531,-36.133,-36.133,970.703,0.000
1737553012.951,-34.180,-9.277,-12.207,970.215,0.000
1737553012.955,-25.391,-11.230,-1.465,971.191,0.000
1737553012.959,-32.227,-6.348,-16.113,969.238,0.000
1737553012.963,-33.203,-12.207,-9.766,968.262,0.000
1737553012.967,-4.883,-17.090,-5.371,983.887,0.000
1737553012.971,7.812,-19.043,-21.973,920.410,0.000
1737553012.974,-20.996,-19.531,-26.855,999.512,0.000
1737553012.978,-20.508,-24.414,-23.438,955.566,0.000
1737553012.982,-43.457,-33.203,-22.461,-534.180,0.000
1737553012.986,-38.574,-23.438,-23.926,-329.590,0.000
1737553012.990,10.254,-20.020,-29.785,973.633,0.000
1737553012.994,-8.789,-24.414,-30.273,998.047,0.000
1737553012.998,-34.180,-28.320,-16.602,925.293,0.000
1737553013.002,-35.156,-25.879,-10.742,-572.266,0.000
1737553013.006,-22.461,-15.625,-18.066,-498.535,0.000
1737553013.010,-35.156,-13.184,-33.691,933.594,0.000
1737553013.014,-59.082,-24.902,-36.621,978.516,0.000
1737553013.017,-48.828,-35.645,-32.227,982.910,0.000
1737553013.021,-44.922,-30.273,-18.066,-335.938,0.000
1737553013.025,-43.457,-16.113,-16.602,-986.816,0.000
1737553013.029,-23.926,-0.488,-19.043,573.730,0.000
1737553013.033,-23.438,4.395,-4.883,999.512,0.000
1737553013.037,-23.438,0.488,-13.672,969.238,0.000
1737553013.041,-32.227,-3.906,-29.785,-265.137,0.000
1737553013.045,-36.621,-29.785,-27.344,-919.922,0.000
1737553013.049,1.465,-35.645,-39.062,662.598,0.000
1737553013.053,-3.906,-14.160,-56.641,999.512,0.000
1737553013.057,-0.977,-15.137,-41.504,999.512,0.000
1737553013.060,-18.066,-28.320,-5.371,237.305,0.000
1737553013.064,-61.523,-31.250,7.812,-728.516,0.000
1737553013.068,-33.203,-11.230,-6.348,595.703,0.000
1737553013.072,-16.602,1.465,-11.719,999.512,0.000
1737553013.076,-17.090,-16.602,-22.461,995.117,0.000
1737553013.080,-27.344,-22.949,-32.715,85.938,0.000
1737553013.084,-57.129,-7.812,-22.949,-988.281,0.000
1737553013.088,-33.203,-3.418,-26.367,355.957,0.000
1737553013.092,-15.625,-26.367,-14.160,999.512,0.000
1737553013.096,-14.648,-40.039,-13.184,922.852,0.000
1737553013.099,-30.762,-22.949,-20.020,-214.844,0.000
1737553013.103,-43.457,-29.785,-9.766,-1000.000,0.000
1737553013.107,-22.949,-42.969,-17.578,-1000.000,0.000
1737553013.111,-23.438,-21.484,-17.090,-535.156,0.000
1737553013.115,-8.789,-4.395,-13.184,748.535,0.000
1737553013.119,9.766,-1.953,-18.066,-286.133,0.000
1737553013.123,-9.766,-29.297,-36.621,-1000.000,0.000
1737553013.127,-59.082,-55.176,-57.617,-958.496,0.000
1737553013.131,-69.336,-20.996,-33.691,-700.195,0.000
1737553013.135,-18.066,8.301,1.465,719.238,0.000
1737553013.139,-6.836,4.395,5.859,380.371,0.000
1737553013.142,-37.109,-4.883,-7.812,-995.117,0.000
1737553013.146,-55.176,-31.738,-22.461,-1000.000,0.000
1737553013.150,-40.039,-48.340,-28.809,-123.535,0.000
1737553013.154,10.254,-40.039,-20.508,999.512,0.000
1737553013.158,-15.137,-17.578,-15.137,845.703,0.000
1737553013.162,-90.332,-10.742,-21.973,-739.258,0.000
1737553013.166,-93.750,-13.184,-33.691,-931.152,0.000
1737553013.170,-51.758,-15.137,-26.367,626.953,0.000
1737553013.174,-48.340,-38.086,-17.090,999.512,0.000
1737553013.178,-61.035,-40.527,-22.461,931.641,0.000
1737553013.181,-76.172,-12.695,-27.832,-468.262,0.000
1737553013.185,-74.219,5.859,-16.602,-612.305,0.000
1737553013.189,-46.875,-7.324,-4.395,872.559,0.000
1737553013.193,-38.574,-30.273,-10.742,999.512,0.000
1737553013.197,-41.504,-22.461,-20.020,945.801,0.000
1737553013.201,-73.730,-22.949,-32.227,-380.859,0.000
1737553013.205,-83.496,-22.461,-32.227,-1000.000,0.000
1737553013.209,-42.969,-28.809,-13.184,374.512,0.000
1737553013.213,-26.855,-32.715,-12.207,999.512,0.000
1737553013.217,-32.715,-1.953,-16.602,769.531,0.000
1737553013.221,-36.133,10.254,-21.973,-578.125,0.000
1737553013.224,-22.949,1.953,-26.367,-1000.000,0.000
1737553013.228,-17.090,0.977,-16.113,-980.957,0.000
1737553013.232,-0.977,-3.906,-13.672,134.766,0.000
1737553013.236,-2.930,-20.020,-38.086,896.973,0.000
1737553013.240,-37.598,-26.367,-44.922,-624.023,0.000
1737553013.244,-36.621,-20.996,-6.348,-1000.000,0.000
1737553013.248,-16.113,-22.949,5.371,-920.410,0.000
1737553013.252,-20.508,-17.578,-35.156,-1000.000,0.000
1737553013.256,-60.547,-6.836,-50.781,-1000.000,0.000
1737553013.260,-83.008,-12.207,-15.137,-962.402,0.000
1737553013.264,-65.918,-17.090,9.277,-1000.000,0.000
1737553013.267,-50.781,-22.949,-3.906,-978.027,0.000
1737553013.271,-20.996,-37.109,-38.574,234.375,0.000
1737553013.275,1.465,-43.457,-29.785,999.512,0.000
1737553013.279,-25.879,-14.648,-12.695,492.676,0.000
1737553013.283,-52.246,14.160,-8.301,-914.551,0.000
1737553013.287,-27.832,9.766,-8.301,-216.797,0.000
1737553013.291,6.348,6.348,-14.160,999.512,0.000
1737553013.295,-13.184,1.953,-16.602,952.637,0.000
1737553013.299,-32.715,-18.066,-21.484,943.848,0.000
1737553013.303,-5.859,-42.969,-45.410,979.004,0.000
1737553013.306,0.000,-68.848,-25.391,986.328,0.000
1737553013.310,-34.180,-28.809,10.254,908.691,0.000
1737553013.314,-38.574,14.160,6.836,999.512,0.000
1737553013.318,-29.785,11.719,-8.789,820.312,0.000
1737553013.322,-68.359,3.418,-11.719,-764.160,0.000
1737553013.326,-57.617,-14.648,-29.297,-799.805,0.000
1737553013.330,4.395,-35.156,-46.875,708.496,0.000
1737553013.334,0.977,-17.578,-27.832,999.512,0.000
1737553013.338,-28.320,-9.277,-4.395,550.293,0.000
1737553013.342,-52.734,-31.250,-11.230,-763.184,0.000
1737553013.346,-55.176,-25.879,-10.254,-1000.000,0.000
1737553013.349,-34.668,-4.395,0.000,-936.523,0.000
1737553013.353,-4.395,-1.953,-1.465,-375.488,0.000
1737553013.357,-12.695,-5.859,-9.766,-351.562,0.000
1737553013.361,-50.293,-10.254,-20.020,-957.520,0.000
1737553013.365,-49.316,-22.949,-29.297,-1000.000,0.000
1737553013.369,-46.875,-20.508,-39.551,-881.348,0.000
1737553013.373,-12.207,-10.254,-29.297,585.449,0.000
1737553013.377,3.418,-22.949,-14.648,955.566,0.000
1737553013.381,-30.273,-40.039,-13.672,-600.586,0.000
1737553013.385,-21.484,-32.227,-23.438,-1000.000,0.000
1737553013.389,1.953,-23.438,-20.508,-745.117,0.000
1737553013.392,8.789,-34.180,-16.113,623.047,0.000
1737553013.396,-7.812,-19.043,-14.648,999.512,0.000
1737553013.400,-43.457,5.859,-9.766,-401.367,0.000
1737553013.404,-55.664,-4.883,-14.160,-1000.000,0.000
1737553013.408,-23.926,0.000,-19.043,-56.152,0.000
1737553013.412,15.137,2.441,-29.785,941.895,0.000
1737553013.416,26.855,-15.625,-52.246,999.512,0.000
1737553013.420,9.277,-26.855,-48.828,199.219,0.000
1737553013.424,-30.762,-38.086,-28.320,-1000.000,0.000
1737553013.428,-47.852,-44.922,-9.766,-923.340,0.000
1737553013.431,-2.930,-16.113,-3.906,542.969,0.000
1737553013.435,33.691,0.000,-7.324,999.512,0.000
1737553013.439,3.906,-13.672,-5.859,-287.598,0.000
1737553013.443,-38.574,-23.438,-4.883,-1000.000,0.000
1737553013.447,-37.109,-20.508,-26.367,-1000.000,0.000
1737553013.451,-24.414,-11.719,-18.555,-130.859,0.000
1737553013.455,-29.297,-17.578,-2.930,999.512,0.000
1737553013.459,-26.367,-26.855,-24.902,-53.711,0.000
1737553013.463,-28.320,-21.484,-23.926,-1000.000,0.000
1737553013.467,-42.480,-24.414,-12.695,-1000.000,0.000
1737553013.471,-20.508,-14.160,-1.953,-144.531,0.000
1737553013.474,12.695,-9.277,3.906,999.512,0.000
1737553013.478,-14.648,-20.020,-19.531,519.043,0.000
1737553013.482,-42.969,-17.578,-31.738,-971.191,0.000
1737553013.486,-14.648,-15.625,-10.742,-737.793,0.000
1737553013.490,9.766,-21.973,-6.836,685.059,0.000
1737553013.494,15.137,-25.879,-27.344,999.512,0.000
1737553013.498,13.184,-5.859,-14.160,674.316,0.000
1737553013.502,-32.227,10.742,6.836,-722.656,0.000
1737553013.506,-38.086,14.160,-5.371,-1000.000,0.000
1737553013.510,-3.906,7.324,-10.742,251.953,0.000
1737553013.513,-12.695,-16.602,-19.043,999.512,0.000
1737553013.517,-24.902,-25.391,-22.949,830.078,0.000
1737553013.521,-47.852,-21.973,-26.367,-651.367,0.000
1737553013.525,-57.617,-13.184,-30.762,-1000.000,0.000
1737553013.529,-22.949,-14.648,-20.996,472.168,0.000
1737553013.533,-9.277,-35.156,-14.648,999.512,0.000
1737553013.537,-20.508,-34.668,-10.742,859.863,0.000
1737553013.541,-49.805,-22.949,-13.672,-438.965,0.000
1737553013.545,-57.129,-7.324,-22.949,-1000.000,0.000
1737553013.549,-20.020,-1.953,-13.672,-112.305,0.000
1737553013.553,-0.488,-17.578,-18.066,978.027,0.000
1737553013.556,3.418,-23.438,-29.297,953.613,0.000
1737553013.560,-15.625,-27.832,-47.852,-342.285,0.000
1737553013.564,-47.852,-28.320,-43.945,-1000.000,0.000
1737553013.568,-30.273,-33.691,-9.277,-414.062,0.000
1737553013.572,12.207,-29.297,-10.742,787.109,0.000
1737553013.576,13.672,-25.391,-29.297,999.512,0.000
1737553013.580,-12.695,-20.020,-15.137,132.812,0.000
1737553013.584,-56.152,-12.695,-8.301,-998.535,0.000
1737553013.588,-34.668,-16.602,-9.766,198.730,0.000
1737553013.592,-0.488,-24.414,-1.953,999.512,0.000
1737553013.596,-15.625,-21.973,-24.414,999.512,0.000
1737553013.599,-17.090,-16.602,-29.297,478.516,0.000
1737553013.603,-22.949,-12.695,-13.184,-892.090,0.000
1737553013.607,-20.020,-6.348,-31.250,29.297,0.000
1737553013.611,-26.855,-19.531,-45.410,999.512,0.000
1737553013.615,-32.227,-23.926,-13.184,999.512,0.000
1737553013.619,-39.551,-6.836,0.977,562.500,0.000
1737553013.623,-63.965,-11.230,-6.836,-896.973,0.000
1737553013.627,-46.387,-16.113,-4.395,-377.441,0.000
1737553013.631,-6.836,-5.859,-14.160,895.020,0.000
1737553013.635,2.441,-26.855,-29.785,999.512,0.000
1737553013.638,-13.672,-43.457,-20.508,708.496,0.000
1737553013.642,-47.852,-25.391,-9.277,-784.668,0.000
1737553013.646,-41.504,-11.719,-26.367,-926.758,0.000
1737553013.650,-8.301,5.859,-12.207,592.285,0.000
1737553013.654,-12.207,11.719,-4.395,999.512,0.000
1737553013.658,-18.066,2.441,-14.160,765.137,0.000
1737553013.662,-43.457,-6.836,-15.625,-749.023,0.000
1737553013.666,-41.992,-15.625,-24.414,-780.273,0.000
1737553013.670,1.953,-20.020,-25.879,761.230,0.000
1737553013.674,9.277,-32.715,-39.062,999.512,0.000
1737553013.678,-1.465,-40.039,-39.062,948.730,0.000
1737553013.681,-5.859,-32.715,-23.926,-374.512,0.000
1737553013.685,-4.883,-13.184,-17.090,-963.379,0.000
1737553013.689,-2.930,0.488,-4.395,626.465,0.000
1737553013.693,-15.625,2.930,-3.418,999.512,0.000
1737553013.697,-14.648,-0.488,1.465,999.512,0.000
1737553013.701,-16.113,-12.207,0.000,105.469,0.000
1737553013.705,-42.969,-20.020,-12.207,-847.168,0.000
1737553013.709,-28.809,-28.320,-28.809,556.152,0.000
1737553013.713,-20.508,-34.180,-28.809,999.512,0.000
1737553013.717,-2.441,-42.480,-20.508,889.160,0.000
1737553013.721,24.902,-42.480,-28.320,985.840,0.000
1737553013.724,-20.508,-9.766,-31.250,970.703,0.000
1737553013.728,-70.801,0.977,-2.441,970.703,0.000
1737553013.732,-70.312,-10.254,8.301,970.703,0.000
1737553013.736,-62.988,-11.719,-6.836,970.703,0.000
1737553013.740,-61.035,-12.695,-18.066,970.703,0.000
1737553013.744,-58.105,-5.859,-30.273,970.703,0.000
1737553013.748,-48.340,-12.207,-20.020,975.586,0.000
1737553013.752,-48.828,-33.691,-16.113,945.801,0.000
1737553013.756,-43.457,-17.578,-17.578,999.512,0.000
1737553013.760,-28.809,-10.742,-13.672,879.395,0.000
1737553013.763,-34.180,-20.508,-35.645,547.852,0.000
1737553013.767,-35.156,-27.832,-20.020,859.375,0.000
1737553013.771,-28.320,-17.090,-17.090,984.375,0.000
1737553013.775,-30.762,1.953,-32.715,999.512,0.000
1737553013.779,-23.926,-1.953,-13.672,48.340,0.000
1737553013.783,-29.785,-6.836,-15.137,-996.582,0.000
1737553013.787,-73.730,-12.207,-19.531,-1000.000,0.000
1737553013.791,-77.637,-14.160,-10.742,-426.270,0.000
1737553013.795,-32.715,-18.066,-18.555,845.215,0.000
1737553013.799,-48.828,-28.320,-41.992,-201.660,0.000
1737553013.803,-64.941,-41.504,-37.109,-1000.000,0.000
1737553013.806,-41.016,-38.086,-13.672,-932.617,0.000
1737553013.810,-24.414,-26.367,-15.625,-1000.000,0.000
1737553013.814,-18.555,-11.230,-31.250,-1000.000,0.000
1737553013.818,-30.762,-0.488,-31.250,-939.453,0.000
1737553013.822,-37.598,-10.254,-24.414,-1000.000,0.000
1737553013.826,-22.461,-9.766,-5.859,-803.223,0.000
1737553013.830,5.859,-15.137,-2.930,635.742,0.000
1737553013.834,8.301,-31.250,-22.949,999.512,0.000
1737553013.838,13.672,-22.461,-42.969,892.090,0.000
1737553013.842,1.953,-12.207,-34.668,827.637,0.000
1737553013.845,-38.086,-2.441,-2.441,909.668,0.000
1737553013.849,-42.480,2.441,6.836,994.629,0.000
1737553013.853,-22.949,-10.254,-9.766,959.961,0.000
1737553013.857,-2.930,-11.719,-13.672,973.145,0.000
1737553013.861,7.324,-17.090,-3.906,970.703,0.000
1737553013.865,5.859,-17.090,-2.930,970.703,0.000
1737553013.869,-2.441,-12.695,-20.020,970.703,0.000
1737553013.873,4.883,-5.371,-41.016,970.703,0.000
1737553013.877,-16.602,-10.254,-31.738,970.703,0.000
1737553013.881,-38.574,-36.133,-18.555,970.703,0.000
1737553013.885,-31.738,-23.926,-18.555,971.191,0.000
1737553013.888,-20.996,-4.883,1.465,977.051,0.000
1737553013.892,-25.391,-12.207,8.301,924.805,0.000
1737553013.896,-31.250,-19.531,-16.113,999.512,0.000
1737553013.900,-28.809,-25.391,-29.785,732.910,0.000
1737553013.904,-26.367,-35.645,-36.621,-32.227,0.000
1737553013.908,4.883,-24.902,-38.086,607.910,0.000
1737553013.912,12.695,-11.719,-16.113,999.512,0.000
1737553013.916,-20.508,-28.320,-22.461,853.516,0.000
1737553013.920,-55.664,-28.320,-40.039,-420.410,0.000
1737553013.924,-65.430,-15.137,-27.344,-1000.000,0.000
1737553013.928,-49.805,-13.672,0.000,-854.492,0.000
1737553013.931,-20.508,-12.207,-20.996,457.031,0.000
1737553013.935,3.906,-19.531,-41.992,999.512,0.000
1737553013.939,2.930,-16.602,-12.695,71.777,0.000
1737553013.943,-10.254,7.324,-17.578,-1000.000,0.000
1737553013.947,-23.926,2.930,-4.883,-713.867,0.000
1737553013.951,-22.949,-27.832,4.395,702.637,0.000
1737553013.955,-17.578,-9.277,-18.555,999.512,0.000
1737553013.959,-17.578,9.277,-22.461,862.793,0.000
1737553013.963,-20.020,-2.441,-20.996,795.898,0.000
1737553013.967,-0.488,-3.418,-26.367,938.477,0.000
1737553013.971,20.020,-13.672,-17.090,990.234,0.000
1737553013.974,27.344,-17.578,-18.066,958.984,0.000
1737553013.978,44.922,-6.348,-22.949,973.145,0.000
1737553013.982,30.273,-21.484,-5.371,970.703,0.000
1737553013.986,-7.324,-34.180,-4.883,970.703,0.000
1737553013.990,-45.410,-16.602,-24.902,970.703,0.000
1737553013.994,-62.988,7.324,-11.719,970.703,0.000
1737553013.998,-47.852,-8.789,0.000,970.703,0.000
1737553014.002,-21.484,-41.504,-12.695,970.703,0.000
1737553014.006,-12.207,-24.414,-17.578,970.703,0.000
1737553014.010,-27.344,-3.418,-25.879,970.703,0.000
1737553014.013,-45.898,-8.789,-26.855,970.703,0.000
1737553014.017,-27.832,-26.367,-19.043,970.703,0.000
1737553014.021,-25.391,-33.203,-21.484,970.703,0.000
1737553014.025,-31.738,-25.879,-5.371,970.703,0.000
1737553014.029,-19.043,-31.738,0.977,970.703,0.000
1737553014.033,-17.578,-33.203,-19.531,970.703,0.000
1737553014.037,-17.578,-9.277,-25.391,970.703,0.000
1737553014.041,-8.301,3.906,-16.602,970.703,0.000
1737553014.045,-16.113,-0.977,-19.531,979.492,0.000
1737553014.049,-19.531,-18.555,-22.949,939.453,0.000
1737553014.053,-18.555,-38.574,-28.320,959.961,0.000
1737553014.056,-19.531,-21.973,-40.039,999.512,0.000
1737553014.060,-36.133,-22.461,-24.414,-225.586,0.000
1737553014.064,-42.480,-27.832,-4.395,-1000.000,0.000
1737553014.068,-3.906,-21.484,-12.207,196.289,0.000
1737553014.072,33.691,-24.414,-33.203,999.512,0.000
1737553014.076,14.648,-24.902,-26.855,939.453,0.000
1737553014.080,-18.555,-15.625,-30.762,904.785,0.000
1737553014.084,-18.066,-7.324,-20.996,895.996,0.000
1737553014.088,-19.043,-10.254,3.906,981.445,0.000
1737553014.092,-21.484,-21.484,0.977,969.238,0.000
1737553014.095,-19.531,-19.043,-21.973,969.238,0.000
1737553014.099,-34.180,-9.277,-29.297,970.703,0.000
1737553014.103,-27.344,-9.277,-20.020,970.703,0.000
1737553014.107,19.531,-19.043,-20.996,970.703,0.000
1737553014.111,26.367,-29.785,-6.836,970.703,0.000
1737553014.115,9.277,-45.898,-18.066,970.703,0.000
1737553014.119,9.766,-27.832,-30.762,970.703,0.000
1737553014.123,-13.672,-2.441,-11.230,970.703,0.000
1737553014.127,-68.848,0.488,-4.395,970.703,0.000
1737553014.131,-96.680,-0.977,-17.578,970.703,0.000
1737553014.135,-71.777,-3.418,-4.395,970.703,0.000
1737553014.138,-50.293,-26.367,-3.418,970.703,0.000
1737553014.142,-30.273,-36.621,-18.066,970.703,0.000
1737553014.146,-13.672,-30.762,-17.578,970.703,0.000
1737553014.150,-12.207,-15.625,-17.578,970.703,0.000
1737553014.154,-7.324,-16.113,-30.762,970.703,0.000
1737553014.158,-3.906,-20.508,-27.832,970.703,0.000
1737553014.162,-22.461,-1.465,-8.301,970.703,0.000
1737553014.166,-11.230,-3.418,-13.672,983.887,0.000
1737553014.170,3.906,-9.766,-25.391,921.875,0.000
1737553014.174,-3.906,-14.648,-20.508,998.535,0.000
1737553014.178,-5.371,-22.461,-19.043,923.828,0.000
1737553014.181,-14.648,-32.715,-39.551,-448.242,0.000
1737553014.185,-15.625,-56.641,-37.109,-1000.000,0.000
1737553014.189,-3.906,-40.039,-35.645,-255.859,0.000
1737553014.193,40.039,-19.043,-33.203,976.074,0.000
1737553014.197,28.320,-13.672,-4.395,732.422,0.000
1737553014.201,-23.438,-4.883,-13.184,-695.312,0.000
1737553014.205,-26.855,8.301,-15.625,-1000.000,0.000
1737553014.209,-24.414,-11.230,-16.113,-750.488,0.000
1737553014.213,16.113,-34.668,-28.809,667.969,0.000
1737553014.217,23.926,-18.555,-23.438,999.512,0.000
1737553014.220,-31.738,-16.602,-22.949,-514.648,0.000
1737553014.224,-31.738,-16.602,-10.254,-1000.000,0.000
1737553014.228,-13.672,-20.996,-3.906,-904.297,0.000
1737553014.232,-8.301,-17.090,-22.461,352.539,0.000
1737553014.236,-4.883,-12.695,-32.227,999.512,0.000
1737553014.240,-41.016,-27.344,-41.016,-102.051,0.000
1737553014.244,-50.781,-20.508,-24.902,-1000.000,0.000
1737553014.248,-9.766,-27.832,1.953,-162.598,0.000
1737553014.252,13.184,-23.438,-15.625,906.250,0.000
1737553014.256,0.977,-20.020,-26.367,999.512,0.000
1737553014.260,-12.207,-15.137,-7.812,633.789,0.000
1737553014.263,-28.320,-1.465,-4.883,-826.660,0.000
1737553014.267,-5.371,-16.602,-19.531,-252.930,0.000
1737553014.271,18.555,-19.043,-37.598,972.168,0.000
1737553014.275,-0.488,0.488,-32.227,999.512,0.000
1737553014.279,-15.137,-5.859,-6.836,450.684,0.000
1737553014.283,-42.969,-22.461,-6.348,-934.082,0.000
1737553014.287,-40.039,-20.996,-19.531,-860.840,0.000
1737553014.291,2.441,-22.949,-28.320,647.461,0.000
1737553014.295,15.137,-28.320,-34.668,999.512,0.000
1737553014.299,-20.020,-17.578,-37.109,-296.387,0.000
1737553014.302,-28.809,-5.371,-43.945,-1000.000,0.000
1737553014.306,-25.391,-6.836,-52.734,-945.312,0.000
1737553014.310,-42.480,-22.461,-32.715,-999.023,0.000
1737553014.314,-45.410,-14.160,-2.930,-1000.000,0.000
1737553014.318,-34.180,-3.418,0.977,-1000.000,0.000
1737553014.322,-15.137,-18.555,-4.395,-1000.000,0.000
1737553014.326,-15.137,-30.762,-21.973,-1000.000,0.000
1737553014.330,-24.414,-24.414,-32.715,-1000.000,0.000
1737553014.334,-18.555,-3.418,-34.668,-1000.000,0.000
1737553014.338,-40.527,-5.371,-45.898,-1000.000,0.000
1737553014.342,-55.176,-14.160,-19.043,-1000.000,0.000
1737553014.345,-25.391,-14.160,-11.719,-1000.000,0.000
1737553014.349,-11.719,-21.484,-40.039,-1000.000,0.000
1737553014.353,-7.324,-21.973,-19.531,-1000.000,0.000
1737553014.357,-12.695,-31.250,-1.953,-1000.000,0.000
1737553014.361,-17.090,-39.062,-23.438,-943.848,0.000
1737553014.365,-28.320,-14.648,-38.086,-1000.000,0.000
1737553014.369,-38.086,-15.625,-28.809,-779.785,0.000
1737553014.373,-10.254,-20.508,-13.184,711.426,0.000
1737553014.377,-6.836,-12.207,-9.277,982.910,0.000
1737553014.381,-31.250,-18.066,-22.949,-518.066,0.000
1737553014.385,-40.527,-15.137,-20.996,-1000.000,0.000
1737553014.388,-30.273,-2.441,-13.184,-716.309,0.000
1737553014.392,0.000,-14.160,-18.066,723.633,0.000
1737553014.396,2.441,-30.762,-19.531,935.547,0.000
1737553014.400,-36.133,-15.137,-12.695,-677.734,0.000
1737553014.404,-43.457,-8.789,0.000,-1000.000,0.000
1737553014.408,-32.715,-17.578,2.441,-926.270,0.000
1737553014.412,-24.414,-22.461,-17.090,-1000.000,0.000
1737553014.416,-20.996,-25.391,-25.391,-1000.000,0.000
1737553014.420,2.441,-3.906,-14.648,-1000.000,0.000
1737553014.424,9.766,6.348,-4.395,-1000.000,0.000
1737553014.427,-23.926,-13.184,-12.207,-1000.000,0.000
1737553014.431,-29.297,-20.996,-8.301,-1000.000,0.000
1737553014.435,-16.602,-17.090,-9.277,-1000.000,0.000
1737553014.439,-29.785,-24.414,-9.766,-1000.000,0.000
1737553014.443,-32.715,-36.621,-19.043,-1000.000,0.000
1737553014.447,-9.766,-18.066,-26.855,-1000.000,0.000
1737553014.451,6.348,-3.906,-10.742,-994.141,0.000
1737553014.455,-15.137,-24.414,-16.113,-1000.000,0.000
1737553014.459,-44.922,-27.832,-32.715,-943.848,0.000
1737553014.463,-46.875,0.977,-20.996,-1000.000,0.000
1737553014.467,-38.086,2.930,-16.602,-786.621,0.000
1737553014.470,-16.602,-14.648,-8.301,563.965,0.000
1737553014.474,-13.672,-28.809,1.953,999.512,0.000
1737553014.478,-21.973,-32.715,-2.441,689.453,0.000
1737553014.482,-30.762,-26.855,-12.695,-679.688,0.000
1737553014.486,-32.227,-9.766,-20.996,-1000.000,0.000
1737553014.490,-0.488,1.465,-13.672,60.547,0.000
1737553014.494,3.418,-7.324,-16.602,999.512,0.000
1737553014.498,-37.598,-17.578,-26.367,649.902,0.000
1737553014.502,-61.523,-20.020,-15.137,-768.066,0.000
1737553014.506,-56.152,-17.090,-3.418,-1000.000,0.000
1737553014.510,-42.969,-15.625,-1.953,-936.523,0.000
1737553014.513,-40.527,-18.066,-16.602,-1000.000,0.000
1737553014.517,-41.016,-24.902,-31.250,-1000.000,0.000
1737553014.521,-35.645,-26.367,-18.555,-1000.000,0.000
1737553014.525,-42.480,-33.203,-23.438,-1000.000,0.000
1737553014.529,-42.480,-64.453,-20.020,-1000.000,0.000
1737553014.533,-37.598,-46.387,-24.902,-1000.000,0.000
1737553014.537,-37.598,-1.465,-41.992,-1000.000,0.000
1737553014.541,-43.945,-5.371,-24.414,-1000.000,0.000
1737553014.545,-41.016,-14.648,-10.254,-1000.000,0.000
1737553014.549,-30.273,-17.578,-26.367,-1000.000,0.000
1737553014.552,-14.160,-17.578,-46.387,-1000.000,0.000
1737553014.556,-6.348,-46.875,-24.902,-1000.000,0.000
1737553014.560,-3.906,-61.523,-19.531,-1000.000,0.000
1737553014.564,-16.602,-21.484,-32.227,-993.164,0.000
1737553014.568,-7.812,4.395,-28.809,-1000.000,0.000
1737553014.572,11.230,-0.488,-21.973,-974.609,0.000
1737553014.576,-36.621,-11.719,-20.508,-864.258,0.000
1737553014.580,-42.969,-28.809,-26.855,-956.543,0.000
1737553014.584,-3.906,-38.086,-24.414,-1000.000,0.000
1737553014.588,-1.953,-32.227,-15.137,3.906,0.000
1737553014.592,-12.207,-6.836,-14.648,963.379,0.000
1737553014.595,-8.789,15.625,-15.625,999.512,0.000
1737553014.599,-6.836,11.719,-5.371,545.898,0.000
1737553014.603,-49.316,-15.625,-21.973,-915.527,0.000
1737553014.607,-33.203,-26.367,-40.039,-555.176,0.000
1737553014.611,4.395,-36.133,-26.367,799.316,0.000
1737553014.615,-6.348,-40.527,-27.344,999.512,0.000
1737553014.619,-20.508,-39.551,-20.020,763.184,0.000
1737553014.623,-49.805,-25.879,-19.043,-741.699,0.000
1737553014.627,-35.156,-6.348,-27.344,-901.855,0.000
1737553014.631,11.719,4.395,-15.625,635.254,0.000
1737553014.635,19.531,0.488,-8.789,999.512,0.000
1737553014.638,6.836,-19.531,-30.273,481.445,0.000
1737553014.642,-69.336,-36.133,-32.715,-827.148,0.000
1737553014.646,-93.750,-25.879,-23.926,-1000.000,0.000
1737553014.650,-57.129,-27.832,-47.363,-944.824,0.000
1737553014.654,-49.316,-26.855,-32.715,-1000.000,0.000
1737553014.658,-36.621,2.930,-3.906,-1000.000,0.000
1737553014.662,-27.344,2.441,0.488,-1000.000,0.000
1737553014.666,-17.090,-0.488,-5.371,-1000.000,0.000
1737553014.670,-22.949,-2.441,-15.137,-1000.000,0.000
1737553014.674,-31.738,-19.043,-13.184,-1000.000,0.000
1737553014.677,-20.508,-23.438,-12.695,-1000.000,0.000
1737553014.681,-6.836,-13.672,-14.160,-1000.000,0.000
1737553014.685,4.883,5.859,-32.715,-1000.000,0.000
1737553014.689,18.555,2.930,-51.758,-1000.000,0.000
1737553014.693,13.672,-28.320,-39.551,-1000.000,0.000
1737553014.697,-1.953,-35.156,-25.391,-1000.000,0.000
1737553014.701,2.930,-14.648,-18.555,-1000.000,0.000
1737553014.705,1.953,-20.508,-10.254,-1000.000,0.000
1737553014.709,-0.488,-41.504,-40.039,-1000.000,0.000
1737553014.713,2.441,-36.621,-47.852,-1000.000,0.000
1737553014.717,6.348,-19.043,-28.809,-975.098,0.000
1737553014.720,1.465,-20.508,-26.855,-987.793,0.000
1737553014.724,23.438,-24.902,-22.949,-1000.000,0.000
1737553014.728,50.781,-7.324,-13.672,79.102,0.000
1737553014.732,29.785,4.395,-16.113,999.512,0.000
1737553014.736,19.531,-8.789,-28.809,903.809,0.000
1737553014.740,-10.254,-28.809,-44.434,-361.816,0.000
1737553014.744,-25.391,-34.180,-29.785,-1000.000,0.000
1737553014.748,-24.902,-14.648,-10.254,-931.641,0.000
1737553014.752,-26.367,-8.301,0.000,304.199,0.000
1737553014.756,-14.160,-18.555,-12.207,999.512,0.000
1737553014.760,-39.062,-21.484,-38.574,-187.988,0.000
1737553014.763,-38.086,-19.531,-34.180,-1000.000,0.000
1737553014.767,-23.438,-32.227,-13.672,-1000.000,0.000
1737553014.771,-23.438,-38.086,-12.207,-615.723,0.000
1737553014.775,11.230,-6.348,-31.738,829.102,0.000
1737553014.779,11.719,-4.883,-31.250,606.934,0.000
1737553014.783,-15.625,-30.273,-5.859,-842.285,0.000
1737553014.787,-30.762,-14.160,0.977,-1000.000,0.000
1737553014.791,-29.785,-1.465,-6.836,-396.484,0.000
1737553014.795,5.859,-20.020,-20.996,920.410,0.000
1737553014.799,0.488,-23.438,-20.020,493.652,0.000
1737553014.802,-43.945,-17.578,-26.367,-923.340,0.000
1737553014.806,-33.203,-19.531,-25.391,-1000.000,0.000
1737553014.810,-13.672,-27.344,-10.254,-953.125,0.000
1737553014.814,-6.348,-20.508,-23.926,-798.340,0.000
1737553014.818,-2.441,-0.977,-25.879,-826.660,0.000
1737553014.822,9.766,-15.137,-15.137,-1000.000,0.000
1737553014.826,22.461,-36.133,-26.367,-963.867,0.000
1737553014.830,10.254,-14.160,-30.762,238.770,0.000
1737553014.834,7.812,7.324,-2.930,999.512,0.000
1737553014.838,-9.766,-0.977,-7.812,804.688,0.000
1737553014.842,-34.668,-14.160,-20.020,-727.539,0.000
1737553014.845,7.324,-16.602,6.836,-906.738,0.000
1737553014.849,47.363,-12.695,-0.977,684.082,0.000
1737553014.853,6.348,-8.789,-29.297,999.512,0.000
1737553014.857,-38.574,-11.719,-18.066,948.730,0.000
1737553014.861,-53.711,-34.668,-28.809,-286.621,0.000
1737553014.865,-44.922,-18.555,-37.598,-1000.000,0.000
1737553014.869,-9.277,29.297,-9.766,350.098,0.000
1737553014.873,-3.418,22.949,-5.859,999.512,0.000
1737553014.877,-10.742,-13.672,-13.672,955.566,0.000
1737553014.881,-16.602,-19.531,-14.648,-57.129,0.000
1737553014.884,-28.809,-3.906,-15.625,-1000.000,0.000
1737553014.888,-18.555,-3.418,-22.949,-233.887,0.000
1737553014.892,-16.602,-14.648,-13.184,892.578,0.000
1737553014.896,-1.465,-10.742,-4.395,999.512,0.000
1737553014.900,27.832,-7.812,-18.555,211.914,0.000
1737553014.904,-6.348,-0.488,-18.555,-1000.000,0.000
1737553014.908,-32.227,11.719,-16.602,-308.105,0.000
1737553014.912,-14.160,6.836,1.953,872.070,0.000
1737553014.916,19.531,-13.184,11.230,999.512,0.000
1737553014.920,5.371,-25.391,-13.184,759.766,0.000
1737553014.924,-41.016,-21.973,-49.316,-757.324,0.000
1737553014.927,-28.320,-20.020,-41.504,-885.254,0.000
1737553014.931,-2.441,-14.648,-5.371,645.508,0.000
1737553014.935,-0.488,-3.906,-8.301,999.512,0.000
1737553014.939,-19.043,-2.930,-11.230,695.801,0.000
1737553014.943,-45.410,-15.137,-22.461,-795.898,0.000
1737553014.947,-35.156,-16.602,-21.973,-552.734,0.000
1737553014.951,-9.766,-7.812,4.395,924.316,0.000
1737553014.955,-14.160,-4.395,-8.789,997.559,0.000
1737553014.959,-1.953,-28.320,-41.504,916.992,0.000
1737553014.963,1.465,-28.809,-30.762,970.703,0.000
1737553014.967,-18.066,-1.953,0.488,984.375,0.000
1737553014.970,0.000,-35.645,-1.465,924.805,0.000
1737553014.974,-6.836,-45.898,-24.902,982.422,0.000
1737553014.978,-54.688,-10.254,-28.320,989.258,0.000
1737553014.982,-77.148,6.348,-14.648,-517.090,0.000
1737553014.986,-69.336,1.465,6.836,-905.762,0.000
1737553014.990,-21.484,-5.371,9.277,658.691,0.000
1737553014.994,-5.371,-2.441,-5.859,999.512,0.000
1737553014.998,-26.367,-10.742,-6.348,790.039,0.000
1737553015.002,-48.828,-31.738,-3.906,-520.020,0.000
1737553015.006,-44.434,-63.477,-10.742,-1000.000,0.000
1737553015.009,-35.645,-51.758,-28.320,-451.172,0.000
1737553015.013,-15.625,-8.301,-41.992,885.742,0.000
1737553015.017,-8.301,2.930,-14.648,836.426,0.000
1737553015.021,-43.945,-15.137,-5.859,-661.133,0.000
1737553015.025,-64.453,-10.254,-21.484,-1000.000,0.000
1737553015.029,-33.691,-2.441,-10.254,-923.828,0.000
1737553015.033,29.297,-34.668,-13.184,325.684,0.000
1737553015.037,38.086,-27.832,-21.484,999.512,0.000
1737553015.041,-12.207,14.160,-16.113,-353.027,0.000
1737553015.045,-43.945,11.719,-10.254,-1000.000,0.000
1737553015.049,-21.973,-1.465,-6.348,441.895,0.000
1737553015.052,-14.648,-2.930,-6.836,999.512,0.000
1737553015.056,-31.250,-11.719,-7.812,999.512,0.000
1737553015.060,-66.895,-22.949,-22.949,556.641,0.000
1737553015.064,-93.262,-56.641,-39.062,-884.277,0.000
1737553015.068,-62.500,-63.477,-38.086,-66.406,0.000
1737553015.072,-32.715,-21.484,-35.645,999.512,0.000
1737553015.076,-35.156,3.418,-12.695,937.012,0.000
1737553015.080,-41.016,-12.695,0.488,936.523,0.000
1737553015.084,-29.297,-34.668,3.906,945.312,0.000
1737553015.088,-30.762,-27.832,-2.930,987.305,0.000
1737553015.092,-34.668,-33.691,-15.137,906.738,0.000
1737553015.095,-32.715,-36.621,-11.719,999.512,0.000
1737553015.099,-54.688,-11.719,-3.906,770.508,0.000
1737553015.103,-74.707,-22.461,-19.531,-777.344,0.000
1737553015.107,-47.852,-41.016,-40.039,-286.133,0.000
1737553015.111,-21.484,-16.602,-14.160,974.121,0.000
1737553015.115,-24.414,-1.953,8.789,999.512,0.000
1737553015.119,-32.715,1.465,6.348,454.102,0.000
1737553015.123,-29.785,2.930,2.441,-817.383,0.000
1737553015.127,-13.184,-10.254,-23.926,-1000.000,0.000
1737553015.131,0.488,-38.086,-41.992,-462.891,0.000
1737553015.134,20.508,-32.227,-26.367,898.926,0.000
1737553015.138,10.742,-5.859,-33.691,578.125,0.000
1737553015.142,-55.664,-2.441,-21.484,-829.590,0.000
1737553015.146,-73.730,-11.230,-10.254,-1000.000,0.000
1737553015.150,-26.855,-12.695,-10.254,-604.004,0.000
1737553015.154,12.695,0.488,2.441,751.953,0.000
1737553015.158,-6.836,2.441,0.488,999.512,0.000
1737553015.162,-52.734,-3.418,-18.066,-553.223,0.000
1737553015.166,-46.387,-12.207,-12.207,-876.953,0.000
1737553015.170,-4.395,-17.578,-6.348,748.047,0.000
1737553015.174,-5.371,-31.250,-12.695,999.512,0.000
1737553015.177,-9.277,-31.738,-21.973,902.832,0.000
1737553015.181,-1.953,-17.090,-33.203,986.328,0.000
1737553015.185,-2.930,-9.766,-19.043,970.703,0.000
1737553015.189,-16.113,-9.766,-2.930,970.703,0.000
1737553015.193,-5.859,-31.250,-25.391,970.703,0.000
1737553015.197,16.113,-41.016,-45.898,970.703,0.000
1737553015.201,8.301,-18.555,-37.598,970.703,0.000
1737553015.205,-7.812,-17.090,-28.320,976.074,0.000
1737553015.209,-17.578,-18.555,-13.184,957.031,0.000
1737553015.213,-17.578,-19.531,-10.254,934.570,0.000
1737553015.216,-15.625,-20.020,-19.043,999.512,0.000
1737553015.220,-50.781,-13.184,-11.719,91.797,0.000
1737553015.224,-70.312,-17.090,-15.137,-1000.000,0.000
1737553015.228,-35.156,-29.785,-15.625,-154.297,0.000
1737553015.232,-6.836,-28.809,-34.668,960.449,0.000
1737553015.236,-14.648,-29.785,-34.180,999.512,0.000
1737553015.240,-39.062,-35.156,-13.672,26.367,0.000
1737553015.244,-54.199,-21.973,-39.062,-1000.000,0.000
1737553015.248,-44.434,-3.418,-42.969,-273.438,0.000
1737553015.252,-8.301,-0.488,-18.555,890.137,0.000
1737553015.256,0.977,-8.301,-11.230,995.117,0.000
1737553015.259,-16.602,-19.043,0.488,939.453,0.000
1737553015.263,-32.715,-34.180,6.348,-419.922,0.000
1737553015.267,-18.066,-25.391,-10.742,-707.520,0.000
1737553015.271,-2.441,2.441,-39.551,738.281,0.000
1737553015.275,-30.273,5.859,-22.949,999.512,0.000
1737553015.279,-36.621,-15.625,-14.648,765.625,0.000
1737553015.283,-44.434,-17.578,-32.227,-704.590,0.000
1737553015.287,-57.617,-7.324,-35.156,-1000.000,0.000
1737553015.291,-30.273,-4.883,-28.809,524.902,0.000
1737553015.295,-24.414,-18.555,-6.348,999.512,0.000
1737553015.299,-57.617,-19.531,-6.836,360.352,0.000
1737553015.302,-67.383,-23.926,-5.859,-855.957,0.000
1737553015.306,-50.781,-32.227,-14.648,-1000.000,0.000
1737553015.310,-52.734,-20.996,-22.949,-1000.000,0.000
1737553015.314,-39.062,-17.578,-17.578,-121.582,0.000
1737553015.318,-15.625,-6.836,-29.785,629.883,0.000
1737553015.322,-44.922,-5.371,-28.809,-668.457,0.000
1737553015.326,-48.828,-13.672,-20.508,-1000.000,0.000
1737553015.330,-26.367,-32.227,-38.574,-940.430,0.000
1737553015.334,-3.418,-32.715,-17.578,338.867,0.000
1737553015.338,-1.465,-1.465,1.465,999.512,0.000
1737553015.341,-39.062,-16.602,-17.578,-501.465,0.000
1737553015.345,-40.527,-38.086,-26.855,-1000.000,0.000
1737553015.349,-16.113,-15.625,-20.996,-559.570,0.000
1737553015.353,4.883,6.348,-13.672,690.918,0.000
1737553015.357,32.227,5.371,-8.789,999.512,0.000
1737553015.361,15.625,-23.926,-34.180,151.367,0.000
1737553015.365,-18.555,-26.855,-58.105,-941.406,0.000
1737553015.369,-0.977,-6.348,-20.020,305.664,0.000
1737553015.373,-1.953,6.348,3.906,999.512,0.000
1737553015.377,-5.859,-7.812,-7.324,902.344,0.000
1737553015.381,5.859,-35.645,-22.949,945.801,0.000
1737553015.384,9.766,-14.648,-28.320,948.242,0.000
1737553015.388,-6.836,-5.859,-7.324,984.863,0.000
1737553015.392,-38.086,-28.809,12.695,924.316,0.000
1737553015.396,-36.133,-16.113,-5.859,999.512,0.000
1737553015.400,-23.926,-12.695,-20.020,805.664,0.000
1737553015.404,-33.203,-17.090,-17.578,99.121,0.000
1737553015.408,-33.203,-7.812,-35.156,720.215,0.000
1737553015.412,-38.574,-15.137,-42.969,999.512,0.000
1737553015.416,-19.531,-41.504,-13.184,978.027,0.000
1737553015.420,-18.555,-43.945,-10.742,742.676,0.000
1737553015.424,-62.988,-16.113,-11.719,-798.340,0.000
1737553015.427,-44.922,1.465,4.883,-855.469,0.000
1737553015.431,-3.418,4.883,-6.836,656.738,0.000
1737553015.435,-4.395,-8.301,-25.879,999.512,0.000
1737553015.439,-33.203,-26.367,-32.715,344.238,0.000
1737553015.443,-58.594,-23.438,-23.438,-916.504,0.000
1737553015.447,-48.828,-20.996,-26.367,-1000.000,0.000
1737553015.451,-24.414,-23.438,-22.949,222.168,0.000
1737553015.455,-2.441,-27.344,-23.438,999.512,0.000
1737553015.459,-8.789,-19.043,-34.180,739.746,0.000
1737553015.463,-47.363,-11.230,-27.344,-645.996,0.000
1737553015.466,-45.898,-17.578,-12.207,-1000.000,0.000
1737553015.470,-4.395,-29.297,-23.438,-66.406,0.000
1737553015.474,20.508,-36.133,-22.949,950.195,0.000
1737553015.478,16.113,-25.391,-12.207,999.512,0.000
1737553015.482,-16.602,-3.906,-27.344,161.621,0.000
1737553015.486,-27.344,5.371,-25.391,-203.613,0.000
1737553015.490,17.090,-12.695,-20.508,841.797,0.000
1737553015.494,32.227,-35.645,-20.996,999.512,0.000
1737553015.498,3.906,-16.113,-21.973,922.363,0.000
1737553015.502,-1.465,2.441,-26.367,977.539,0.000
1737553015.506,-2.441,-11.719,-17.090,969.727,0.000
1737553015.509,-24.414,-17.090,-12.695,971.191,0.000
1737553015.513,-43.457,-20.996,-24.414,970.215,0.000
1737553015.517,-44.434,-38.086,-17.578,970.703,0.000
1737553015.521,-30.762,-20.996,-2.441,970.703,0.000
1737553015.525,-3.906,-29.785,-14.160,970.703,0.000
1737553015.529,-9.277,-54.688,-10.254,970.703,0.000
1737553015.533,-33.203,-20.508,-7.812,967.773,0.000
1737553015.537,-29.297,-3.418,-17.578,981.934,0.000
1737553015.541,-29.297,-4.883,-16.113,910.156,0.000
1737553015.545,-29.297,-4.883,-12.695,910.645,0.000
1737553015.549,-17.090,-16.113,-3.906,988.770,0.000
1737553015.552,2.441,-22.461,-6.348,909.180,0.000
1737553015.556,4.395,-24.414,-11.719,999.512,0.000
1737553015.560,1.465,-19.531,-14.160,524.902,0.000
1737553015.564,-28.809,-13.184,-23.438,-919.922,0.000
1737553015.568,-20.508,-3.418,-15.625,-158.203,0.000
1737553015.572,26.367,-10.742,-10.254,998.535,0.000
1737553015.576,14.648,-30.762,-17.090,999.512,0.000
1737553015.580,-9.277,-2.930,-8.301,854.004,0.000
1737553015.584,-16.113,-0.488,-8.789,-29.297,0.000
1737553015.588,-5.859,-21.973,-22.461,542.480,0.000
1737553015.591,-14.648,-5.859,-17.090,999.512,0.000
1737553015.595,-34.668,3.906,-8.301,950.195,0.000
1737553015.599,-31.738,-6.348,-0.977,920.898,0.000
1737553015.603,-24.414,-22.949,0.000,521.973,0.000
1737553015.607,-16.113,-24.414,-18.066,832.031,0.000
1737553015.611,-16.602,-14.648,-32.715,999.512,0.000
1737553015.615,-22.949,-4.395,-22.461,954.102,0.000
1737553015.619,-13.184,-1.953,0.977,961.426,0.000
1737553015.623,-5.859,-20.996,15.625,813.965,0.000
1737553015.627,-24.414,-27.832,-4.395,934.082,0.000
1737553015.631,-25.391,-6.348,-18.066,933.105,0.000
1737553015.634,-7.324,-2.441,-15.137,999.512,0.000
1737553015.638,-8.301,-18.066,-17.090,898.926,0.000
1737553015.642,-51.758,-19.531,-23.438,-697.266,0.000
1737553015.646,-58.594,-18.066,-21.973,-863.281,0.000
1737553015.650,-10.742,-7.324,-10.742,715.332,0.000
1737553015.654,-7.324,-3.418,-18.555,999.512,0.000
1737553015.658,-23.438,-22.949,-50.781,952.148,0.000
1737553015.662,-29.785,-30.273,-39.551,-416.016,0.000
1737553015.666,-44.922,-31.738,-10.742,-938.965,0.000
1737553015.670,-37.109,-39.062,-11.230,693.359,0.000
1737553015.674,-23.926,-14.160,-21.973,999.512,0.000
1737553015.677,-38.086,-15.625,-29.785,923.828,0.000
1737553015.681,-42.969,-40.527,-27.832,738.281,0.000
1737553015.685,-13.672,-22.949,-10.254,771.973,0.000
1737553015.689,-8.301,-6.836,-18.555,999.512,0.000
1737553015.693,-16.113,-11.230,-20.508,951.660,0.000
1737553015.697,-13.672,-3.906,-4.395,995.117,0.000
1737553015.701,-25.879,-4.883,-30.762,832.031,0.000
1737553015.705,-27.832,-12.695,-15.137,824.707,0.000
1737553015.709,-25.391,-15.625,8.789,999.512,0.000
1737553015.713,-41.016,-21.973,0.488,903.320,0.000
1737553015.716,-41.992,-36.133,-17.578,999.512,0.000
1737553015.720,-61.035,-42.480,-37.598,529.785,0.000
1737553015.724,-79.590,-33.691,-31.250,-836.914,0.000
1737553015.728,-46.875,-30.273,-28.809,159.180,0.000
1737553015.732,-29.785,-30.273,-34.180,999.512,0.000
1737553015.736,-21.973,-25.879,-16.602,978.027,0.000
1737553015.740,-6.836,-24.414,-11.719,779.785,0.000
1737553015.744,-26.367,-30.273,-25.391,-750.488,0.000
1737553015.748,-27.344,-18.555,-6.348,-316.895,0.000
1737553015.752,-0.977,1.465,-4.395,999.512,0.000
1737553015.756,-4.883,0.977,-11.719,959.961,0.000
1737553015.759,-25.879,-21.484,-16.602,939.941,0.000
1737553015.763,-36.621,-23.438,-18.066,979.980,0.000
1737553015.767,-19.043,-16.602,-28.809,970.703,0.000
1737553015.771,-4.395,-18.066,-34.668,970.703,0.000
1737553015.775,-10.742,-25.879,-23.438,970.703,0.000
1737553015.779,-14.160,-41.992,-11.230,970.703,0.000
1737553015.783,-8.301,-42.480,-9.766,970.703,0.000
1737553015.787,-9.766,-42.480,-7.812,970.703,0.000
1737553015.791,2.930,-18.066,-16.113,970.703,0.000
1737553015.795,-6.836,6.836,-13.184,970.703,0.000
1737553015.799,-25.391,0.977,-14.160,970.703,0.000
1737553015.802,-9.277,-4.883,-17.090,970.703,0.000
1737553015.806,25.391,2.930,-14.160,970.703,0.000
1737553015.810,9.766,4.395,-16.113,970.703,0.000
1737553015.814,-2.930,-14.160,-31.738,970.703,0.000
1737553015.818,2.930,-27.832,-32.715,970.215,0.000
1737553015.822,-25.879,-24.902,-12.695,970.703,0.000
1737553015.826,-37.598,-19.531,-15.625,970.703,0.000
1737553015.830,-36.133,-19.043,-15.625,970.703,0.000
1737553015.834,-38.086,-30.762,-10.742,970.703,0.000
1737553015.838,-20.508,-29.785,-7.812,970.703,0.000
1737553015.841,-2.441,-13.184,-15.137,970.703,0.000
1737553015.845,-2.930,-1.465,-17.578,970.703,0.000
1737553015.849,-9.766,-5.371,-11.719,970.703,0.000
1737553015.853,-20.508,-13.184,-24.902,970.703,0.000
1737553015.857,-17.090,-15.625,-11.230,970.703,0.000
1737553015.861,12.695,-5.859,-10.254,970.703,0.000
1737553015.865,26.367,-1.953,-27.344,970.703,0.000
1737553015.869,-4.883,-20.020,-12.695,970.703,0.000
1737553015.873,-30.273,-21.484,-4.883,970.215,0.000
1737553015.877,-25.391,-5.371,-20.020,970.703,0.000
1737553015.881,-30.273,-1.953,-23.926,970.703,0.000
1737553015.884,-35.645,-22.949,-18.066,970.215,0.000
1737553015.888,-17.578,-38.086,-28.809,970.703,0.000
1737553015.892,-18.555,-31.250,-33.203,970.703,0.000
1737553015.896,-51.270,-11.719,-18.066,970.703,0.000
1737553015.900,-48.340,0.488,-11.230,970.703,0.000
1737553015.904,-19.043,-9.277,-30.762,970.703,0.000
1737553015.908,-18.555,-18.555,-41.504,970.703,0.000
1737553015.912,-43.457,-21.973,-10.254,970.703,0.000
1737553015.916,-55.664,-35.645,3.906,970.703,0.000
1737553015.920,-30.273,-39.062,-17.578,970.703,0.000
1737553015.923,0.977,-20.996,-29.785,970.703,0.000
1737553015.927,15.137,-8.789,-22.461,970.703,0.000
1737553015.931,10.254,-10.254,-30.762,970.703,0.000
1737553015.935,-2.441,0.000,-31.250,970.215,0.000
1737553015.939,-3.906,-1.465,-27.832,970.215,0.000
1737553015.943,-1.953,-22.461,-11.719,970.703,0.000
1737553015.947,0.488,-20.996,5.371,970.703,0.000
1737553015.951,8.789,-20.996,-1.953,970.703,0.000
1737553015.955,10.742,-23.926,-16.113,970.703,0.000
1737553015.959,10.254,-13.184,-17.090,970.703,0.000
1737553015.963,1.465,-12.207,-28.809,970.703,0.000
1737553015.966,-6.836,-17.578,-17.578,970.703,0.000
1737553015.970,-21.973,-18.066,-19.531,970.703,0.000
1737553015.974,-48.828,-22.461,-31.250,970.703,0.000
1737553015.978,-52.734,-24.902,-20.020,970.703,0.000
1737553015.982,-59.082,-27.344,-11.719,971.191,0.000
1737553015.986,-65.430,-25.879,-2.930,983.398,0.000
1737553015.990,-62.988,-19.043,-3.418,907.227,0.000
1737553015.994,-56.641,-11.719,-6.348,999.512,0.000
1737553015.998,-49.316,-7.812,-15.137,611.816,0.000
1737553016.002,-78.613,-14.648,-30.273,-801.758,0.000
1737553016.006,-76.660,-23.438,-16.602,-1000.000,0.000
1737553016.009,-63.477,-28.809,-25.879,-940.918,0.000
1737553016.013,-65.430,-19.531,-29.297,-1000.000,0.000
1737553016.017,-49.316,-17.090,-15.625,-1000.000,0.000
1737553016.021,-40.039,-16.113,-23.438,-1000.000,0.000
1737553016.025,-32.227,-10.742,-31.738,-1000.000,0.000
1737553016.029,-6.348,-8.789,-42.969,-1000.000,0.000
1737553016.033,-14.160,-23.926,-35.645,-1000.000,0.000
1737553016.037,-34.668,-39.551,-21.484,-1000.000,0.000
1737553016.041,-26.367,-22.949,-23.926,-1000.000,0.000
1737553016.045,-21.484,-9.277,-25.879,-1000.000,0.000
1737553016.048,-21.484,-12.695,-37.109,-1000.000,0.000
1737553016.052,17.578,-9.766,-26.855,-1000.000,0.000
1737553016.056,45.410,-33.203,-22.461,-1000.000,0.000
1737553016.060,12.695,-32.227,-43.457,-1000.000,0.000
1737553016.064,-54.688,-0.977,-37.109,-1000.000,0.000
1737553016.068,-97.168,4.395,-9.766,-1000.000,0.000
1737553016.072,-78.613,-7.324,-14.160,-1000.000,0.000
1737553016.076,-56.152,-7.324,-28.809,-1000.000,0.000
1737553016.080,-49.805,-11.230,-21.484,-1000.000,0.000
1737553016.084,-37.598,-25.879,-8.789,-1000.000,0.000
1737553016.088,-35.156,-16.602,-6.348,-1000.000,0.000
1737553016.091,-55.664,-5.859,-17.090,-1000.000,0.000
1737553016.095,-54.199,-8.789,-44.434,-1000.000,0.000
1737553016.099,-57.617,-18.066,-61.523,-1000.000,0.000
1737553016.103,-69.336,-13.184,-35.645,-1000.000,0.000
1737553016.107,-40.527,-3.906,-14.160,-1000.000,0.000
1737553016.111,-23.926,-11.719,-15.625,-1000.000,0.000
1737553016.115,-41.504,-25.879,-20.996,-1000.000,0.000
1737553016.119,-40.039,-45.410,-21.973,-1000.000,0.000
1737553016.123,-18.066,-37.109,-17.578,-1000.000,0.000
1737553016.127,-12.695,-9.766,-20.996,-1000.000,0.000
1737553016.131,-23.926,-4.883,-23.438,-1000.000,0.000
1737553016.134,-16.602,-6.836,-23.438,-1000.000,0.000
1737553016.138,-11.719,-12.207,-24.414,-1000.000,0.000
1737553016.142,-6.348,-31.738,-44.434,-1000.000,0.000
1737553016.146,-9.766,-42.480,-48.828,-1000.000,0.000
1737553016.150,-46.387,-21.484,-17.578,-1000.000,0.000
1737553016.154,-52.734,-5.859,-21.973,-1000.000,0.000
1737553016.158,-23.926,-14.160,-22.461,-1000.000,0.000
1737553016.162,-48.828,-27.344,0.488,-1000.000,0.000
1737553016.166,-105.957,-18.555,-4.395,-1000.000,0.000
1737553016.170,-99.121,-16.113,-11.719,-1000.000,0.000
1737553016.173,-66.895,-28.809,-12.207,-995.117,0.000
1737553016.177,-71.289,-29.297,-14.648,-955.566,0.000
1737553016.181,-70.801,-22.949,-33.203,-1000.000,0.000
1737553016.185,-29.297,-8.301,-27.832,-215.332,0.000
1737553016.189,-10.742,-1.953,0.000,976.074,0.000
1737553016.193,-21.973,-4.395,-14.648,969.727,0.000
1737553016.197,-33.691,-2.441,-25.391,940.430,0.000
1737553016.201,-27.832,-10.254,-11.230,979.492,0.000
1737553016.205,-17.090,-20.020,-8.789,970.703,0.000
1737553016.209,-41.504,-24.902,-6.348,970.703,0.000
1737553016.213,-47.852,-24.414,-29.785,970.703,0.000
1737553016.216,-43.945,-25.879,-28.320,970.703,0.000
1737553016.220,-64.453,-41.016,-13.672,970.703,0.000
1737553016.224,-32.715,-22.461,-20.996,978.516,0.000
1737553016.228,-0.977,-2.441,-23.438,944.336,0.000
1737553016.232,-1.953,-12.695,-24.414,954.590,0.000
1737553016.236,-35.645,-20.996,-25.879,999.512,0.000
1737553016.240,-83.496,-32.715,-20.020,-121.582,0.000
1737553016.244,-64.941,-38.086,-6.348,-1000.000,0.000
1737553016.248,-25.391,-13.184,-25.391,-241.699,0.000
1737553016.252,-11.719,-3.418,-26.367,961.914,0.000
1737553016.256,-13.672,-10.742,-5.859,950.195,0.000
1737553016.259,-35.645,-17.090,-15.137,-472.168,0.000
1737553016.263,-73.730,-19.531,-26.855,-1000.000,0.000
1737553016.267,-75.684,-4.883,-41.504,-928.711,0.000
1737553016.271,-51.270,-9.277,-50.293,-1000.000,0.000
1737553016.275,-43.457,-39.551,-22.949,-1000.000,0.000
1737553016.279,-34.180,-44.434,3.906,-1000.000,0.000
1737553016.283,-13.672,-25.879,-12.207,-1000.000,0.000
1737553016.287,-20.020,-16.602,-20.996,-1000.000,0.000
1737553016.291,-26.367,-0.977,16.602,-1000.000,0.000
1737553016.295,-3.906,-10.254,5.371,-1000.000,0.000
1737553016.298,-16.113,-24.414,-28.320,-1000.000,0.000
1737553016.302,-52.734,-23.926,-22.461,-1000.000,0.000
1737553016.306,-42.969,-20.020,-22.461,-1000.000,0.000
1737553016.310,-15.625,-14.160,-26.367,-1000.000,0.000
1737553016.314,-9.766,-10.742,-22.461,-1000.000,0.000
1737553016.318,0.977,-9.277,-19.531,-1000.000,0.000
1737553016.322,4.395,-18.555,-20.996,-1000.000,0.000
1737553016.326,-1.465,-40.039,-13.672,-1000.000,0.000
1737553016.330,-5.859,-34.180,-12.207,-1000.000,0.000
1737553016.334,-13.672,-9.277,-12.695,-1000.000,0.000
1737553016.338,-8.301,0.488,-14.648,-1000.000,0.000
1737553016.341,-24.414,-2.930,-18.066,-1000.000,0.000
1737553016.345,-38.574,-9.766,-13.184,-1000.000,0.000
1737553016.349,-6.348,-20.020,-19.043,-1000.000,0.000
1737553016.353,1.465,-30.273,-31.738,-1000.000,0.000
1737553016.357,23.926,-22.949,-27.344,-1000.000,0.000
1737553016.361,22.949,-0.977,-14.648,-1000.000,0.000
1737553016.365,32.227,-5.371,-12.695,-1000.000,0.000
1737553016.369,4.395,-19.043,-5.371,-1000.000,0.000
1737553016.373,-42.480,-24.414,-3.906,-1000.000,0.000
1737553016.377,-15.625,-20.996,-13.672,-1000.000,0.000
1737553016.380,-20.508,-21.484,-23.438,-1000.000,0.000
1737553016.384,-34.180,-19.531,-51.270,-1000.000,0.000
1737553016.388,-35.645,-25.391,-47.852,-1000.000,0.000
1737553016.392,-33.691,-36.133,-13.184,-1000.000,0.000
1737553016.396,-22.461,-18.066,-2.441,-1000.000,0.000
1737553016.400,-23.926,-4.395,-14.160,-1000.000,0.000
1737553016.404,-27.832,-15.137,-14.160,-1000.000,0.000
1737553016.408,-28.809,-9.766,-15.625,-1000.000,0.000
1737553016.412,-49.805,11.230,-34.180,-1000.000,0.000
1737553016.416,-43.457,13.184,-20.508,-1000.000,0.000
1737553016.420,-14.648,-9.766,-4.395,-1000.000,0.000
1737553016.423,-20.508,-34.180,-6.836,-1000.000,0.000
1737553016.427,-45.410,-26.855,-27.344,-1000.000,0.000
1737553016.431,-35.156,-21.484,-41.016,-1000.000,0.000
1737553016.435,-10.254,-29.297,-27.344,-1000.000,0.000
1737553016.439,-3.418,-24.902,-8.301,-1000.000,0.000
1737553016.443,-22.949,-28.320,-9.277,-1000.000,0.000
1737553016.447,-29.785,-30.762,-8.789,-1000.000,0.000
1737553016.451,-20.996,-10.254,-14.648,-1000.000,0.000
1737553016.455,-5.371,6.348,-25.879,-1000.000,0.000
1737553016.459,-5.859,1.953,-20.996,-1000.000,0.000
1737553016.463,-37.598,-7.812,-1.465,-1000.000,0.000
1737553016.466,-66.895,-13.672,-9.277,-1000.000,0.000
1737553016.470,-60.059,-19.043,-28.320,-1000.000,0.000
1737553016.474,-24.414,-28.320,-24.902,-1000.000,0.000
1737553016.478,4.395,-31.738,-23.926,-1000.000,0.000
1737553016.482,-5.371,-19.043,-21.484,-1000.000,0.000
1737553016.486,-39.062,-10.254,-13.672,-1000.000,0.000
1737553016.490,-53.223,-12.207,-28.320,-1000.000,0.000
1737553016.494,-41.992,-28.809,-31.738,-1000.000,0.000
1737553016.498,-34.668,-28.320,-16.602,-1000.000,0.000
1737553016.502,-28.809,-10.254,-0.977,-1000.000,0.000
1737553016.505,-37.598,-4.883,6.836,-1000.000,0.000
1737553016.509,-50.293,-10.254,-3.906,-1000.000,0.000
1737553016.513,-30.762,-17.090,-8.789,-1000.000,0.000
1737553016.517,-16.113,-19.531,-12.207,-1000.000,0.000
1737553016.521,1.465,-10.254,-25.391,-1000.000,0.000
1737553016.525,31.250,-0.488,-24.902,-1000.000,0.000
1737553016.529,16.602,-10.254,-24.414,-1000.000,0.000
1737553016.533,-9.277,-24.414,-27.344,-1000.000,0.000
1737553016.537,16.602,-31.250,-19.043,-1000.000,0.000
1737553016.541,-6.836,-23.926,-24.414,-1000.000,0.000
1737553016.545,-20.020,-17.090,-36.133,-1000.000,0.000
1737553016.548,-1.953,-20.020,-26.367,-1000.000,0.000
1737553016.552,-18.555,-6.836,-37.109,-1000.000,0.000
1737553016.556,-32.227,-0.977,-21.484,-1000.000,0.000
1737553016.560,-17.090,-10.742,-18.066,-1000.000,0.000
1737553016.564,-15.625,-22.949,-19.043,-1000.000,0.000
1737553016.568,-24.414,-30.762,-9.766,-1000.000,0.000
1737553016.572,-21.484,-35.645,-31.250,-1000.000,0.000
1737553016.576,-27.344,-13.672,-23.438,-1000.000,0.000
1737553016.580,-35.156,-5.371,0.000,-1000.000,0.000
1737553016.584,-43.945,-15.625,-12.695,-1000.000,0.000
1737553016.588,-45.410,-18.555,-17.578,-1000.000,0.000
1737553016.591,-27.344,-8.789,-12.695,-1000.000,0.000
1737553016.595,-22.461,-3.418,-5.859,-1000.000,0.000
1737553016.599,-21.484,-10.254,-12.207,-1000.000,0.000
1737553016.603,-17.578,-17.090,-24.414,-1000.000,0.000
1737553016.607,-23.926,-17.090,-19.043,-1000.000,0.000
1737553016.611,-14.648,-19.531,-27.344,-1000.000,0.000
1737553016.615,-3.418,-40.039,-48.340,-1000.000,0.000
1737553016.619,-31.250,-45.410,-38.574,-1000.000,0.000
1737553016.623,-32.715,-3.906,-6.836,-1000.000,0.000
1737553016.627,5.859,15.137,-3.906,-1000.000,0.000
1737553016.630,-31.738,-2.441,-24.902,-1000.000,0.000
1737553016.634,-46.387,-12.207,-25.391,-1000.000,0.000
1737553016.638,-24.902,-2.930,1.953,-1000.000,0.000
1737553016.642,-31.250,-13.672,1.953,-1000.000,0.000
1737553016.646,-16.113,-21.973,-11.719,-1000.000,0.000
1737553016.650,-4.883,-2.930,-14.160,-1000.000,0.000
1737553016.654,-19.531,-5.859,-27.344,-1000.000,0.000
1737553016.658,-20.020,-19.531,-40.527,-1000.000,0.000
1737553016.662,-17.090,-21.973,-34.180,-1000.000,0.000
1737553016.666,-18.555,-23.926,-20.020,-1000.000,0.000
1737553016.670,-27.344,-22.949,-6.348,-1000.000,0.000
1737553016.673,-26.855,-14.648,-2.930,-1000.000,0.000
1737553016.677,-34.180,-12.207,-17.090,-1000.000,0.000
1737553016.681,-18.066,-22.949,-8.789,-1000.000,0.000
1737553016.685,-7.812,-25.391,0.000,-1000.000,0.000
1737553016.689,-15.625,-7.324,-9.277,-1000.000,0.000
1737553016.693,-13.672,4.395,-26.367,-1000.000,0.000
1737553016.697,10.742,-9.277,-27.832,-939.453,0.000
1737553016.701,21.484,-15.625,-26.367,-1000.000,0.000
1737553016.705,6.348,-0.488,-30.273,-844.727,0.000
1737553016.709,26.855,-3.418,-23.438,617.188,0.000
1737553016.712,32.227,-7.324,-4.395,999.512,0.000
1737553016.716,27.832,-5.371,-11.719,898.438,0.000
1737553016.720,24.414,-3.418,-22.461,986.816,0.000
1737553016.724,-3.418,-13.672,-8.301,970.703,0.000
1737553016.728,-15.137,-11.719,-4.883,970.703,0.000
1737553016.732,-20.996,-9.277,-20.996,970.703,0.000
1737553016.736,-17.578,-16.602,-32.227,970.703,0.000
1737553016.740,-35.645,-10.742,-31.738,970.703,0.000
1737553016.744,-58.594,-16.113,-24.902,970.703,0.000
1737553016.748,-40.039,-23.926,-10.742,970.703,0.000
1737553016.752,-40.039,-26.367,-10.254,970.703,0.000
1737553016.755,-42.969,-23.438,-26.367,970.703,0.000
1737553016.759,-35.645,-30.273,-17.578,970.703,0.000
1737553016.763,-38.086,-31.738,-12.207,970.703,0.000
1737553016.767,-39.062,-26.367,-22.949,970.215,0.000
1737553016.771,-20.020,-20.508,-24.414,970.703,0.000
1737553016.775,-18.066,-2.930,-29.297,970.703,0.000
1737553016.779,-38.574,-4.395,-15.137,970.703,0.000
1737553016.783,-27.832,3.906,-4.395,970.703,0.000
1737553016.787,-18.066,7.324,-6.836,970.703,0.000
1737553016.791,-19.043,-5.859,-16.113,970.703,0.000
1737553016.795,-20.020,-8.789,-20.020,970.703,0.000
1737553016.798,-35.645,-22.949,-25.879,970.703,0.000
1737553016.802,-29.297,-45.410,-15.625,970.703,0.000
1737553016.806,-11.719,-57.129,-2.441,970.703,0.000
1737553016.810,1.465,-40.527,-21.973,970.703,0.000
1737553016.814,7.324,-9.277,-30.762,970.703,0.000
1737553016.818,5.859,-7.812,-13.184,970.703,0.000
1737553016.822,-35.156,-20.996,-18.066,970.703,0.000
1737553016.826,-33.691,-18.555,-12.207,970.703,0.000
1737553016.830,-2.441,-18.066,0.977,970.703,0.000
1737553016.834,-9.766,-22.461,-17.578,970.703,0.000
1737553016.837,-13.184,-21.484,-35.156,970.703,0.000
1737553016.841,-32.715,-24.414,-22.461,970.703,0.000
1737553016.845,-26.855,-20.996,-21.973,970.703,0.000
1737553016.849,-24.902,-17.578,-29.297,970.703,0.000
1737553016.853,-48.340,-26.855,-13.672,970.703,0.000
1737553016.857,-42.969,-24.414,-12.207,970.703,0.000
1737553016.861,-30.273,-17.578,-12.695,970.703,0.000
1737553016.865,-28.320,-5.371,-9.277,970.703,0.000
1737553016.869,-30.762,-3.906,-26.855,970.703,0.000
1737553016.873,-19.531,-26.367,-32.227,970.703,0.000
1737553016.877,-9.766,-41.016,-34.180,970.703,0.000
1737553016.880,-20.020,-28.320,-27.344,970.703,0.000
1737553016.884,-17.578,-11.719,-19.531,970.703,0.000
1737553016.888,-14.648,-18.066,-22.949,970.703,0.000
1737553016.892,-7.812,-21.973,-11.719,970.703,0.000
1737553016.896,-22.949,-26.367,0.000,970.703,0.000
1737553016.900,-33.691,-17.090,-4.883,970.703,0.000
1737553016.904,-22.461,-6.836,-10.742,970.215,0.000
1737553016.908,-6.836,-6.348,-10.254,970.703,0.000
1737553016.912,1.465,-1.953,-16.602,970.703,0.000
1737553016.916,9.277,-4.395,-23.926,970.703,0.000
1737553016.920,-7.324,-22.949,-34.180,970.703,0.000
1737553016.923,-32.715,-39.062,-27.832,970.215,0.000
1737553016.927,-30.273,-30.273,-15.625,970.703,0.000
1737553016.931,-25.391,-23.438,-32.227,970.703,0.000
1737553016.935,-35.645,-19.043,-35.156,970.703,0.000
1737553016.939,-36.621,-16.113,-6.348,970.703,0.000
1737553016.943,-18.066,-26.855,1.953,970.703,0.000
1737553016.947,-16.602,-40.039,-7.812,970.703,0.000
1737553016.951,-22.949,-38.086,-25.879,970.703,0.000
1737553016.955,-21.973,-33.691,-30.762,970.703,0.000
1737553016.959,-23.438,-8.789,-13.184,970.703,0.000
1737553016.962,-15.137,-3.906,-20.508,970.703,0.000
1737553016.966,7.324,-9.766,-34.668,970.703,0.000
1737553016.970,11.719,1.465,-20.996,970.703,0.000
1737553016.974,11.719,1.953,-4.395,970.703,0.000
1737553016.978,2.930,-7.324,-1.465,970.703,0.000
1737553016.982,-27.832,-12.207,-14.160,970.703,0.000
1737553016.986,-46.875,-11.719,-21.484,971.191,0.000
1737553016.990,-54.199,-15.625,-16.602,974.609,0.000
1737553016.994,-29.785,-32.227,-20.996,937.500,0.000
1737553016.998,-17.090,-45.410,-10.254,999.512,0.000
1737553017.002,-29.785,-38.086,-18.555,716.797,0.000
1737553017.005,-58.105,-26.855,-41.992,323.242,0.000
1737553017.009,-39.551,-18.555,-28.809,877.930,0.000
1737553017.013,-33.203,-10.742,-4.883,960.449,0.000
1737553017.017,-34.668,4.883,-2.930,999.512,0.000
1737553017.021,-35.645,-5.859,-21.484,360.840,0.000
1737553017.025,-36.621,-20.020,-26.855,-759.766,0.000
1737553017.029,14.648,-19.043,-19.531,512.695,0.000
1737553017.033,33.691,-25.391,-22.461,999.512,0.000
1737553017.037,20.508,-21.484,-22.949,884.766,0.000
1737553017.041,1.953,-8.301,-28.320,985.840,0.000
1737553017.044,-4.395,3.418,-35.156,970.703,0.000
1737553017.048,12.695,-8.301,-0.977,970.703,0.000
1737553017.052,13.672,-15.625,3.418,970.703,0.000
1737553017.056,15.137,-19.043,-8.301,970.703,0.000
1737553017.060,23.926,-24.902,-5.371,970.703,0.000
1737553017.064,15.137,0.000,-2.930,970.703,0.000
1737553017.068,1.953,1.465,5.859,970.703,0.000
1737553017.072,-2.441,-20.020,0.488,970.703,0.000
1737553017.076,7.812,-8.301,-33.691,970.703,0.000
1737553017.080,9.766,-19.043,-40.527,970.703,0.000
1737553017.084,0.488,-21.484,-19.531,970.215,0.000
1737553017.087,-25.391,2.930,-5.859,970.703,0.000
1737553017.091,-41.504,-12.207,-0.488,970.703,0.000
1737553017.095,-18.066,-20.996,-7.812,970.703,0.000
1737553017.099,-15.625,-10.254,-16.602,970.703,0.000
1737553017.103,-37.109,-25.391,-20.996,970.703,0.000
1737553017.107,-30.762,-17.578,-38.086,983.887,0.000
1737553017.111,-20.020,-7.812,-20.508,908.203,0.000
1737553017.115,-6.348,-24.414,-8.789,999.512,0.000
1737553017.119,-17.578,-29.297,-33.691,638.672,0.000
1737553017.123,-53.711,-30.273,-35.645,-777.344,0.000
1737553017.127,-45.898,-26.367,-11.719,-1000.000,0.000
1737553017.130,-11.719,-26.367,-6.836,-938.965,0.000
1737553017.134,-15.137,-29.785,-13.672,-1000.000,0.000
1737553017.138,-47.852,-16.113,-24.902,-1000.000,0.000
1737553017.142,-46.387,-4.883,-50.781,-988.770,0.000
1737553017.146,-33.691,-37.109,-57.129,-965.820,0.000
1737553017.150,-32.715,-32.227,-19.531,-1000.000,0.000
1737553017.154,-2.441,-12.207,-3.418,-221.680,0.000
1737553017.158,20.508,-28.320,-8.301,834.961,0.000
1737553017.162,0.977,-3.418,-20.996,-436.523,0.000
1737553017.166,0.977,5.859,-2.930,-1000.000,0.000
1737553017.169,0.977,-10.254,15.625,120.117,0.000
1737553017.173,-13.672,0.977,-3.418,999.512,0.000
1737553017.177,-27.344,2.930,-14.160,878.418,0.000
1737553017.181,-41.504,-10.254,-33.691,-502.930,0.000
1737553017.185,-24.902,-19.531,-20.020,-1000.000,0.000
1737553017.189,-5.859,-35.645,-7.324,-918.457,0.000
1737553017.193,-4.395,-18.066,-17.090,-929.199,0.000
1737553017.197,11.719,-0.977,-0.488,-971.680,0.000
1737553017.201,23.438,-21.484,6.836,-1000.000,0.000
1737553017.205,-15.625,-24.902,-16.113,-995.117,0.000
1737553017.209,-42.480,-21.484,-25.391,-1000.000,0.000
1737553017.212,-38.574,-33.691,-18.555,-1000.000,0.000
1737553017.216,-46.875,-34.180,-23.438,-1000.000,0.000
1737553017.220,-30.762,-18.066,-43.945,-963.867,0.000
1737553017.224,-4.883,-5.371,-24.414,-1000.000,0.000
1737553017.228,13.184,-0.977,1.953,-975.098,0.000
1737553017.232,33.203,5.371,-3.906,229.980,0.000
1737553017.236,44.434,2.441,0.000,999.512,0.000
1737553017.240,-3.418,-21.973,-6.836,216.309,0.000
1737553017.244,-49.316,-27.344,-19.531,-963.867,0.000
1737553017.248,-48.828,-19.531,-16.113,-1000.000,0.000
1737553017.252,-23.438,-20.020,-21.973,8.789,0.000
1737553017.255,12.207,-13.672,-41.504,999.512,0.000
1737553017.259,8.789,-12.695,-22.949,969.238,0.000
1737553017.263,-15.625,-16.602,0.488,-479.980,0.000
1737553017.267,-12.207,-15.625,-9.766,-947.266,0.000
1737553017.271,34.180,-12.695,-11.719,683.594,0.000
1737553017.275,21.973,-11.230,-20.996,999.512,0.000
1737553017.279,-27.832,-24.902,-35.156,897.461,0.000
1737553017.283,-15.137,-35.156,-27.344,986.816,0.000
1737553017.287,-11.719,-15.137,-26.367,970.703,0.000
1737553017.291,-10.254,3.906,-16.113,970.703,0.000
1737553017.294,-0.488,3.418,-1.465,970.703,0.000
1737553017.298,1.953,10.742,-10.254,970.703,0.000
1737553017.302,-8.789,5.371,-16.602,969.238,0.000
1737553017.306,-24.902,-18.555,-13.184,985.352,0.000
1737553017.310,-27.344,-31.738,-21.973,916.504,0.000
1737553017.314,-33.691,-27.832,-19.531,999.512,0.000
1737553017.318,-23.438,-31.250,-29.785,881.836,0.000
1737553017.322,-45.410,-41.016,-33.691,-553.711,0.000
1737553017.326,-65.430,-10.254,-20.996,-1000.000,0.000
1737553017.330,-49.805,-1.465,-19.043,-923.340,0.000
1737553017.334,-49.316,-13.672,-20.508,-1000.000,0.000
1737553017.337,-29.785,-11.230,-28.809,-1000.000,0.000
1737553017.341,10.254,-40.527,-29.297,-954.590,0.000
1737553017.345,-5.859,-50.781,-15.625,-1000.000,0.000
1737553017.349,-38.086,-4.883,-18.066,-515.625,0.000
1737553017.353,-10.254,21.973,-14.648,814.941,0.000
1737553017.357,10.742,4.883,-18.066,999.512,0.000
1737553017.361,-22.949,-33.691,-27.832,-345.703,0.000
1737553017.365,-35.156,-34.668,-22.461,-1000.000,0.000
1737553017.369,-7.324,-10.254,-6.348,-717.285,0.000
1737553017.373,22.949,-28.809,-7.324,604.980,0.000
1737553017.376,49.805,-37.109,-40.039,999.512,0.000
1737553017.380,-7.812,-25.391,-31.738,-298.828,0.000
1737553017.384,-80.078,-30.273,-4.395,-1000.000,0.000
1737553017.388,-33.203,-20.020,-14.160,-935.547,0.000
1737553017.392,36.133,-24.414,-25.391,337.402,0.000
1737553017.396,-18.555,-36.133,-35.156,999.512,0.000
1737553017.400,-101.562,-7.812,-24.414,-505.859,0.000
1737553017.404,-109.863,-5.859,-8.301,-1000.000,0.000
1737553017.408,-77.637,-28.809,-7.324,-925.781,0.000
1737553017.412,-62.500,-37.598,-15.137,-1000.000,0.000
1737553017.416,-62.988,-31.250,-33.203,-998.535,0.000
1737553017.419,-48.340,-32.715,-45.898,-950.684,0.000
1737553017.423,-39.551,-34.668,-35.156,-1000.000,0.000
1737553017.427,-27.832,-27.344,-27.344,-292.969,0.000
1737553017.431,-2.930,-35.645,-24.902,946.777,0.000
1737553017.435,-14.648,-30.762,-9.277,981.445,0.000
1737553017.439,-36.133,-15.137,-15.625,935.547,0.000
1737553017.443,-34.180,-18.555,-41.992,980.957,0.000
1737553017.447,-37.109,-24.414,-38.574,970.703,0.000
1737553017.451,-50.293,-38.086,-26.367,970.703,0.000
1737553017.455,-42.969,-33.691,-33.203,970.703,0.000
1737553017.459,-16.602,-10.254,-31.738,970.703,0.000
1737553017.462,-13.184,-10.254,-23.438,970.703,0.000
1737553017.466,-22.949,-27.832,-30.273,986.816,0.000
1737553017.470,-11.719,-45.410,-39.551,908.203,0.000
1737553017.474,7.324,-42.969,-29.297,999.512,0.000
1737553017.478,19.531,-7.812,-20.508,780.762,0.000
1737553017.482,-2.930,6.348,-16.113,-678.711,0.000
1737553017.486,-60.059,-20.996,-11.230,-1000.000,0.000
1737553017.490,-91.797,-19.043,-26.855,-929.688,0.000
1737553017.494,-66.406,-10.742,-20.508,-1000.000,0.000
1737553017.498,-23.926,-27.344,-5.859,-963.867,0.000
1737553017.501,-24.902,-12.695,-15.625,-1000.000,0.000
1737553017.505,-52.246,-6.836,-18.066,-985.840,0.000
1737553017.509,-42.969,-31.738,-15.625,224.609,0.000
1737553017.513,-28.809,-24.414,-19.531,999.512,0.000
1737553017.517,-37.598,-12.207,-22.461,786.621,0.000
1737553017.521,-73.242,-15.625,-25.391,-611.816,0.000
1737553017.525,-76.172,-20.508,-18.555,-1000.000,0.000
1737553017.529,-46.387,-41.016,-9.277,-926.270,0.000
1737553017.533,-34.668,-35.156,-30.762,-1000.000,0.000
1737553017.537,-39.551,-11.230,-39.062,-1000.000,0.000
1737553017.541,-23.926,-6.836,-18.066,-1000.000,0.000
1737553017.544,0.488,7.324,-12.695,-1000.000,0.000
1737553017.548,-17.578,7.812,-14.648,-1000.000,0.000
1737553017.552,-3.418,-12.695,-30.273,-1000.000,0.000
1737553017.556,40.039,-22.949,-33.203,-1000.000,0.000
1737553017.560,49.805,-25.879,-23.438,-1000.000,0.000
1737553017.564,5.859,-22.949,-38.574,-1000.000,0.000
1737553017.568,-42.480,-29.297,-41.504,-1000.000,0.000
1737553017.572,-12.207,-26.367,-30.762,-1000.000,0.000
1737553017.576,-7.324,1.465,-20.020,-934.082,0.000
1737553017.580,-32.227,-9.766,-26.367,-1000.000,0.000
1737553017.584,-21.973,-25.879,-40.527,-657.227,0.000
1737553017.587,9.277,-14.648,-29.297,777.832,0.000
1737553017.591,36.621,-8.301,-17.090,999.512,0.000
1737553017.595,43.945,-9.766,-15.625,909.668,0.000
1737553017.599,49.805,-12.207,-19.531,986.328,0.000
1737553017.603,42.969,-21.484,-20.508,970.703,0.000
1737553017.607,42.969,-29.297,-19.043,970.703,0.000
1737553017.611,61.523,-9.766,-11.719,970.703,0.000
1737553017.615,56.152,2.930,-15.625,970.703,0.000
1737553017.619,61.523,-47.363,-21.973,970.703,0.000
1737553017.623,34.180,-55.664,-25.391,970.703,0.000
1737553017.626,63.477,-3.906,-38.086,970.703,0.000
1737553017.630,77.637,2.441,-35.645,970.703,0.000
1737553017.634,49.316,-12.695,-19.531,970.703,0.000
1737553017.638,98.145,-4.395,0.488,970.703,0.000
1737553017.642,117.188,-21.973,8.789,970.703,0.000
1737553017.646,71.777,-37.598,-4.883,970.703,0.000
1737553017.650,85.938,1.953,-25.879,970.703,0.000
1737553017.654,102.539,2.441,-21.484,970.703,0.000
1737553017.658,115.234,-32.715,-21.973,970.703,0.000
1737553017.662,155.273,-15.137,-44.434,970.703,0.000
1737553017.666,134.277,8.301,-37.598,970.703,0.000
1737553017.669,103.516,-4.395,-18.066,970.703,0.000
1737553017.673,92.285,-22.461,-12.695,970.703,0.000
1737553017.677,129.883,-20.508,-25.391,970.703,0.000
1737553017.681,169.922,-8.789,-31.250,970.703,0.000
1737553017.685,138.184,-4.883,-5.371,970.703,0.000
1737553017.689,78.125,-11.719,-5.371,970.703,0.000
1737553017.693,89.844,-20.996,-19.043,970.703,0.000
1737553017.697,113.770,-33.691,-18.555,970.703,0.000
1737553017.701,113.281,-24.902,-8.301,970.703,0.000
1737553017.705,142.578,-19.531,-16.602,970.703,0.000
1737553017.709,155.762,-9.766,-24.902,970.703,0.000
1737553017.712,151.855,-5.371,-10.254,970.703,0.000
1737553017.716,139.648,-22.949,-18.066,970.703,0.000
1737553017.720,123.047,-8.789,-43.457,970.703,0.000
1737553017.724,105.957,-8.301,-43.945,970.703,0.000
1737553017.728,105.957,-30.273,-11.719,970.703,0.000
1737553017.732,74.219,-26.855,0.977,970.703,0.000
1737553017.736,39.062,-20.020,-18.066,970.703,0.000
1737553017.740,67.871,1.465,-20.508,970.703,0.000
1737553017.744,88.867,-1.465,-23.438,970.703,0.000
1737553017.748,65.430,-27.832,-30.273,970.703,0.000
1737553017.751,52.246,-25.879,-18.555,970.703,0.000
1737553017.755,66.406,-13.184,-25.879,970.703,0.000
1737553017.759,77.148,-8.301,-55.176,970.703,0.000
1737553017.763,81.543,-20.020,-41.504,970.703,0.000
1737553017.767,104.980,-26.367,-11.230,970.703,0.000
1737553017.771,66.895,-27.344,16.602,970.703,0.000
1737553017.775,37.598,-10.742,17.090,970.703,0.000
1737553017.779,63.477,8.301,3.418,970.703,0.000
1737553017.783,51.758,5.859,-2.441,970.703,0.000
1737553017.787,51.270,-9.277,-17.578,970.703,0.000
1737553017.791,85.449,-34.180,-25.879,970.703,0.000
1737553017.794,112.305,-29.297,-16.113,970.703,0.000
1737553017.798,94.727,-17.578,-34.668,970.703,0.000
1737553017.802,76.172,-18.555,-58.594,970.703,0.000
1737553017.806,92.773,-9.277,-34.668,970.703,0.000
1737553017.810,86.914,-15.137,-9.277,970.703,0.000
1737553017.814,56.641,-21.484,1.465,970.703,0.000
1737553017.818,44.922,-11.719,-5.371,970.703,0.000
1737553017.822,11.719,-14.648,-6.836,970.703,0.000
1737553017.826,12.695,-13.184,-0.977,970.703,0.000
1737553017.830,7.812,-9.766,-20.508,970.703,0.000
1737553017.833,18.555,-38.086,-31.738,970.703,0.000
1737553017.837,55.664,-55.176,-19.043,970.703,0.000
1737553017.841,57.617,-11.719,-19.531,970.703,0.000
1737553017.845,50.781,-11.230,-38.086,970.703,0.000
1737553017.849,72.754,-23.438,-8.789,970.703,0.000
1737553017.853,80.566,11.719,16.602,970.703,0.000
1737553017.857,25.879,-13.184,-22.461,970.703,0.000
1737553017.861,21.973,-30.273,-29.785,970.703,0.000
1737553017.865,56.152,-10.254,-1.953,970.703,0.000
1737553017.869,69.336,-17.578,-17.090,970.703,0.000
1737553017.873,92.285,-14.648,-41.016,970.703,0.000
1737553017.876,100.586,-15.137,-45.410,970.703,0.000
1737553017.880,104.004,-25.879,-18.555,970.703,0.000
1737553017.884,100.586,-15.137,-7.812,970.703,0.000
1737553017.888,35.645,1.465,-27.344,970.703,0.000
1737553017.892,1.953,-12.207,-24.902,970.703,0.000
1737553017.896,9.766,-42.480,-9.766,970.703,0.000
1737553017.900,-7.324,-36.133,-6.836,970.703,0.000
1737553017.904,-13.184,-16.113,-22.949,970.703,0.000
1737553017.908,92.285,-19.043,-18.066,972.168,0.000
1737553017.912,127.441,-29.297,-20.020,962.402,0.000
1737553017.916,25.391,-28.320,-39.062,982.910,0.000
1737553017.919,32.715,-10.742,-35.156,954.102,0.000
1737553017.923,34.180,-2.441,-14.160,824.219,0.000
1737553017.927,46.387,-7.812,0.000,927.734,0.000
1737553017.931,56.152,-32.227,-34.668,990.234,0.000
1737553017.935,8.301,-23.926,-48.828,960.449,0.000
1737553017.939,35.156,1.465,-20.996,972.656,0.000
1737553017.943,81.543,5.371,-7.324,970.703,0.000
1737553017.947,101.074,2.930,8.301,970.703,0.000
1737553017.951,163.086,-6.836,4.883,970.703,0.000
1737553017.955,182.617,-41.016,-17.090,970.703,0.000
1737553017.958,156.250,-87.891,-36.133,970.703,0.000
1737553017.962,128.418,-46.387,-22.949,970.703,0.000
1737553017.966,41.992,-4.395,-22.461,986.816,0.000
1737553017.970,-22.949,5.371,-44.922,906.250,0.000
1737553017.974,-26.367,6.348,-40.527,999.512,0.000
1737553017.978,22.949,-18.555,-17.090,749.512,0.000
1737553017.982,36.133,-37.598,-20.020,-710.449,0.000
1737553017.986,46.875,-13.184,-13.672,-1000.000,0.000
1737553017.990,53.711,-4.395,-17.090,-931.641,0.000
1737553017.994,60.547,-38.086,-22.461,-1000.000,0.000
1737553017.998,68.359,-37.598,-7.812,-1000.000,0.000
1737553018.001,55.176,-5.371,-22.461,-1000.000,0.000
1737553018.005,70.312,2.441,-12.695,-1000.000,0.000
1737553018.009,84.961,4.883,-28.809,-1000.000,0.000
1737553018.013,94.238,-0.488,-37.598,-1000.000,0.000
1737553018.017,92.285,-11.719,-35.645,-1000.000,0.000
1737553018.021,48.340,-27.344,-40.039,-1000.000,0.000
1737553018.025,58.594,-32.227,-16.113,-1000.000,0.000
1737553018.029,99.609,-15.137,-10.254,-1000.000,0.000
1737553018.033,94.238,-33.203,-21.484,-1000.000,0.000
1737553018.037,97.656,-37.598,-39.551,-1000.000,0.000
1737553018.041,45.410,5.371,-31.250,-938.965,0.000
1737553018.044,18.066,-20.020,-33.203,-1000.000,0.000
1737553018.048,35.645,-63.965,-39.551,-808.594,0.000
1737553018.052,36.133,3.906,-9.766,643.066,0.000
1737553018.056,15.625,33.691,4.395,999.512,0.000
1737553018.060,11.230,2.441,4.395,900.391,0.000
1737553018.064,24.902,-8.301,-6.348,986.816,0.000
1737553018.068,19.043,-9.766,-21.484,970.703,0.000
1737553018.072,28.320,-26.855,-10.254,970.703,0.000
1737553018.076,20.508,-37.598,-22.461,970.703,0.000
1737553018.080,23.438,-11.719,-23.438,970.703,0.000
1737553018.083,60.059,0.977,-5.859,970.703,0.000
1737553018.087,85.938,-6.836,-24.902,970.703,0.000
1737553018.091,139.160,-0.488,-41.992,970.703,0.000
1737553018.095,132.812,-10.254,-23.438,970.703,0.000
1737553018.099,79.102,-22.461,0.000,970.703,0.000
1737553018.103,19.531,-17.578,-0.488,970.703,0.000
1737553018.107,-34.180,-20.020,-4.883,970.703,0.000
1737553018.111,-55.664,-16.602,-10.742,970.703,0.000
1737553018.115,-61.035,-17.578,-16.602,970.703,0.000
1737553018.119,-54.688,-21.484,-22.461,970.703,0.000
1737553018.123,-17.578,-35.645,-42.969,970.703,0.000
1737553018.126,1.953,-36.621,-44.434,987.305,0.000
1737553018.130,14.648,-14.160,-20.508,908.203,0.000
1737553018.134,43.457,-12.207,-19.531,999.512,0.000
1737553018.138,44.922,-44.434,-50.293,799.316,0.000
1737553018.142,8.789,-55.664,-44.434,-666.504,0.000
1737553018.146,17.090,-18.066,-3.906,-1000.000,0.000
1737553018.150,12.695,8.789,-3.418,-928.711,0.000
1737553018.154,2.930,2.930,-18.066,-1000.000,0.000
1737553018.158,-1.953,-13.184,-16.113,-1000.000,0.000
1737553018.162,15.625,-17.578,-7.812,-1000.000,0.000
1737553018.165,27.832,1.953,0.000,-1000.000,0.000
1737553018.169,27.832,0.977,7.324,-1000.000,0.000
1737553018.173,59.570,-15.137,-23.438,-1000.000,0.000
1737553018.177,85.938,-21.484,-57.129,-937.500,0.000
1737553018.181,59.082,-20.508,-16.113,-1000.000,0.000
1737553018.185,33.691,-12.207,-8.301,-810.059,0.000
1737553018.189,9.277,-11.719,-39.551,652.344,0.000
1737553018.193,-11.719,-18.066,-16.602,999.512,0.000
1737553018.197,-9.766,-3.906,8.301,899.902,0.000
1737553018.201,-20.508,7.812,17.578,986.816,0.000
1737553018.205,-10.742,-2.930,8.301,970.703,0.000
1737553018.208,20.508,-23.438,-18.066,970.703,0.000
1737553018.212,4.395,-52.734,-13.184,970.703,0.000
1737553018.216,-3.418,-38.574,-8.789,970.703,0.000
1737553018.220,10.742,-12.695,-40.039,970.703,0.000
1737553018.224,-6.836,-13.672,-45.898,970.703,0.000
1737553018.228,-28.809,-12.207,-12.695,970.703,0.000
1737553018.232,-19.531,-9.277,4.395,970.703,0.000
1737553018.236,2.441,-5.859,-7.812,970.703,0.000
1737553018.240,27.832,-16.602,-7.812,970.703,0.000
1737553018.244,60.059,-28.320,-5.859,970.703,0.000
1737553018.248,39.551,-29.297,-11.719,970.703,0.000
1737553018.251,11.230,-29.785,-5.371,970.703,0.000
1737553018.255,-5.859,-34.180,-10.742,970.703,0.000
1737553018.259,-15.137,-27.832,-33.691,970.703,0.000
1737553018.263,-31.738,-1.465,-34.180,970.703,0.000
1737553018.267,-58.594,-5.859,-30.762,970.703,0.000
1737553018.271,-58.594,-5.859,-29.297,970.703,0.000
1737553018.275,-34.668,4.395,-7.812,970.703,0.000
1737553018.279,-17.578,-14.648,-33.691,970.703,0.000
1737553018.283,-6.836,-50.781,-42.480,970.703,0.000
1737553018.287,2.441,-61.035,-3.906,970.703,0.000
1737553018.290,20.020,-18.555,-3.418,970.703,0.000
1737553018.294,41.504,-5.859,-7.324,970.703,0.000
1737553018.298,-13.672,-22.949,-8.301,970.703,0.000
1737553018.302,-43.945,-13.672,-19.531,970.703,0.000
1737553018.306,-17.090,-31.250,-8.301,970.703,0.000
1737553018.310,-22.949,-42.480,-17.090,970.703,0.000
1737553018.314,-21.484,-8.301,-41.504,970.703,0.000
1737553018.318,-14.648,6.836,-26.367,970.703,0.000
1737553018.322,0.000,-10.254,-30.273,970.703,0.000
1737553018.326,27.344,-23.926,-35.156,970.703,0.000
1737553018.330,31.250,-21.973,-5.859,970.703,0.000
1737553018.333,20.996,-19.043,3.418,970.703,0.000
1737553018.337,1.953,-21.484,1.465,970.703,0.000
1737553018.341,-24.414,-33.691,5.371,970.703,0.000
1737553018.345,-61.523,-29.297,-16.113,970.703,0.000
1737553018.349,-63.965,-22.949,-22.461,970.703,0.000
1737553018.353,-44.434,-23.926,-14.160,970.703,0.000
1737553018.357,-26.855,-16.602,-22.949,970.703,0.000
1737553018.361,9.277,-16.113,-42.480,970.703,0.000
1737553018.365,1.465,-21.973,-47.852,970.703,0.000
1737553018.369,-0.488,-16.602,-30.762,970.703,0.000
1737553018.373,27.832,-1.465,-16.113,970.703,0.000
1737553018.376,16.113,-18.555,-5.859,970.703,0.000
1737553018.380,3.418,-25.879,2.930,970.703,0.000
1737553018.384,-9.277,-9.277,-9.766,970.703,0.000
1737553018.388,1.465,-17.090,-27.344,970.703,0.000
1737553018.392,30.273,-19.531,-16.113,970.703,0.000
1737553018.396,48.340,-12.207,-9.277,971.191,0.000
1737553018.400,42.969,-9.277,-19.531,970.703,0.000
1737553018.404,50.293,-29.297,-27.832,970.703,0.000
1737553018.408,73.730,-27.832,-37.598,970.703,0.000
1737553018.412,42.480,-14.160,-34.668,970.703,0.000
1737553018.415,-17.578,-6.348,-11.230,970.703,0.000
1737553018.419,-42.969,2.441,-2.441,970.703,0.000
1737553018.423,-56.152,-2.441,-14.648,970.703,0.000
1737553018.427,-73.730,-5.371,-9.766,970.703,0.000
1737553018.431,-39.551,-13.184,-11.719,970.703,0.000
1737553018.435,-8.789,-23.438,-20.020,970.703,0.000
1737553018.439,-33.203,-27.344,-29.297,970.703,0.000
1737553018.443,-16.602,-28.320,-46.875,970.703,0.000
1737553018.447,7.812,-14.648,-33.691,970.703,0.000
1737553018.451,0.977,-12.695,-4.395,970.703,0.000
1737553018.455,12.695,-9.277,0.000,970.703,0.000
1737553018.458,4.883,-12.695,-0.977,970.703,0.000
1737553018.462,-25.391,-13.184,-2.930,970.703,0.000
1737553018.466,-30.273,-1.465,-6.348,970.703,0.000
1737553018.470,-6.348,-10.254,0.000,970.703,0.000
1737553018.474,41.504,-43.945,-3.906,970.703,0.000
1737553018.478,8.301,-62.012,-15.625,970.703,0.000
1737553018.482,-33.203,-16.113,-10.742,970.703,0.000
1737553018.486,-25.391,14.648,-8.301,970.703,0.000
1737553018.490,0.000,8.789,-16.602,970.703,0.000
1737553018.494,28.809,-2.441,-14.648,970.703,0.000
1737553018.498,5.371,-22.461,-14.160,970.703,0.000
1737553018.501,-18.066,-34.180,-23.438,970.703,0.000
1737553018.505,10.254,-20.508,-25.879,970.703,0.000
1737553018.509,-1.465,-3.418,-9.277,970.703,0.000
1737553018.513,-36.621,-13.672,-6.836,970.703,0.000
1737553018.517,-41.016,-16.602,-8.789,970.703,0.000
1737553018.521,-60.547,-16.602,4.395,970.703,0.000
1737553018.525,-44.922,-19.531,-4.883,970.703,0.000
1737553018.529,-4.395,-32.227,-23.926,970.703,0.000
1737553018.533,-17.090,-42.480,-42.969,970.703,0.000
1737553018.537,-17.090,-25.391,-38.086,970.703,0.000
1737553018.540,2.441,-7.812,-6.348,970.703,0.000
1737553018.544,-8.789,-22.949,-3.418,970.703,0.000
1737553018.548,-20.996,-24.414,-18.066,970.703,0.000
1737553018.552,-29.785,7.812,-27.344,970.703,0.000
1737553018.556,-14.648,10.254,-28.809,970.703,0.000
1737553018.560,-13.184,-9.277,-22.949,970.703,0.000
1737553018.564,-11.719,-13.184,-15.625,970.703,0.000
1737553018.568,-8.789,-15.137,-7.324,970.703,0.000
1737553018.572,13.184,-15.137,-8.301,970.703,0.000
1737553018.576,67.383,-27.344,-18.555,970.703,0.000
1737553018.580,96.680,-32.715,-29.297,970.703,0.000
1737553018.583,17.578,-11.719,-14.648,970.703,0.000
1737553018.587,-84.961,1.465,3.418,970.703,0.000
1737553018.591,-113.281,-13.672,-12.207,970.703,0.000
1737553018.595,-82.031,-27.344,-22.949,970.703,0.000
1737553018.599,-62.988,-27.832,-28.809,970.703,0.000
1737553018.603,-63.965,-13.672,-32.715,970.703,0.000
1737553018.607,-47.363,-9.277,-23.438,970.703,0.000
1737553018.611,-36.133,-18.066,-16.602,970.703,0.000
1737553018.615,-31.738,-19.531,-7.812,970.703,0.000
1737553018.619,-44.922,-9.277,-0.488,970.703,0.000
1737553018.623,-32.227,-9.766,-6.348,970.703,0.000
1737553018.626,-18.066,-23.926,-14.160,970.703,0.000
1737553018.630,-32.715,-25.879,-36.621,970.703,0.000
1737553018.634,-18.555,-52.734,-32.715,970.703,0.000
1737553018.638,-22.461,-40.527,-10.742,970.703,0.000
1737553018.642,-38.086,-14.160,-20.996,970.703,0.000
1737553018.646,-20.508,-31.738,-19.531,970.703,0.000
1737553018.650,-21.973,-12.207,-6.836,970.703,0.000
1737553018.654,-40.039,1.953,-9.766,970.703,0.000
1737553018.658,-45.898,8.789,0.488,970.703,0.000
1737553018.662,-13.672,10.254,2.930,970.703,0.000
1737553018.665,29.785,5.371,-3.906,970.703,0.000
1737553018.669,28.320,-8.301,-15.625,970.703,0.000
1737553018.673,19.531,-30.273,-25.879,970.703,0.000
1737553018.677,5.371,-35.645,-13.184,970.703,0.000
1737553018.681,-40.039,-26.367,-6.836,970.703,0.000
1737553018.685,-75.684,-20.508,-17.090,970.703,0.000
1737553018.689,-69.336,-26.855,-20.508,970.703,0.000
1737553018.693,-24.902,-25.391,-5.859,970.703,0.000
1737553018.697,-54.199,-15.137,-10.742,970.703,0.000
1737553018.701,-97.656,-6.348,-9.277,970.703,0.000
1737553018.705,-86.426,-15.625,37.598,976.074,0.000
1737553018.708,-68.848,-35.645,12.207,953.125,0.000
1737553018.712,-42.480,-20.020,-47.852,942.871,0.000
1737553018.716,-59.082,-21.973,-35.645,999.512,0.000
1737553018.720,-122.070,-38.086,-23.438,-42.969,0.000
1737553018.724,-148.438,-34.668,-27.832,-1000.000,0.000
1737553018.728,-88.867,-12.695,-46.875,-965.820,0.000
1737553018.732,-72.266,0.977,-67.383,-986.816,0.000
1737553018.736,-144.043,-9.766,-20.996,-1000.000,0.000
1737553018.740,-193.359,-14.160,4.883,-1000.000,0.000
1737553018.744,-225.586,-14.648,-15.137,-1000.000,0.000
1737553018.747,-263.672,-14.648,-1.465,-1000.000,0.000
1737553018.751,-217.285,-14.648,5.371,-1000.000,0.000
1737553018.755,-155.762,-21.484,-15.137,-1000.000,0.000
1737553018.759,-108.887,-27.832,-46.875,-1000.000,0.000
1737553018.763,-108.887,-26.367,-42.969,-1000.000,0.000
1737553018.767,-157.715,-41.016,-41.992,-1000.000,0.000
1737553018.771,-221.680,-23.438,-69.336,-1000.000,0.000
1737553018.775,-308.105,-8.301,-25.879,-1000.000,0.000
1737553018.779,-345.215,-15.137,-3.418,-1000.000,0.000
1737553018.783,-275.879,-10.742,-13.184,-1000.000,0.000
1737553018.787,-262.207,-1.465,-4.883,-1000.000,0.000
1737553018.790,-375.977,-4.395,8.301,-1000.000,0.000
1737553018.794,-294.434,-25.879,-2.441,-1000.000,0.000
1737553018.798,-155.762,-18.555,-12.207,-1000.000,0.000
1737553018.802,-192.383,0.488,-13.672,-1000.000,0.000
1737553018.806,-222.168,-8.301,-28.809,-1000.000,0.000
1737553018.810,-212.402,-28.809,-23.438,-1000.000,0.000
1737553018.814,-204.590,-30.762,-22.949,-1000.000,0.000
1737553018.818,-253.906,-24.414,-35.645,-1000.000,0.000
1737553018.822,-275.879,-16.113,-30.762,-1000.000,0.000
1737553018.826,-199.707,-2.930,-16.113,-1000.000,0.000
1737553018.830,-131.836,-20.020,-19.531,-1000.000,0.000
1737553018.833,-181.152,-17.578,-10.742,-1000.000,0.000
1737553018.837,-250.000,-5.859,14.160,-1000.000,0.000
1737553018.841,-220.703,-9.277,-7.812,-1000.000,0.000
