timestamps,TP9,AF7,AF8,TP10,Right AUX
1737552110.027,-26.855,-9.766,-11.719,-35.645,0.000
1737552110.031,-22.461,-15.625,-13.184,936.523,0.000
1737552110.035,-8.789,-13.672,-13.672,999.512,0.000
1737552110.039,6.836,-12.207,-15.137,38.086,0.000
1737552110.043,-5.859,-18.066,-21.484,-1000.000,0.000
1737552110.047,-39.062,-16.113,-15.625,-474.609,0.000
1737552110.051,-46.387,-11.719,-17.090,817.871,0.000
1737552110.055,-24.414,-17.090,-26.367,999.512,0.000
1737552110.059,1.465,-23.438,-24.902,-154.785,0.000
1737552110.063,-13.672,-24.414,-20.996,-1000.000,0.000
1737552110.067,-39.062,-21.484,-21.484,-826.660,0.000
1737552110.070,-21.973,-20.508,-16.602,294.922,0.000
1737552110.074,-14.648,-20.020,-11.719,999.512,0.000
1737552110.078,-8.301,-20.508,-16.602,213.867,0.000
1737552110.082,-1.953,-22.461,-19.531,-968.262,0.000
1737552110.086,-16.113,-17.578,-16.113,-946.777,0.000
1737552110.090,-23.926,-12.695,-15.137,81.543,0.000
1737552110.094,-9.766,-9.277,-15.137,999.512,0.000
1737552110.098,-10.254,-10.742,-20.508,604.004,0.000
1737552110.102,-30.762,-13.672,-22.461,-809.082,0.000
1737552110.106,-44.434,-19.043,-17.090,-1000.000,0.000
1737552110.109,-20.996,-17.090,-16.602,212.891,0.000
1737552110.113,0.000,-14.648,-24.902,999.512,0.000
1737552110.117,-11.719,-22.949,-21.973,494.629,0.000
1737552110.121,-28.809,-23.926,-15.625,-826.172,0.000
1737552110.125,-29.785,-15.137,-21.484,-1000.000,0.000
1737552110.129,-4.395,-14.160,-18.066,43.457,0.000
1737552110.133,0.000,-17.578,-15.625,999.512,0.000
1737552110.137,-5.371,-17.578,-16.602,791.992,0.000
1737552110.141,-0.977,-23.926,-16.602,-624.512,0.000
1737552110.145,-5.859,-24.414,-24.902,-1000.000,0.000
1737552110.149,-20.508,-25.391,-27.344,-224.609,0.000
1737552110.152,-52.246,-25.879,-19.531,903.809,0.000
1737552110.156,-43.457,-19.531,-17.578,892.090,0.000
1737552110.160,-29.785,-20.020,-28.320,-550.781,0.000
1737552110.164,-60.547,-28.320,-31.250,-1000.000,0.000
1737552110.168,-50.293,-24.414,-18.555,-372.559,0.000
1737552110.172,-31.250,-17.578,-10.254,826.660,0.000
1737552110.176,-40.039,-25.879,-9.766,965.332,0.000
1737552110.180,-31.738,-30.273,-8.789,-447.266,0.000
1737552110.184,-25.391,-28.809,-19.531,-1000.000,0.000
1737552110.188,-33.691,-25.879,-23.926,-409.180,0.000
1737552110.192,-28.320,-19.043,-15.137,791.016,0.000
1737552110.195,-3.418,-18.555,-15.625,999.512,0.000
1737552110.199,0.488,-25.391,-22.949,-251.953,0.000
1737552110.203,-17.090,-25.391,-24.902,-1000.000,0.000
1737552110.207,-27.344,-21.484,-21.973,-476.074,0.000
1737552110.211,-16.602,-25.391,-18.555,732.910,0.000
1737552110.215,0.977,-19.043,-20.996,999.512,0.000
1737552110.219,-7.812,-10.254,-22.461,203.125,0.000
1737552110.223,-13.184,-20.996,-18.066,-1000.000,0.000
1737552110.227,-4.395,-23.926,-21.484,-500.488,0.000
1737552110.231,-3.906,-19.043,-19.531,791.016,0.000
1737552110.234,4.395,-17.578,-16.113,999.512,0.000
1737552110.238,-6.836,-21.973,-15.137,249.023,0.000
1737552110.242,-50.293,-27.344,-12.207,-972.168,0.000
1737552110.246,-59.082,-23.926,-19.043,-791.504,0.000
1737552110.250,-20.508,-19.531,-21.973,497.559,0.000
1737552110.254,-1.465,-18.555,-23.438,999.512,0.000
1737552110.258,-41.504,-22.949,-16.113,684.570,0.000
1737552110.262,-57.617,-26.367,-11.230,-703.613,0.000
1737552110.266,-38.574,-21.973,-17.090,-1000.000,0.000
1737552110.270,-30.762,-23.438,-16.602,160.156,0.000
1737552110.274,-26.855,-19.531,-8.789,999.512,0.000
1737552110.277,-28.320,-19.043,-8.789,585.938,0.000
1737552110.281,-30.762,-19.531,-12.695,-819.824,0.000
1737552110.285,-33.203,-18.066,-17.090,-978.516,0.000
1737552110.289,-23.438,-20.996,-17.090,220.215,0.000
1737552110.293,4.395,-20.996,-17.090,999.512,0.000
1737552110.297,-10.254,-24.414,-17.090,611.816,0.000
1737552110.301,-41.016,-26.855,-10.742,-730.469,0.000
1737552110.305,-29.297,-24.902,-10.254,-1000.000,0.000
1737552110.309,-15.137,-19.043,-14.160,-444.824,0.000
1737552110.313,0.488,-6.348,-17.090,806.641,0.000
1737552110.317,5.859,-2.441,-17.578,874.512,0.000
1737552110.320,-12.207,-10.742,-16.113,-623.047,0.000
1737552110.324,-10.742,-17.578,-15.137,-1000.000,0.000
1737552110.328,-3.418,-18.555,-9.277,-381.348,0.000
1737552110.332,8.301,-17.090,-9.277,826.172,0.000
1737552110.336,5.859,-12.695,-13.672,974.121,0.000
1737552110.340,-13.184,-20.996,-14.648,-416.504,0.000
1737552110.344,-17.578,-25.391,-18.555,-1000.000,0.000
1737552110.348,-31.738,-16.113,-19.531,-533.691,0.000
1737552110.352,-45.898,-12.695,-18.555,731.445,0.000
1737552110.356,-60.059,-15.625,-15.137,995.117,0.000
1737552110.359,-31.250,-18.555,-17.578,-421.875,0.000
1737552110.363,-34.180,-27.344,-26.855,-1000.000,0.000
1737552110.367,-44.922,-22.949,-23.926,-660.645,0.000
1737552110.371,12.695,-11.719,-14.160,539.551,0.000
1737552110.375,0.977,-14.160,-10.254,999.512,0.000
1737552110.379,-28.809,-19.531,-17.090,154.297,0.000
1737552110.383,-51.270,-22.949,-19.531,-1000.000,0.000
1737552110.387,-43.945,-17.578,-20.996,-562.012,0.000
1737552110.391,-3.418,-12.207,-25.391,775.879,0.000
1737552110.395,-12.207,-13.184,-23.438,999.512,0.000
1737552110.399,-32.227,-17.578,-16.113,-90.332,0.000
1737552110.402,-27.832,-19.531,-22.461,-1000.000,0.000
1737552110.406,-18.066,-18.066,-28.809,-892.578,0.000
1737552110.410,-12.207,-16.602,-24.902,54.199,0.000
1737552110.414,14.160,-12.695,-16.602,999.512,0.000
1737552110.418,7.812,-10.254,-18.066,506.348,0.000
1737552110.422,-19.531,-7.812,-20.020,-903.809,0.000
1737552110.426,-24.902,-6.836,-18.555,-828.613,0.000
1737552110.430,12.695,-11.719,-17.578,535.645,0.000
1737552110.434,37.109,-12.207,-18.066,999.512,0.000
1737552110.438,37.598,-12.695,-20.020,666.016,0.000
1737552110.441,17.090,-9.277,-16.113,-714.844,0.000
1737552110.445,-18.555,-10.742,-11.230,-1000.000,0.000
1737552110.449,-31.738,-17.090,-10.742,174.316,0.000
1737552110.453,-10.742,-16.602,-20.020,999.512,0.000
1737552110.457,-14.160,-13.672,-24.414,785.156,0.000
1737552110.461,-20.996,-17.090,-20.996,-687.988,0.000
1737552110.465,0.000,-9.766,-14.648,-1000.000,0.000
1737552110.469,-4.883,-4.395,-13.184,329.590,0.000
1737552110.473,-20.020,-9.766,-15.137,999.512,0.000
1737552110.477,-16.602,-10.254,-18.555,622.070,0.000
1737552110.481,-26.855,-12.695,-14.160,-701.172,0.000
1737552110.484,-36.621,-13.672,-15.625,-1000.000,0.000
1737552110.488,0.488,-15.137,-20.508,-608.887,0.000
1737552110.492,34.180,-8.301,-14.160,617.676,0.000
1737552110.496,-10.742,-9.277,-8.301,915.527,0.000
1737552110.500,-38.574,-15.137,-18.066,-596.191,0.000
1737552110.504,-47.852,-7.812,-21.484,-1000.000,0.000
1737552110.508,-58.105,-16.602,-15.625,-352.051,0.000
1737552110.512,-23.438,-20.020,-12.695,779.785,0.000
1737552110.516,-15.137,-10.254,-12.207,999.512,0.000
1737552110.520,-30.762,-16.602,-8.301,-264.648,0.000
1737552110.524,-19.043,-20.508,-14.648,-1000.000,0.000
1737552110.527,19.531,-12.207,-17.578,-685.547,0.000
1737552110.531,-1.465,-7.812,-13.184,573.730,0.000
1737552110.535,-43.945,-14.648,-11.230,999.512,0.000
1737552110.539,-37.109,-24.902,-9.277,-269.531,0.000
1737552110.543,-36.133,-26.855,-15.137,-1000.000,0.000
1737552110.547,-36.133,-20.996,-18.555,-732.422,0.000
1737552110.551,-21.484,-17.578,-16.602,548.828,0.000
1737552110.555,-13.184,-16.113,-15.625,999.512,0.000
1737552110.559,-31.250,-21.973,-16.113,28.809,0.000
1737552110.563,-29.785,-22.949,-22.461,-1000.000,0.000
1737552110.566,-17.578,-19.043,-19.043,-795.898,0.000
1737552110.570,-29.785,-26.367,-17.090,329.590,0.000
1737552110.574,-28.320,-28.320,-21.484,999.512,0.000
1737552110.578,-18.555,-22.461,-28.320,434.570,0.000
1737552110.582,-25.391,-16.602,-30.762,-877.441,0.000
1737552110.586,-24.902,-10.742,-26.367,-959.473,0.000
1737552110.590,-9.277,-9.766,-18.555,219.238,0.000
1737552110.594,2.441,-10.254,-18.555,999.512,0.000
1737552110.598,1.465,-19.043,-22.949,581.543,0.000
1737552110.602,-24.902,-24.902,-23.926,-798.340,0.000
1737552110.606,-42.480,-23.926,-20.508,-1000.000,0.000
1737552110.609,-7.324,-18.066,-11.719,179.688,0.000
1737552110.613,8.301,-15.625,-17.578,999.512,0.000
1737552110.617,-15.137,-20.996,-20.996,624.512,0.000
1737552110.621,-22.949,-21.484,-14.160,-780.762,0.000
1737552110.625,-16.113,-16.602,-13.672,-1000.000,0.000
1737552110.629,1.953,-8.301,-16.602,223.145,0.000
1737552110.633,24.414,-6.836,-16.113,999.512,0.000
1737552110.637,33.691,-12.207,-21.973,659.668,0.000
1737552110.641,8.789,-15.137,-24.414,-708.008,0.000
1737552110.645,-21.973,-11.230,-13.184,-1000.000,0.000
1737552110.649,-43.945,-14.160,-17.578,-276.367,0.000
1737552110.652,-35.156,-17.090,-24.414,857.422,0.000
1737552110.656,-35.645,-18.555,-16.113,967.773,0.000
1737552110.660,-73.730,-18.066,-12.695,-362.305,0.000
1737552110.664,-47.363,-20.996,-15.137,-1000.000,0.000
1737552110.668,-11.230,-21.973,-16.602,-576.172,0.000
1737552110.672,-1.953,-13.672,-16.602,708.984,0.000
1737552110.676,-0.488,-13.672,-18.555,999.512,0.000
1737552110.680,-24.414,-22.461,-18.066,-403.320,0.000
1737552110.684,-33.691,-20.996,-17.090,-1000.000,0.000
1737552110.688,-21.973,-18.066,-19.531,-614.258,0.000
1737552110.691,-2.441,-12.695,-17.090,612.305,0.000
1737552110.695,-4.395,-12.695,-6.348,999.512,0.000
1737552110.699,-17.578,-22.949,-8.301,-345.703,0.000
1737552110.703,-30.762,-25.879,-19.531,-1000.000,0.000
1737552110.707,-36.621,-17.090,-22.949,-726.562,0.000
1737552110.711,2.441,-8.301,-10.254,541.992,0.000
1737552110.715,23.926,-5.371,-6.836,999.512,0.000
1737552110.719,18.555,-8.789,-15.625,-195.312,0.000
1737552110.723,-2.930,-16.602,-15.137,-1000.000,0.000
1737552110.727,-27.344,-24.414,-15.625,-847.168,0.000
1737552110.731,-31.250,-21.973,-18.066,285.645,0.000
1737552110.734,-21.484,-16.602,-13.672,999.512,0.000
1737552110.738,-45.410,-20.508,-17.578,250.977,0.000
1737552110.742,-67.871,-27.344,-19.043,-974.609,0.000
1737552110.746,-47.852,-27.344,-13.184,-900.391,0.000
1737552110.750,-15.137,-15.625,-10.742,404.297,0.000
1737552110.754,-14.160,-12.207,-9.277,999.512,0.000
1737552110.758,-28.809,-20.508,-12.695,334.473,0.000
1737552110.762,-15.137,-20.996,-17.578,-899.414,0.000
1737552110.766,-13.672,-18.555,-16.113,-983.887,0.000
1737552110.770,-28.320,-17.578,-14.160,168.457,0.000
1737552110.773,-20.508,-12.695,-22.949,999.512,0.000
1737552110.777,-14.160,-12.695,-16.602,855.469,0.000
1737552110.781,-41.504,-16.602,-9.277,-612.305,0.000
1737552110.785,-38.574,-13.672,-14.648,-999.023,0.000
1737552110.789,-9.277,-12.207,-17.578,468.262,0.000
1737552110.793,-29.785,-15.625,-20.996,999.512,0.000
1737552110.797,-21.973,-14.648,-23.438,887.695,0.000
1737552110.801,5.859,-22.949,-22.461,-341.309,0.000
1737552110.805,4.395,-22.949,-12.207,-1000.000,0.000
1737552110.809,-8.789,-10.742,-3.906,-65.430,0.000
1737552110.813,-12.207,-12.207,-5.371,966.797,0.000
1737552110.816,-6.348,-10.742,-14.160,940.430,0.000
1737552110.820,-21.973,-14.160,-21.484,-449.219,0.000
1737552110.824,-11.230,-16.113,-23.438,-1000.000,0.000
1737552110.828,12.695,-9.766,-19.531,100.586,0.000
1737552110.832,16.113,-17.090,-11.230,999.512,0.000
1737552110.836,5.859,-20.020,-17.578,958.984,0.000
1737552110.840,-31.250,-20.508,-22.461,-250.488,0.000
1737552110.844,-64.453,-22.949,-10.254,-1000.000,0.000
1737552110.848,-63.965,-16.602,-4.395,-33.203,0.000
1737552110.852,-52.734,-17.090,-8.789,950.195,0.000
1737552110.856,-44.922,-18.555,-11.230,999.512,0.000
1737552110.859,-35.156,-18.066,-13.184,53.711,0.000
1737552110.863,-31.250,-20.020,-14.648,-1000.000,0.000
1737552110.867,-34.668,-19.531,-15.625,-399.414,0.000
1737552110.871,-25.391,-19.043,-15.625,795.898,0.000
1737552110.875,1.953,-14.160,-6.836,999.512,0.000
1737552110.879,-0.488,-9.766,-3.906,342.285,0.000
1737552110.883,-24.902,-18.555,-10.254,-945.801,0.000
1737552110.887,-22.949,-25.391,-11.230,-516.113,0.000
1737552110.891,-2.441,-22.949,-13.184,786.621,0.000
1737552110.895,3.418,-27.832,-21.484,999.512,0.000
1737552110.898,10.742,-26.855,-24.414,440.430,0.000
1737552110.902,-7.324,-26.367,-15.137,-906.738,0.000
1737552110.906,-5.371,-26.367,-7.324,-677.734,0.000
1737552110.910,5.371,-16.113,-12.695,699.707,0.000
1737552110.914,-25.391,-19.531,-18.555,999.512,0.000
1737552110.918,-20.508,-20.996,-16.602,494.141,0.000
1737552110.922,-29.297,-15.625,-24.414,-846.191,0.000
1737552110.926,-33.691,-15.625,-29.297,-933.105,0.000
1737552110.930,-12.207,-15.625,-20.020,401.855,0.000
1737552110.934,5.371,-10.742,-13.672,999.512,0.000
1737552110.938,-5.859,-10.254,-14.648,761.719,0.000
1737552110.941,-29.297,-20.020,-21.484,-702.148,0.000
1737552110.945,-26.855,-19.531,-23.438,-960.938,0.000
1737552110.949,-12.207,-11.719,-16.602,507.324,0.000
1737552110.953,-4.395,-14.648,-9.766,999.512,0.000
1737552110.957,24.902,-14.160,-10.742,696.777,0.000
1737552110.961,37.598,-11.230,-18.555,-692.871,0.000
1737552110.965,24.414,-6.836,-18.555,-1000.000,0.000
1737552110.969,11.719,-11.230,-12.695,196.289,0.000
1737552110.973,-13.184,-12.695,-12.695,999.512,0.000
1737552110.977,-25.391,-10.254,-10.742,916.992,0.000
1737552110.981,-32.227,-15.137,-7.812,-511.719,0.000
1737552110.984,-38.086,-18.555,-10.742,-1000.000,0.000
1737552110.988,-37.598,-20.508,-12.695,476.074,0.000
1737552110.992,-31.250,-15.137,-13.184,999.512,0.000
1737552110.996,-9.766,-8.789,-15.137,925.781,0.000
1737552111.000,-23.926,-15.625,-14.160,-363.770,0.000
1737552111.004,-33.203,-15.625,-13.184,-1000.000,0.000
1737552111.008,-4.883,-11.230,-11.719,459.473,0.000
1737552111.012,3.906,-16.113,-4.395,999.512,0.000
1737552111.016,-10.742,-11.719,-9.766,946.289,0.000
1737552111.020,-21.484,-11.719,-16.602,72.754,0.000
1737552111.023,-24.414,-16.113,-14.648,-1000.000,0.000
1737552111.027,-28.320,-14.160,-18.555,-469.727,0.000
1737552111.031,-25.879,-13.184,-13.672,780.762,0.000
1737552111.035,16.113,-14.160,-14.160,999.512,0.000
1737552111.039,15.625,-14.160,-27.344,82.031,0.000
1737552111.043,-8.301,-18.066,-31.250,-1000.000,0.000
1737552111.047,-9.766,-19.043,-20.996,-573.242,0.000
1737552111.051,-4.883,-14.160,-15.137,724.609,0.000
1737552111.055,21.973,-12.207,-16.113,999.512,0.000
1737552111.059,4.395,-16.113,-11.230,402.832,0.000
1737552111.063,-46.387,-19.531,-15.625,-923.828,0.000
1737552111.066,-39.551,-13.184,-15.137,-533.203,0.000
1737552111.070,-7.324,-9.277,-16.113,791.016,0.000
1737552111.074,-13.672,-12.695,-21.973,999.512,0.000
1737552111.078,-22.461,-11.230,-17.578,595.215,0.000
1737552111.082,-2.930,-10.742,-18.555,-801.270,0.000
1737552111.086,15.625,-18.066,-17.090,-915.039,0.000
1737552111.090,19.043,-18.066,-10.742,467.285,0.000
1737552111.094,2.930,-14.160,-11.230,999.512,0.000
1737552111.098,-41.504,-16.113,-12.695,732.422,0.000
1737552111.102,-53.223,-22.949,-16.602,-748.535,0.000
1737552111.105,-34.180,-27.344,-17.090,-888.672,0.000
1737552111.109,-13.672,-17.578,-20.996,606.445,0.000
1737552111.113,-23.926,-14.160,-30.762,999.512,0.000
1737552111.117,-41.016,-20.508,-30.273,660.645,0.000
1737552111.121,-44.434,-18.555,-25.391,-770.020,0.000
1737552111.125,-31.738,-16.113,-20.020,-957.520,0.000
1737552111.129,-11.230,-16.602,-12.207,516.113,0.000
1737552111.133,-8.789,-10.742,-11.719,999.512,0.000
1737552111.137,-6.348,-9.766,-15.137,784.668,0.000
1737552111.141,-19.531,-16.113,-17.090,-562.988,0.000
1737552111.145,-3.418,-20.508,-20.020,-1000.000,0.000
1737552111.148,14.160,-13.672,-22.949,-139.160,0.000
1737552111.152,0.000,-5.371,-17.578,920.898,0.000
1737552111.156,4.883,-12.695,-18.066,956.543,0.000
1737552111.160,-24.414,-22.949,-18.555,-429.199,0.000
1737552111.164,-57.129,-22.461,-11.230,-1000.000,0.000
1737552111.168,-43.457,-21.973,-13.672,-36.133,0.000
1737552111.172,-24.414,-26.367,-14.648,955.078,0.000
1737552111.176,-17.578,-27.832,-15.137,979.492,0.000
1737552111.180,-30.273,-28.320,-15.137,-194.824,0.000
1737552111.184,-47.852,-26.367,-13.672,-1000.000,0.000
1737552111.188,-29.297,-18.555,-12.695,-303.223,0.000
1737552111.191,-14.160,-6.836,-10.742,845.215,0.000
1737552111.195,-8.789,-12.695,-10.254,999.512,0.000
1737552111.199,-13.184,-25.391,-12.207,-14.160,0.000
1737552111.203,-15.625,-26.855,-8.789,-1000.000,0.000
1737552111.207,-16.113,-19.043,-2.441,-631.348,0.000
1737552111.211,-20.020,-14.160,-5.859,659.180,0.000
1737552111.215,-13.184,-15.137,-16.602,999.512,0.000
1737552111.219,-37.109,-18.066,-22.461,341.797,0.000
1737552111.223,-70.801,-34.180,-17.578,-908.691,0.000
1737552111.227,-41.016,-29.785,-21.484,-869.629,0.000
1737552111.230,-1.465,-16.602,-21.973,414.062,0.000
1737552111.234,-17.090,-20.508,-16.113,999.512,0.000
1737552111.238,-32.715,-17.090,-10.254,485.352,0.000
1737552111.242,-19.043,-20.020,-11.230,-857.422,0.000
1737552111.246,-19.531,-23.438,-20.508,-937.988,0.000
1737552111.250,-27.832,-20.508,-24.414,395.508,0.000
1737552111.254,-12.695,-16.113,-20.508,999.512,0.000
1737552111.258,-13.672,-14.160,-17.578,528.320,0.000
1737552111.262,-47.363,-20.020,-18.066,-888.184,0.000
1737552111.266,-48.340,-22.461,-12.695,-701.172,0.000
1737552111.270,-16.602,-11.230,-11.230,719.727,0.000
1737552111.273,3.906,-1.953,-14.160,999.512,0.000
1737552111.277,-5.371,-7.324,-14.648,661.621,0.000
1737552111.281,-33.203,-18.066,-15.137,-689.941,0.000
1737552111.285,-16.113,-26.855,-17.090,-1000.000,0.000
1737552111.289,-6.836,-17.578,-16.602,-71.777,0.000
1737552111.293,-18.555,-16.602,-18.066,994.629,0.000
1737552111.297,-16.113,-22.949,-26.855,794.434,0.000
1737552111.301,-38.086,-23.926,-32.227,-658.691,0.000
1737552111.305,-53.711,-28.809,-29.297,-1000.000,0.000
1737552111.309,-24.414,-23.438,-18.555,-128.418,0.000
1737552111.313,-0.488,-13.184,-14.648,963.379,0.000
1737552111.316,-13.672,-17.090,-18.555,850.098,0.000
1737552111.320,-32.227,-21.973,-26.855,-582.520,0.000
1737552111.324,-28.320,-23.438,-29.297,-1000.000,0.000
1737552111.328,-21.973,-20.508,-22.949,-567.871,0.000
1737552111.332,-3.418,-12.207,-26.855,665.527,0.000
1737552111.336,-9.766,-10.742,-28.809,999.512,0.000
1737552111.340,-39.551,-15.625,-19.043,-391.602,0.000
1737552111.344,-49.316,-17.578,-14.160,-1000.000,0.000
1737552111.348,-51.270,-13.672,-11.230,-454.590,0.000
1737552111.352,-14.160,-8.789,-15.137,768.555,0.000
1737552111.355,-5.371,-9.766,-22.949,999.512,0.000
1737552111.359,-22.949,-17.578,-12.695,-166.504,0.000
1737552111.363,-27.344,-20.996,-18.066,-1000.000,0.000
1737552111.367,-19.043,-17.578,-23.926,-711.914,0.000
1737552111.371,-9.766,-13.184,-13.184,565.430,0.000
1737552111.375,-3.906,-11.230,-15.137,999.512,0.000
1737552111.379,-20.020,-14.160,-23.926,131.348,0.000
1737552111.383,-36.133,-19.043,-20.996,-989.258,0.000
1737552111.387,-24.414,-14.160,-22.461,-945.312,0.000
1737552111.391,-6.348,-12.695,-19.531,197.754,0.000
1737552111.395,21.484,-14.160,-15.625,999.512,0.000
1737552111.398,-5.371,-12.695,-17.090,225.586,0.000
1737552111.402,-73.730,-19.043,-12.207,-1000.000,0.000
1737552111.406,-70.312,-19.531,-12.207,-893.555,0.000
1737552111.410,-46.387,-15.137,-14.648,371.582,0.000
1737552111.414,-32.227,-16.113,-10.254,999.512,0.000
1737552111.418,-24.902,-15.137,-5.371,465.820,0.000
1737552111.422,-34.668,-15.137,-7.324,-850.586,0.000
1737552111.426,-49.316,-18.066,-14.648,-990.234,0.000
1737552111.430,-20.996,-15.137,-8.301,277.832,0.000
1737552111.434,34.180,-5.371,-14.160,999.512,0.000
1737552111.437,32.715,-1.953,-18.066,695.312,0.000
1737552111.441,-7.324,-8.301,-11.719,-744.629,0.000
1737552111.445,-5.859,-10.254,-9.277,-986.816,0.000
1737552111.449,-27.344,-18.066,-0.977,414.062,0.000
1737552111.453,-38.086,-22.949,-11.719,999.512,0.000
1737552111.457,-7.324,-29.297,-37.109,747.559,0.000
1737552111.461,-29.785,-31.250,-33.203,-638.184,0.000
1737552111.465,-18.066,-20.020,-13.672,-1000.000,0.000
1737552111.469,-4.395,-14.648,-11.230,-13.672,0.000
1737552111.473,-31.250,-14.648,-16.602,981.445,0.000
1737552111.477,-37.598,-16.113,-13.672,898.926,0.000
1737552111.480,-41.016,-25.879,-14.160,-481.934,0.000
1737552111.484,-37.598,-28.320,-17.578,-1000.000,0.000
1737552111.488,-28.320,-17.578,-13.184,-216.797,0.000
1737552111.492,-25.879,-9.277,-19.043,848.145,0.000
1737552111.496,-6.836,-13.672,-14.160,999.512,0.000
1737552111.500,-15.625,-19.043,-8.301,-37.109,0.000
1737552111.504,-46.387,-26.855,-18.555,-1000.000,0.000
1737552111.508,-63.477,-24.414,-16.113,-394.043,0.000
1737552111.512,-23.926,-11.230,-11.719,828.613,0.000
1737552111.516,6.836,-8.301,-18.555,999.512,0.000
1737552111.520,-22.461,-11.230,-20.996,-107.422,0.000
1737552111.523,-39.062,-20.508,-12.207,-1000.000,0.000
1737552111.527,-17.578,-19.043,-9.277,-491.699,0.000
1737552111.531,16.113,-13.672,-11.230,741.699,0.000
1737552111.535,1.953,-15.137,-19.531,999.512,0.000
1737552111.539,-21.484,-16.602,-22.949,281.738,0.000
1737552111.543,-32.715,-21.973,-16.113,-960.938,0.000
1737552111.547,-25.879,-27.344,-15.137,-612.305,0.000
1737552111.551,-17.090,-25.391,-21.484,737.305,0.000
1737552111.555,-15.625,-21.484,-22.461,999.512,0.000
1737552111.559,-29.297,-20.508,-20.996,289.551,0.000
1737552111.562,-40.527,-24.414,-19.043,-982.910,0.000
1737552111.566,-24.902,-14.648,-18.555,-729.980,0.000
1737552111.570,-5.859,-2.930,-20.996,662.598,0.000
1737552111.574,8.301,-7.324,-18.555,999.512,0.000
1737552111.578,-22.461,-16.602,-15.137,406.250,0.000
1737552111.582,-41.504,-17.090,-9.766,-890.137,0.000
1737552111.586,-26.367,-13.672,-12.207,-897.949,0.000
1737552111.590,-16.113,-15.137,-17.090,427.734,0.000
1737552111.594,-2.930,-17.578,-15.625,999.512,0.000
1737552111.598,9.766,-19.043,-19.531,702.637,0.000
1737552111.602,-14.648,-19.531,-24.902,-673.340,0.000
1737552111.605,-18.555,-16.602,-25.391,-1000.000,0.000
1737552111.609,-5.371,-18.066,-22.949,-73.242,0.000
1737552111.613,-6.836,-20.508,-15.137,984.375,0.000
1737552111.617,-1.465,-16.602,-16.113,753.418,0.000
1737552111.621,-42.480,-16.602,-21.484,-697.266,0.000
1737552111.625,-49.316,-16.602,-27.344,-1000.000,0.000
1737552111.629,-19.043,-12.695,-29.785,-132.324,0.000
1737552111.633,-10.254,-11.230,-27.344,933.105,0.000
1737552111.637,-10.742,-11.230,-23.926,900.391,0.000
1737552111.641,-38.574,-15.625,-21.484,-485.352,0.000
1737552111.645,-76.172,-18.066,-24.414,-1000.000,0.000
1737552111.648,-52.246,-18.066,-17.578,-263.672,0.000
1737552111.652,-31.738,-15.625,-18.555,905.762,0.000
1737552111.656,-32.227,-12.207,-21.484,910.645,0.000
1737552111.660,-30.762,-18.066,-25.391,-527.344,0.000
1737552111.664,-27.344,-25.879,-26.855,-1000.000,0.000
1737552111.668,-22.949,-16.113,-21.973,-366.211,0.000
1737552111.672,-31.250,-11.230,-19.531,828.125,0.000
1737552111.676,-33.203,-16.113,-20.020,990.234,0.000
1737552111.680,-39.062,-18.066,-23.438,-368.164,0.000
1737552111.684,-34.180,-24.414,-24.902,-1000.000,0.000
1737552111.687,-13.672,-18.555,-20.996,-438.477,0.000
1737552111.691,-3.906,-8.789,-19.531,754.883,0.000
1737552111.695,-3.418,-15.137,-20.508,999.512,0.000
1737552111.699,-11.230,-18.066,-20.508,152.832,0.000
1737552111.703,-31.738,-22.461,-25.879,-1000.000,0.000
1737552111.707,-13.672,-21.484,-31.738,-726.074,0.000
1737552111.711,12.695,-12.695,-33.691,579.102,0.000
1737552111.715,18.555,-11.230,-25.391,999.512,0.000
1737552111.719,11.719,-16.113,-18.555,200.684,0.000
1737552111.723,-9.277,-22.949,-18.555,-1000.000,0.000
1737552111.727,-28.320,-20.996,-17.578,-666.992,0.000
1737552111.730,-11.230,-10.742,-19.531,666.016,0.000
1737552111.734,13.672,-2.930,-21.973,999.512,0.000
1737552111.738,-8.789,-5.859,-26.855,546.875,0.000
1737552111.742,-71.777,-19.531,-27.832,-843.750,0.000
1737552111.746,-68.848,-18.555,-24.414,-866.211,0.000
1737552111.750,-23.438,-14.648,-20.996,563.477,0.000
1737552111.754,-7.812,-13.672,-19.043,999.512,0.000
1737552111.758,-15.625,-13.184,-16.113,642.578,0.000
1737552111.762,-26.855,-18.066,-10.742,-792.480,0.000
1737552111.766,-33.691,-16.602,-12.207,-858.398,0.000
1737552111.769,-28.809,-14.160,-12.695,616.211,0.000
1737552111.773,-21.484,-16.113,-7.324,999.512,0.000
1737552111.777,-12.207,-11.719,-5.371,860.840,0.000
1737552111.781,-26.855,-7.812,-8.789,-466.309,0.000
1737552111.785,-62.500,-16.113,-14.160,-1000.000,0.000
1737552111.789,-59.082,-18.555,-13.184,186.035,0.000
1737552111.793,-60.059,-7.324,-19.043,999.512,0.000
1737552111.797,-65.430,-4.883,-14.648,860.352,0.000
1737552111.801,-83.984,-0.488,-1.953,-541.504,0.000
1737552111.805,-95.703,4.883,-11.230,-1000.000,0.000
1737552111.809,-92.285,5.859,-11.230,91.309,0.000
1737552111.812,-118.164,13.184,-8.301,999.512,0.000
1737552111.816,-166.016,26.367,-14.648,926.270,0.000
1737552111.820,-212.402,26.855,-10.742,-379.395,0.000
1737552111.824,-223.145,22.949,-8.789,-1000.000,0.000
1737552111.828,-192.383,31.250,-15.137,-45.410,0.000
1737552111.832,-181.152,34.180,-18.555,977.539,0.000
1737552111.836,-195.801,26.855,-18.066,956.543,0.000
1737552111.840,-210.449,27.344,-16.602,-296.875,0.000
1737552111.844,-228.516,26.855,-16.602,-1000.000,0.000
1737552111.848,-238.281,14.160,-19.043,-292.969,0.000
1737552111.852,-228.516,1.465,-24.414,816.406,0.000
1737552111.855,-194.336,3.418,-18.555,999.512,0.000
1737552111.859,-176.758,4.883,-7.324,145.996,0.000
1737552111.863,-178.223,-1.465,-8.301,-1000.000,0.000
1737552111.867,-166.992,-4.395,-17.090,-472.168,0.000
1737552111.871,-137.207,-5.859,-18.555,775.391,0.000
1737552111.875,-109.375,-6.348,-19.531,999.512,0.000
1737552111.879,-90.820,-6.348,-19.043,501.465,0.000
1737552111.883,-85.938,-8.789,-18.066,-873.535,0.000
1737552111.887,-82.520,-12.207,-21.973,-715.332,0.000
1737552111.891,-80.078,-16.602,-20.996,704.590,0.000
1737552111.894,-52.246,-18.555,-19.043,999.512,0.000
1737552111.898,-37.109,-24.902,-14.160,336.426,0.000
1737552111.902,-44.922,-34.180,-17.578,-922.363,0.000
1737552111.906,-17.578,-29.297,-19.531,-913.086,0.000
1737552111.910,19.531,-26.855,-12.695,419.922,0.000
1737552111.914,32.715,-23.926,-17.578,999.512,0.000
1737552111.918,63.477,-28.809,-20.996,683.105,0.000
1737552111.922,75.684,-38.086,-21.484,-781.738,0.000
1737552111.926,36.621,-30.762,-23.438,-837.402,0.000
1737552111.930,45.898,-24.902,-18.066,642.578,0.000
1737552111.934,44.434,-29.297,-19.043,999.512,0.000
1737552111.937,22.461,-32.715,-25.879,729.980,0.000
1737552111.941,31.738,-33.691,-25.879,-595.703,0.000
1737552111.945,46.875,-34.668,-30.762,-1000.000,0.000
1737552111.949,50.293,-33.691,-33.203,-318.359,0.000
1737552111.953,68.359,-37.109,-25.391,855.469,0.000
1737552111.957,63.965,-36.621,-27.344,938.477,0.000
1737552111.961,37.598,-35.645,-31.738,-517.090,0.000
1737552111.965,19.043,-36.621,-24.414,-1000.000,0.000
1737552111.969,20.996,-35.645,-19.043,-158.691,0.000
1737552111.973,54.199,-32.227,-18.555,952.637,0.000
1737552111.977,57.129,-25.879,-18.555,873.047,0.000
1737552111.980,56.641,-25.391,-16.602,-568.848,0.000
1737552111.984,59.082,-22.949,-16.602,-1000.000,0.000
1737552111.988,64.941,-24.902,-13.184,-263.672,0.000
1737552111.992,60.059,-27.832,-11.230,824.707,0.000
1737552111.996,23.926,-27.344,-9.766,999.512,0.000
1737552112.000,20.508,-25.391,-10.742,-104.492,0.000
1737552112.004,35.645,-23.926,-15.137,-1000.000,0.000
1737552112.008,46.387,-25.879,-12.207,-499.023,0.000
1737552112.012,53.223,-20.996,-8.789,725.586,0.000
1737552112.016,56.641,-11.719,-3.418,999.512,0.000
1737552112.019,45.410,-11.230,-9.766,144.043,0.000
1737552112.023,36.621,-18.555,-18.066,-1000.000,0.000
1737552112.027,38.086,-22.461,-15.625,-654.785,0.000
1737552112.031,44.434,-19.043,-14.648,662.598,0.000
1737552112.035,53.223,-23.926,-14.648,999.512,0.000
1737552112.039,45.410,-22.949,-14.160,-92.773,0.000
1737552112.043,27.344,-20.020,-14.648,-1000.000,0.000
1737552112.047,27.344,-22.949,-13.184,-837.402,0.000
1737552112.051,30.273,-19.043,-7.324,354.004,0.000
1737552112.055,30.762,-14.648,-12.695,999.512,0.000
1737552112.059,20.508,-18.555,-13.184,312.500,0.000
1737552112.062,15.625,-29.785,-4.883,-951.172,0.000
1737552112.066,20.996,-23.438,-8.789,-836.426,0.000
1737552112.070,22.949,-14.648,-13.672,460.938,0.000
1737552112.074,20.996,-15.625,-8.301,999.512,0.000
1737552112.078,10.254,-15.137,-6.836,507.812,0.000
1737552112.082,-2.441,-15.625,-9.766,-841.309,0.000
1737552112.086,4.883,-19.531,-19.043,-966.797,0.000
1737552112.090,22.461,-20.020,-17.578,341.797,0.000
1737552112.094,24.902,-19.531,-7.812,999.512,0.000
1737552112.098,27.832,-19.531,-10.254,650.879,0.000
1737552112.101,13.672,-26.855,-20.996,-738.770,0.000
1737552112.105,5.859,-24.902,-20.508,-1000.000,0.000
1737552112.109,16.113,-14.160,-14.648,141.602,0.000
1737552112.113,26.855,-15.625,-19.531,999.512,0.000
1737552112.117,19.043,-29.785,-30.273,676.270,0.000
1737552112.121,-15.625,-37.109,-28.809,-707.520,0.000
1737552112.125,-21.973,-27.832,-20.508,-1000.000,0.000
1737552112.129,-4.883,-19.043,-24.414,-253.418,0.000
1737552112.133,16.602,-12.695,-24.414,888.184,0.000
1737552112.137,29.297,-13.184,-19.043,943.848,0.000
1737552112.141,11.230,-17.578,-15.137,-578.125,0.000
1737552112.144,-12.207,-12.207,-12.695,-1000.000,0.000
1737552112.148,-11.719,-6.348,-17.090,314.453,0.000
1737552112.152,2.441,-10.742,-18.555,999.512,0.000
1737552112.156,4.883,-12.695,-17.090,876.953,0.000
1737552112.160,-6.836,-17.578,-14.160,-404.297,0.000
1737552112.164,-13.184,-19.531,-11.230,-1000.000,0.000
1737552112.168,-10.254,-14.160,-11.230,-497.559,0.000
1737552112.172,12.695,-15.137,-11.719,688.965,0.000
1737552112.176,28.320,-13.184,-19.043,999.512,0.000
1737552112.180,12.207,-7.812,-22.949,-251.465,0.000
1737552112.184,8.789,-13.672,-22.461,-1000.000,0.000
1737552112.187,17.578,-14.160,-20.020,-543.457,0.000
1737552112.191,26.855,-4.395,-20.996,690.918,0.000
1737552112.195,16.602,-5.371,-19.531,999.512,0.000
1737552112.199,-3.906,-8.789,-21.973,229.980,0.000
1737552112.203,-17.578,-14.160,-23.926,-981.445,0.000
1737552112.207,-21.484,-15.137,-21.484,-519.043,0.000
1737552112.211,-13.672,-16.602,-16.113,778.809,0.000
1737552112.215,-14.160,-22.949,-6.348,999.512,0.000
1737552112.219,-6.348,-20.508,-6.836,99.121,0.000
1737552112.223,-27.832,-18.066,-7.812,-952.148,0.000
1737552112.226,-20.996,-24.902,-6.348,-1000.000,0.000
1737552112.230,3.906,-24.414,-10.254,-434.082,0.000
1737552112.234,-10.742,-19.531,-17.090,755.859,0.000
1737552112.238,-23.926,-19.043,-21.973,590.332,0.000
1737552112.242,-34.668,-26.855,-23.926,-887.207,0.000
1737552112.246,-30.762,-24.902,-22.949,-942.383,0.000
1737552112.250,-18.066,-17.578,-18.066,420.410,0.000
1737552112.254,-14.648,-23.926,-14.160,999.512,0.000
1737552112.258,-4.395,-22.949,-12.207,543.945,0.000
1737552112.262,-9.766,-20.020,-13.184,-786.621,0.000
1737552112.266,-25.391,-22.949,-16.602,-1000.000,0.000
1737552112.269,-15.137,-23.926,-16.113,57.129,0.000
1737552112.273,9.277,-22.949,-17.578,999.512,0.000
1737552112.277,13.672,-19.043,-21.484,729.004,0.000
1737552112.281,0.977,-20.996,-22.461,-686.035,0.000
1737552112.285,-2.441,-26.367,-22.949,-1000.000,0.000
1737552112.289,0.488,-20.996,-17.578,-181.641,0.000
1737552112.293,19.531,-10.742,-8.789,927.246,0.000
1737552112.297,4.395,-7.812,-10.254,888.184,0.000
1737552112.301,-13.672,-11.719,-16.113,-538.574,0.000
1737552112.305,-40.039,-18.555,-19.043,-1000.000,0.000
1737552112.309,-60.059,-19.043,-9.766,-518.555,0.000
1737552112.312,-42.480,-10.742,-11.719,676.758,0.000
1737552112.316,7.812,-6.836,-19.043,999.512,0.000
1737552112.320,21.973,-14.648,-15.137,-331.543,0.000
1737552112.324,-7.324,-20.996,-16.602,-1000.000,0.000
1737552112.328,-20.020,-22.461,-24.414,-445.801,0.000
1737552112.332,-21.484,-18.066,-18.555,772.949,0.000
1737552112.336,-35.156,-19.531,-15.625,999.512,0.000
1737552112.340,-39.551,-25.879,-18.066,-177.734,0.000
1737552112.344,-32.715,-17.090,-21.484,-1000.000,0.000
1737552112.348,-17.578,-10.254,-25.879,-321.777,0.000
1737552112.351,-6.836,-11.230,-19.531,840.820,0.000
1737552112.355,-1.465,-7.812,-14.648,999.512,0.000
1737552112.359,-9.766,-9.277,-18.555,-83.984,0.000
1737552112.363,-34.180,-11.230,-19.043,-1000.000,0.000
1737552112.367,10.742,-5.859,-17.090,-465.332,0.000
1737552112.371,20.508,-8.301,-16.113,779.297,0.000
1737552112.375,-2.441,-12.695,-14.648,999.512,0.000
1737552112.379,-25.391,-13.672,-12.695,179.688,0.000
1737552112.383,-45.410,-17.090,-20.996,-1000.000,0.000
1737552112.387,-26.367,-18.066,-20.020,-739.258,0.000
1737552112.391,-6.836,-17.578,-7.812,616.211,0.000
1737552112.394,-0.977,-10.742,-12.695,999.512,0.000
1737552112.398,1.465,-10.254,-18.555,418.945,0.000
1737552112.402,-19.043,-18.555,-15.137,-839.844,0.000
1737552112.406,-42.480,-19.043,-9.766,-1000.000,0.000
1737552112.410,-46.875,-11.719,-7.324,-18.066,0.000
1737552112.414,-34.668,-12.695,-7.324,999.512,0.000
1737552112.418,-21.973,-13.672,-14.160,656.250,0.000
1737552112.422,-26.367,-15.625,-16.602,-793.945,0.000
1737552112.426,-31.738,-17.578,-15.137,-1000.000,0.000
1737552112.430,-46.387,-20.020,-19.043,202.637,0.000
1737552112.434,-19.043,-18.555,-21.484,999.512,0.000
1737552112.437,11.719,-11.230,-24.902,785.156,0.000
1737552112.441,-16.113,-16.113,-20.020,-613.770,0.000
1737552112.445,-5.859,-18.066,-11.230,-1000.000,0.000
1737552112.449,14.160,-15.137,-10.742,-131.348,0.000
1737552112.453,-5.371,-12.695,-13.184,968.750,0.000
1737552112.457,-22.461,-19.531,-16.602,837.402,0.000
1737552112.461,-28.320,-26.855,-15.625,-618.652,0.000
1737552112.465,-13.672,-24.902,-13.672,-1000.000,0.000
1737552112.469,-10.254,-24.414,-20.508,-171.387,0.000
1737552112.473,-10.254,-17.578,-22.949,917.480,0.000
1737552112.476,-17.578,-15.137,-16.602,940.430,0.000
1737552112.480,-21.973,-16.602,-16.113,-445.801,0.000
1737552112.484,-10.742,-14.160,-20.020,-1000.000,0.000
1737552112.488,-9.277,-17.578,-18.066,-180.176,0.000
1737552112.492,-5.371,-13.672,-12.207,897.949,0.000
1737552112.496,-8.301,-17.578,-13.184,975.098,0.000
1737552112.500,-14.648,-22.949,-13.184,-273.438,0.000
1737552112.504,-36.621,-23.926,-10.742,-1000.000,0.000
1737552112.508,-41.504,-21.484,-10.742,-541.992,0.000
1737552112.512,-18.066,-15.625,-18.555,732.422,0.000
1737552112.516,-51.270,-17.578,-17.090,999.512,0.000
1737552112.519,-62.012,-24.414,-17.090,-140.137,0.000
1737552112.523,-30.273,-29.297,-25.391,-1000.000,0.000
1737552112.527,-12.695,-26.855,-17.090,-517.578,0.000
1737552112.531,0.977,-23.438,-13.184,741.699,0.000
1737552112.535,-2.930,-27.344,-21.484,999.512,0.000
1737552112.539,-18.066,-28.320,-26.855,79.102,0.000
1737552112.543,-24.414,-23.926,-22.949,-1000.000,0.000
1737552112.547,-31.738,-21.973,-19.043,-709.961,0.000
1737552112.551,-23.926,-19.043,-18.066,614.258,0.000
1737552112.555,-11.719,-19.531,-17.578,999.512,0.000
1737552112.558,-19.531,-20.996,-20.508,388.184,0.000
1737552112.562,-37.598,-21.973,-21.484,-906.738,0.000
1737552112.566,-23.926,-22.949,-16.602,-823.730,0.000
1737552112.570,8.789,-17.578,-15.137,475.586,0.000
1737552112.574,17.090,-12.207,-20.020,999.512,0.000
1737552112.578,5.371,-12.695,-23.926,750.977,0.000
1737552112.582,-44.434,-28.320,-27.344,-628.418,0.000
1737552112.586,-64.941,-34.180,-28.320,-1000.000,0.000
1737552112.590,-44.434,-23.438,-21.973,-112.793,0.000
1737552112.594,-22.461,-16.602,-14.160,964.844,0.000
1737552112.598,-42.480,-23.438,-12.695,778.320,0.000
1737552112.601,-77.148,-33.691,-16.602,-692.383,0.000
1737552112.605,-42.969,-22.949,-14.648,-1000.000,0.000
1737552112.609,-16.113,-12.207,-18.066,-11.719,0.000
1737552112.613,-9.277,-14.160,-27.344,999.512,0.000
1737552112.617,-8.789,-12.695,-20.996,758.789,0.000
1737552112.621,-24.902,-13.184,-20.508,-686.523,0.000
1737552112.625,-29.297,-11.230,-24.902,-1000.000,0.000
1737552112.629,-20.508,-13.184,-22.949,-99.609,0.000
1737552112.633,-7.324,-17.090,-21.484,966.309,0.000
1737552112.637,-2.441,-12.207,-26.367,826.172,0.000
1737552112.641,-42.480,-14.648,-19.043,-601.562,0.000
1737552112.644,-77.637,-20.508,-9.766,-1000.000,0.000
1737552112.648,-79.102,-21.484,-12.695,-477.539,0.000
1737552112.652,-28.320,-18.555,-13.672,750.000,0.000
1737552112.656,1.465,-15.625,-13.672,999.512,0.000
1737552112.660,-14.160,-20.996,-14.160,-354.492,0.000
1737552112.664,-21.973,-23.438,-19.043,-1000.000,0.000
1737552112.668,-22.949,-17.090,-20.508,-657.715,0.000
1737552112.672,-11.230,-12.207,-22.949,630.371,0.000
1737552112.676,-2.441,-8.789,-23.438,999.512,0.000
1737552112.680,-19.531,-15.625,-15.137,-206.055,0.000
1737552112.683,-23.438,-14.648,-13.672,-1000.000,0.000
1737552112.687,-11.719,-15.625,-19.531,-657.227,0.000
1737552112.691,13.672,-17.090,-20.996,525.879,0.000
1737552112.695,0.977,-14.648,-16.113,999.512,0.000
1737552112.699,-36.133,-12.695,-21.484,250.488,0.000
1737552112.703,-51.758,-14.160,-24.414,-951.660,0.000
1737552112.707,-35.156,-17.578,-13.672,-899.902,0.000
1737552112.711,-9.277,-8.301,-11.230,304.199,0.000
1737552112.715,-8.789,-8.301,-17.090,999.512,0.000
1737552112.719,-19.043,-16.113,-19.531,497.070,0.000
1737552112.723,-65.430,-20.508,-22.461,-861.328,0.000
1737552112.726,-48.828,-18.066,-19.531,-923.340,0.000
1737552112.730,7.812,-13.184,-21.973,425.293,0.000
1737552112.734,10.254,-12.695,-22.949,999.512,0.000
1737552112.738,13.184,-9.766,-13.672,771.484,0.000
1737552112.742,8.789,-12.207,-11.230,-683.594,0.000
1737552112.746,-17.578,-12.207,-13.184,-951.660,0.000
1737552112.750,-24.902,-7.812,-16.602,524.902,0.000
1737552112.754,-5.859,-8.301,-22.949,999.512,0.000
1737552112.758,-6.836,-7.812,-16.113,674.316,0.000
1737552112.762,-25.879,-13.672,-11.230,-711.426,0.000
1737552112.766,-14.648,-14.648,-6.836,-1000.000,0.000
1737552112.769,1.465,-13.184,-4.395,208.008,0.000
1737552112.773,-25.391,-18.066,-11.719,999.512,0.000
1737552112.777,-57.617,-21.484,-15.137,820.801,0.000
1737552112.781,-42.969,-22.461,-18.555,-625.977,0.000
1737552112.785,-28.320,-20.996,-25.391,-1000.000,0.000
1737552112.789,-12.207,-13.672,-26.855,219.727,0.000
1737552112.793,2.930,-10.742,-19.531,999.512,0.000
1737552112.797,-9.766,-14.160,-17.090,922.852,0.000
1737552112.801,-30.273,-18.555,-22.461,-313.477,0.000
1737552112.805,-39.062,-20.508,-22.949,-1000.000,0.000
1737552112.808,-26.367,-18.555,-22.461,-291.992,0.000
1737552112.812,-6.348,-15.625,-23.438,846.191,0.000
1737552112.816,-14.648,-21.484,-25.391,999.512,0.000
1737552112.820,-29.297,-31.738,-23.926,-282.715,0.000
1737552112.824,-29.785,-35.156,-18.555,-1000.000,0.000
1737552112.828,-12.207,-31.738,-11.719,-287.109,0.000
1737552112.832,-7.324,-22.949,-4.395,812.988,0.000
1737552112.836,-35.156,-19.043,-9.766,999.512,0.000
1737552112.840,-23.438,-13.184,-13.184,205.078,0.000
1737552112.844,-17.578,-6.348,-22.461,-980.469,0.000
1737552112.848,-3.906,-5.859,-25.391,-380.371,0.000
1737552112.851,20.996,-4.395,-18.066,854.492,0.000
1737552112.855,26.855,-5.859,-16.602,999.512,0.000
1737552112.859,-6.836,-14.648,-14.160,119.141,0.000
1737552112.863,-46.387,-14.160,-17.090,-1000.000,0.000
1737552112.867,-41.504,-15.625,-16.602,-777.832,0.000
1737552112.871,-21.973,-21.973,-14.648,498.047,0.000
1737552112.875,-12.207,-17.090,-17.578,999.512,0.000
1737552112.879,-12.695,-15.625,-15.625,312.988,0.000
1737552112.883,-37.109,-17.090,-21.484,-969.238,0.000
1737552112.887,-40.039,-11.719,-24.414,-721.680,0.000
1737552112.890,-53.711,-12.695,-17.090,646.973,0.000
1737552112.894,-63.477,-15.137,-11.230,999.512,0.000
1737552112.898,-16.113,-7.812,-10.254,583.008,0.000
1737552112.902,5.859,-9.766,-15.137,-832.520,0.000
1737552112.906,-6.836,-15.137,-13.672,-801.758,0.000
1737552112.910,-0.977,-8.789,-9.766,654.785,0.000
1737552112.914,6.348,-10.742,-18.066,999.512,0.000
1737552112.918,5.371,-12.695,-23.438,677.246,0.000
1737552112.922,-7.324,-17.578,-22.949,-713.867,0.000
1737552112.926,-15.137,-19.531,-18.066,-1000.000,0.000
1737552112.930,-5.859,-11.719,-13.672,266.602,0.000
1737552112.933,-10.742,-16.602,-10.742,999.512,0.000
1737552112.937,-11.230,-25.391,-8.301,698.730,0.000
1737552112.941,-19.043,-27.832,-18.066,-728.516,0.000
1737552112.945,-19.043,-25.879,-22.461,-1000.000,0.000
1737552112.949,38.086,-22.461,-18.066,196.289,0.000
1737552112.953,39.062,-19.531,-22.461,999.512,0.000
1737552112.957,-6.836,-20.020,-23.438,847.168,0.000
1737552112.961,-58.594,-25.391,-21.973,-538.086,0.000
1737552112.965,-81.543,-22.949,-18.066,-1000.000,0.000
1737552112.969,-46.875,-17.090,-13.184,-148.926,0.000
1737552112.973,-21.484,-22.949,-9.277,940.430,0.000
1737552112.976,-24.414,-21.973,-15.625,906.738,0.000
1737552112.980,-42.480,-13.672,-20.996,-490.723,0.000
1737552112.984,-39.551,-17.090,-19.531,-1000.000,0.000
1737552112.988,-21.484,-15.137,-24.414,-395.020,0.000
1737552112.992,-15.625,-10.742,-26.367,764.648,0.000
1737552112.996,-5.859,-13.672,-18.555,999.512,0.000
1737552113.000,-21.484,-12.207,-20.996,29.297,0.000
1737552113.004,-38.574,-17.090,-25.391,-1000.000,0.000
1737552113.008,-19.043,-21.973,-20.020,-659.668,0.000
1737552113.012,-14.648,-14.160,-15.625,644.531,0.000
1737552113.015,10.742,-10.254,-18.066,999.512,0.000
1737552113.019,13.672,-20.020,-22.461,72.266,0.000
1737552113.023,-40.527,-21.484,-24.414,-1000.000,0.000
1737552113.027,-31.738,-16.113,-22.949,-255.859,0.000
1737552113.031,-11.230,-19.043,-18.555,879.883,0.000
1737552113.035,-12.207,-16.113,-16.113,999.512,0.000
1737552113.039,-34.180,-19.043,-14.648,313.965,0.000
1737552113.043,-52.246,-20.020,-19.531,-967.773,0.000
1737552113.047,-36.133,-7.812,-20.020,-621.582,0.000
1737552113.051,-11.719,-9.766,-14.648,745.605,0.000
1737552113.055,-15.137,-16.602,-13.672,999.512,0.000
1737552113.058,-20.996,-14.160,-11.230,233.398,0.000
1737552113.062,-28.809,-17.090,-14.160,-917.480,0.000
1737552113.066,-37.109,-18.555,-18.555,-1000.000,0.000
1737552113.070,-5.371,-15.137,-15.137,-31.738,0.000
1737552113.074,17.090,-12.695,-14.648,999.512,0.000
1737552113.078,6.836,-13.672,-12.207,668.457,0.000
1737552113.082,-24.414,-17.578,-13.672,-763.184,0.000
1737552113.086,-39.062,-20.996,-19.531,-1000.000,0.000
1737552113.090,-14.160,-15.625,-20.020,57.617,0.000
1737552113.094,-4.883,-15.625,-16.113,999.512,0.000
1737552113.098,-27.344,-23.926,-12.207,691.406,0.000
1737552113.101,-50.293,-22.461,-16.113,-698.730,0.000
1737552113.105,-44.434,-24.414,-20.020,-1000.000,0.000
1737552113.109,-42.480,-24.902,-12.207,-532.715,0.000
1737552113.113,-41.016,-17.578,-13.672,687.012,0.000
1737552113.117,1.953,-10.254,-19.043,913.086,0.000
1737552113.121,9.277,-8.789,-20.020,-575.195,0.000
1737552113.125,-8.789,-9.277,-23.926,-1000.000,0.000
1737552113.129,-2.441,-9.277,-22.949,-342.773,0.000
1737552113.133,11.719,-10.254,-16.602,815.918,0.000
1737552113.137,-9.766,-13.672,-16.602,999.512,0.000
1737552113.140,-41.504,-16.113,-21.484,-411.621,0.000
1737552113.144,-30.762,-18.555,-20.996,-1000.000,0.000
1737552113.148,-15.625,-16.113,-15.137,155.273,0.000
1737552113.152,-28.320,-16.113,-19.043,999.512,0.000
1737552113.156,-35.645,-26.367,-22.461,902.344,0.000
1737552113.160,-42.969,-27.344,-26.855,-371.582,0.000
1737552113.164,-50.293,-20.020,-24.414,-1000.000,0.000
1737552113.168,-36.621,-18.066,-17.578,-777.832,0.000
1737552113.172,-6.348,-15.137,-20.996,356.445,0.000
1737552113.176,-10.254,-18.555,-23.926,999.512,0.000
1737552113.180,-43.457,-22.461,-21.973,-65.430,0.000
1737552113.183,-57.129,-17.578,-18.555,-1000.000,0.000
1737552113.187,-24.902,-17.578,-24.414,-577.637,0.000
1737552113.191,10.254,-17.090,-29.785,705.078,0.000
1737552113.195,-16.602,-19.531,-24.414,999.512,0.000
1737552113.199,-38.574,-23.926,-17.578,202.637,0.000
1737552113.203,-39.551,-22.461,-18.066,-982.910,0.000
1737552113.207,-48.828,-20.508,-28.320,-846.680,0.000
1737552113.211,-33.691,-19.531,-26.367,445.312,0.000
1737552113.215,-14.648,-17.090,-17.090,999.512,0.000
1737552113.219,-25.879,-17.090,-21.484,359.863,0.000
1737552113.222,-59.082,-21.484,-27.344,-889.648,0.000
1737552113.226,-41.992,-20.508,-29.297,-972.168,0.000
1737552113.230,-7.324,-12.207,-30.273,154.785,0.000
1737552113.234,-12.207,-9.277,-24.414,999.512,0.000
1737552113.238,-5.371,-10.254,-24.414,694.824,0.000
1737552113.242,0.488,-15.137,-28.809,-693.848,0.000
1737552113.246,-22.949,-20.508,-18.066,-1000.000,0.000
1737552113.250,-8.789,-15.625,-11.230,-266.602,0.000
1737552113.254,-1.953,-5.371,-19.043,908.691,0.000
1737552113.258,-22.949,-15.137,-16.113,813.477,0.000
1737552113.262,-20.996,-19.043,-10.742,-728.027,0.000
1737552113.265,-49.316,-14.160,-10.254,-1000.000,0.000
1737552113.269,-60.547,-16.113,-6.836,271.973,0.000
1737552113.273,-35.645,-13.672,-13.184,999.512,0.000
1737552113.277,-31.250,-15.137,-15.137,810.547,0.000
1737552113.281,-60.547,-17.090,-10.742,-536.621,0.000
1737552113.285,-68.848,-17.578,-20.020,-1000.000,0.000
1737552113.289,-17.090,-24.414,-24.902,-352.539,0.000
1737552113.293,5.371,-19.531,-20.508,819.824,0.000
1737552113.297,6.836,-12.695,-11.719,978.516,0.000
1737552113.301,2.441,-18.066,-8.301,-388.672,0.000
1737552113.305,-25.391,-22.949,-16.602,-1000.000,0.000
1737552113.308,-17.578,-21.484,-18.555,-391.602,0.000
1737552113.312,-3.418,-13.672,-15.137,799.316,0.000
1737552113.316,-27.832,-19.531,-14.648,999.512,0.000
1737552113.320,-45.898,-25.391,-12.207,-197.266,0.000
1737552113.324,-47.852,-26.367,-13.672,-1000.000,0.000
1737552113.328,-33.203,-25.879,-15.137,-189.453,0.000
1737552113.332,-4.883,-21.484,-11.719,876.465,0.000
1737552113.336,-1.465,-13.672,-8.301,999.512,0.000
1737552113.340,-5.859,-9.766,-11.719,275.879,0.000
1737552113.344,-15.137,-19.043,-8.789,-966.797,0.000
1737552113.347,-27.344,-25.879,-12.207,-570.801,0.000
1737552113.351,-28.320,-22.949,-21.973,766.602,0.000
1737552113.355,-43.945,-18.066,-11.230,999.512,0.000
1737552113.359,-49.316,-16.113,-6.836,-86.426,0.000
1737552113.363,-33.691,-21.973,-13.184,-1000.000,0.000
1737552113.367,-47.363,-18.066,-11.719,-863.281,0.000
1737552113.371,-26.855,-9.766,-8.789,345.215,0.000
1737552113.375,-12.207,-9.277,-11.230,999.512,0.000
1737552113.379,-13.184,-9.277,-12.207,354.492,0.000
1737552113.383,-10.254,-19.043,-15.137,-880.859,0.000
1737552113.387,-20.996,-29.297,-22.461,-1000.000,0.000
1737552113.390,-16.113,-21.973,-14.648,-49.805,0.000
1737552113.394,13.672,-11.230,-7.324,992.676,0.000
1737552113.398,-1.465,-10.742,-8.789,647.461,0.000
1737552113.402,-24.902,-13.672,-11.719,-786.133,0.000
1737552113.406,-9.766,-15.137,-15.625,-1000.000,0.000
1737552113.410,-1.465,-11.719,-11.719,114.258,0.000
1737552113.414,-2.930,-8.301,-7.324,999.512,0.000
1737552113.418,4.883,-12.695,-3.418,691.895,0.000
1737552113.422,1.465,-14.648,-7.324,-732.910,0.000
1737552113.426,7.812,-9.277,-18.066,-1000.000,0.000
1737552113.430,16.602,-12.695,-12.207,133.301,0.000
1737552113.433,20.508,-11.719,-1.953,999.512,0.000
1737552113.437,0.488,-15.137,-12.695,751.465,0.000
1737552113.441,-42.969,-21.973,-19.531,-652.832,0.000
1737552113.445,-43.945,-19.043,-17.090,-1000.000,0.000
1737552113.449,-36.133,-16.113,-16.113,-211.426,0.000
1737552113.453,-21.973,-16.602,-11.230,903.809,0.000
1737552113.457,-20.508,-20.996,-14.160,933.105,0.000
1737552113.461,-29.785,-22.949,-17.578,-555.176,0.000
1737552113.465,-35.645,-18.555,-13.184,-1000.000,0.000
1737552113.469,-59.082,-13.184,-9.277,177.246,0.000
1737552113.472,-52.246,-13.672,-15.625,999.512,0.000
1737552113.476,-26.367,-16.602,-22.461,890.625,0.000
1737552113.480,-37.109,-19.043,-25.879,-408.691,0.000
1737552113.484,-42.969,-20.020,-27.832,-1000.000,0.000
1737552113.488,-36.133,-23.926,-27.832,-899.902,0.000
1737552113.492,-18.066,-22.461,-25.879,-239.746,0.000
1737552113.496,10.742,-19.043,-24.902,442.871,0.000
1737552113.500,-0.488,-18.066,-21.973,-460.449,0.000
1737552113.504,-6.348,-12.207,-19.531,-1000.000,0.000
1737552113.508,10.742,-7.812,-18.555,-468.750,0.000
1737552113.512,2.441,-7.812,-20.996,735.840,0.000
1737552113.515,17.578,-9.277,-22.461,999.512,0.000
1737552113.519,32.715,-12.207,-21.484,97.168,0.000
1737552113.523,19.043,-10.254,-18.555,-1000.000,0.000
1737552113.527,25.391,-8.789,-11.230,-693.359,0.000
1737552113.531,6.348,-7.324,-12.207,660.645,0.000
1737552113.535,-8.789,-10.742,-15.137,999.512,0.000
1737552113.539,-14.160,-23.438,-16.602,253.906,0.000
1737552113.543,-51.270,-28.320,-18.555,-916.016,0.000
1737552113.547,-46.387,-18.555,-19.043,-947.754,0.000
1737552113.551,-6.348,-14.648,-18.066,132.324,0.000
1737552113.554,10.742,-13.672,-11.230,999.512,0.000
1737552113.558,0.000,-13.672,-12.695,500.488,0.000
1737552113.562,-45.898,-18.066,-17.090,-893.066,0.000
1737552113.566,-46.387,-20.020,-14.648,-868.652,0.000
1737552113.570,0.000,-15.625,-17.578,509.766,0.000
1737552113.574,21.973,-11.719,-17.090,999.512,0.000
1737552113.578,-19.531,-17.090,-10.254,521.484,0.000
1737552113.582,-57.617,-20.996,-11.230,-785.156,0.000
1737552113.586,-43.457,-18.555,-13.672,-1000.000,0.000
1737552113.590,-18.066,-11.230,-10.254,-5.371,0.000
1737552113.594,0.488,-7.324,-9.277,999.512,0.000
1737552113.597,-8.301,-12.207,-15.137,827.637,0.000
1737552113.601,-32.227,-14.160,-16.113,-583.008,0.000
1737552113.605,-29.297,-11.230,-13.184,-1000.000,0.000
1737552113.609,-14.160,-7.812,-7.324,-286.621,0.000
1737552113.613,-13.672,-11.230,-17.578,934.082,0.000
1737552113.617,-2.441,-15.137,-31.738,798.340,0.000
1737552113.621,-20.020,-20.508,-18.555,-676.270,0.000
1737552113.625,-34.668,-20.508,-9.277,-1000.000,0.000
1737552113.629,0.000,-13.184,-15.625,-322.754,0.000
1737552113.633,19.531,-9.766,-20.508,882.324,0.000
1737552113.637,-0.977,-11.230,-17.578,892.578,0.000
1737552113.640,-20.508,-17.578,-22.461,-558.594,0.000
1737552113.644,-15.625,-20.020,-27.344,-1000.000,0.000
1737552113.648,-1.465,-20.020,-28.320,-753.906,0.000
1737552113.652,9.277,-11.719,-21.973,300.781,0.000
1737552113.656,-46.875,-11.719,-12.695,999.512,0.000
1737552113.660,-100.098,-21.484,-13.184,-132.324,0.000
1737552113.664,-88.867,-27.344,-9.766,-1000.000,0.000
1737552113.668,-63.477,-24.414,-13.672,-963.379,0.000
1737552113.672,-34.668,-18.555,-21.973,-170.898,0.000
1737552113.676,-15.137,-17.578,-21.973,898.438,0.000
1737552113.679,-20.508,-18.555,-20.996,-46.875,0.000
1737552113.683,-36.133,-23.926,-11.719,-1000.000,0.000
1737552113.687,-40.039,-24.902,-7.812,-909.668,0.000
1737552113.691,-37.598,-27.344,-9.766,0.000,0.000
1737552113.695,-25.391,-27.832,-9.277,999.512,0.000
1737552113.699,-18.066,-23.438,-18.066,250.488,0.000
1737552113.703,-34.180,-23.926,-21.484,-988.770,0.000
1737552113.707,-35.645,-20.996,-16.602,-880.371,0.000
1737552113.711,-11.719,-8.301,-22.461,230.469,0.000
1737552113.715,2.441,-8.301,-16.602,999.512,0.000
1737552113.719,-9.766,-21.973,-3.906,499.023,0.000
1737552113.722,-13.672,-20.020,-13.184,-843.750,0.000
1737552113.726,-16.113,-14.160,-15.625,-993.164,0.000
1737552113.730,-21.973,-14.160,-10.742,180.664,0.000
1737552113.734,4.395,-13.672,-14.160,999.512,0.000
1737552113.738,24.414,-19.043,-12.695,576.660,0.000
1737552113.742,-7.812,-23.926,-11.719,-744.141,0.000
1737552113.746,-52.246,-17.090,-19.043,-1000.000,0.000
1737552113.750,-64.453,-7.324,-20.996,-482.422,0.000
1737552113.754,-34.668,-5.859,-20.508,805.664,0.000
1737552113.758,-19.043,-7.324,-17.090,779.297,0.000
1737552113.762,-43.457,-10.742,-14.648,-737.793,0.000
1737552113.765,-41.992,-16.602,-20.996,-1000.000,0.000
1737552113.769,-2.930,-13.184,-12.207,-135.254,0.000
1737552113.773,17.578,-15.137,-6.836,996.094,0.000
1737552113.777,3.418,-20.508,-14.160,739.258,0.000
1737552113.781,-17.578,-20.508,-12.207,-676.758,0.000
1737552113.785,-17.090,-22.949,-5.859,-1000.000,0.000
1737552113.789,-16.602,-16.113,-11.230,-530.762,0.000
1737552113.793,-29.785,-5.371,-11.230,715.820,0.000
1737552113.797,-20.996,-7.324,-10.742,999.512,0.000
1737552113.801,-21.484,-14.160,-25.391,-386.719,0.000
1737552113.804,-38.574,-20.020,-29.297,-1000.000,0.000
1737552113.808,-21.973,-20.996,-24.414,-740.234,0.000
1737552113.812,-1.465,-24.414,-15.137,415.039,0.000
1737552113.816,4.395,-28.809,-12.695,999.512,0.000
1737552113.820,-11.719,-25.391,-20.996,-240.234,0.000
1737552113.824,-34.180,-16.113,-18.066,-1000.000,0.000
1737552113.828,-30.273,-16.602,-8.301,-366.699,0.000
1737552113.832,-40.039,-23.438,-2.441,827.148,0.000
1737552113.836,-50.293,-26.367,-10.254,996.582,0.000
1737552113.840,-49.316,-33.203,-3.906,-329.102,0.000
1737552113.844,-64.941,-34.668,4.395,-1000.000,0.000
1737552113.847,-54.199,-29.785,-6.836,-838.379,0.000
1737552113.851,-43.457,-33.203,-11.230,57.129,0.000
1737552113.855,-99.609,-38.086,15.137,994.629,0.000
1737552113.859,-152.832,-42.969,24.414,179.199,0.000
1737552113.863,-182.129,-46.875,14.648,-976.074,0.000
1737552113.867,-149.902,-45.410,13.672,-991.211,0.000
1737552113.871,-104.004,-48.340,12.695,-291.504,0.000
1737552113.875,-80.566,-46.875,11.719,881.836,0.000
1737552113.879,-74.219,-40.039,9.766,583.496,0.000
1737552113.883,-89.355,-42.480,0.977,-895.996,0.000
1737552113.886,-66.895,-47.852,-4.395,-934.082,0.000
1737552113.890,-30.762,-43.457,4.883,425.293,0.000
1737552113.894,-19.043,-32.227,-0.977,999.512,0.000
1737552113.898,-28.320,-27.832,-5.371,535.156,0.000
1737552113.902,-53.223,-32.227,-7.812,-819.824,0.000
1737552113.906,-45.898,-28.809,-7.812,-996.094,0.000
1737552113.910,-18.066,-19.531,-0.977,324.219,0.000
1737552113.914,-19.043,-20.020,0.488,999.512,0.000
1737552113.918,-18.555,-20.996,-6.836,848.633,0.000
1737552113.922,-19.043,-20.508,-14.648,-511.719,0.000
1737552113.926,-43.457,-24.414,-16.113,-1000.000,0.000
1737552113.929,-25.879,-25.879,-11.719,139.160,0.000
1737552113.933,11.719,-25.879,-14.648,989.746,0.000
1737552113.937,12.207,-15.137,-13.184,980.469,0.000
1737552113.941,1.465,-15.625,-4.883,-45.898,0.000
1737552113.945,2.441,-23.438,-23.926,-1000.000,0.000
1737552113.949,-12.207,-21.484,-29.297,-194.336,0.000
1737552113.953,-13.184,-21.484,-14.648,919.922,0.000
1737552113.957,-6.348,-23.438,-10.254,995.117,0.000
1737552113.961,-24.902,-30.762,-17.578,-215.820,0.000
1737552113.965,-57.617,-30.762,-24.414,-1000.000,0.000
1737552113.969,-44.922,-25.879,-22.461,-161.621,0.000
1737552113.972,-16.113,-27.832,-27.344,894.043,0.000
1737552113.976,2.441,-20.020,-31.738,999.512,0.000
1737552113.980,11.719,-9.766,-16.113,81.055,0.000
1737552113.984,-18.555,-15.137,-3.906,-1000.000,0.000
1737552113.988,-26.855,-22.461,-14.648,-282.715,0.000
1737552113.992,-4.395,-26.855,-24.902,875.488,0.000
1737552113.996,-11.719,-22.949,-20.508,999.512,0.000
1737552114.000,-13.672,-15.137,-20.020,164.062,0.000
1737552114.004,-8.789,-17.578,-25.879,-1000.000,0.000
1737552114.008,4.395,-18.066,-19.531,-427.734,0.000
1737552114.011,14.648,-13.672,-20.996,812.012,0.000
1737552114.015,13.672,-8.789,-18.066,999.512,0.000
1737552114.019,-2.441,-11.230,-14.160,405.762,0.000
1737552114.023,-25.391,-21.973,-18.555,-912.598,0.000
1737552114.027,-16.602,-23.438,-12.695,-810.059,0.000
1737552114.031,-3.418,-14.648,-14.648,592.285,0.000
1737552114.035,0.000,-10.742,-23.926,999.512,0.000
1737552114.039,1.953,-17.090,-24.902,529.297,0.000
1737552114.043,-38.574,-30.762,-18.555,-824.219,0.000
1737552114.047,-58.594,-27.344,-17.578,-961.426,0.000
1737552114.051,3.418,-15.625,-17.090,401.367,0.000
1737552114.054,38.086,-23.926,-35.156,999.512,0.000
1737552114.058,-19.531,-32.227,-33.691,542.480,0.000
1737552114.062,-70.801,-22.461,-11.719,-790.527,0.000
1737552114.066,-63.477,-15.137,-4.883,-1000.000,0.000
1737552114.070,-35.645,-15.625,-7.812,3.906,0.000
1737552114.074,-12.695,-15.625,-12.207,999.512,0.000
1737552114.078,-30.273,-15.625,-15.625,716.309,0.000
1737552114.082,-49.316,-22.949,-20.508,-689.941,0.000
1737552114.086,-24.414,-25.391,-23.926,-1000.000,0.000
1737552114.090,-14.160,-23.438,-23.926,-821.289,0.000
1737552114.094,-18.066,-17.578,-14.648,232.422,0.000
1737552114.097,0.000,-15.625,-18.555,853.027,0.000
1737552114.101,-5.371,-15.625,-27.832,-592.285,0.000
1737552114.105,-37.109,-19.531,-23.926,-1000.000,0.000
1737552114.109,-22.461,-20.508,-22.461,-69.336,0.000
1737552114.113,1.465,-15.625,-23.926,964.355,0.000
1737552114.117,-12.207,-14.160,-34.180,937.500,0.000
1737552114.121,-23.438,-22.949,-40.039,-514.160,0.000
1737552114.125,-9.766,-24.414,-22.949,-1000.000,0.000
1737552114.129,16.602,-23.438,-15.137,240.234,0.000
1737552114.133,-5.371,-24.414,-6.836,999.512,0.000
1737552114.136,-38.086,-20.508,-1.953,890.137,0.000
1737552114.140,-56.641,-21.973,-10.742,-347.168,0.000
1737552114.144,-44.922,-21.484,-26.367,-1000.000,0.000
1737552114.148,-27.344,-21.484,-20.020,-677.246,0.000
1737552114.152,-37.109,-20.508,-8.301,615.234,0.000
1737552114.156,-41.016,-13.672,-12.207,999.512,0.000
1737552114.160,-57.129,-14.648,-20.996,-179.688,0.000
1737552114.164,-58.105,-20.020,-24.902,-1000.000,0.000
1737552114.168,-42.480,-19.531,-20.020,-666.504,0.000
1737552114.172,-26.855,-17.578,-19.531,679.199,0.000
1737552114.176,-12.695,-16.113,-19.043,999.512,0.000
1737552114.179,-22.461,-24.902,-22.461,-145.020,0.000
1737552114.183,-37.598,-29.297,-29.785,-1000.000,0.000
1737552114.187,-15.625,-15.137,-36.133,-980.957,0.000
1737552114.191,9.277,-13.184,-34.180,-338.379,0.000
1737552114.195,3.906,-16.113,-23.438,896.973,0.000
1737552114.199,-16.602,-14.648,-8.301,604.492,0.000
1737552114.203,-31.250,-19.043,-6.348,-836.426,0.000
1737552114.207,-2.930,-16.113,-11.230,-1000.000,0.000
1737552114.211,20.508,-4.883,-10.742,0.488,0.000
1737552114.215,6.836,-6.836,-14.648,999.512,0.000
1737552114.219,-3.906,-8.789,-14.160,831.543,0.000
1737552114.222,-18.066,-20.020,-21.484,-659.180,0.000
1737552114.226,-5.859,-13.672,-34.180,-1000.000,0.000
1737552114.230,7.324,0.488,-23.438,291.016,0.000
1737552114.234,24.414,-9.277,-27.832,999.512,0.000
1737552114.238,36.621,-17.090,-29.297,807.617,0.000
1737552114.242,21.484,-20.508,-8.301,-664.062,0.000
1737552114.246,-7.812,-18.555,-13.672,-983.398,0.000
1737552114.250,-25.391,-15.137,-22.461,514.648,0.000
1737552114.254,-24.902,-21.973,-12.207,999.512,0.000
1737552114.258,-25.879,-21.484,-11.719,836.914,0.000
1737552114.261,-29.785,-16.113,-13.672,-531.738,0.000
1737552114.265,-34.180,-14.160,-16.113,-1000.000,0.000
1737552114.269,-23.926,-16.602,-32.715,179.688,0.000
1737552114.273,-32.227,-22.461,-36.133,999.512,0.000
1737552114.277,-17.090,-26.367,-18.066,907.715,0.000
1737552114.281,-31.738,-20.020,-15.137,-401.367,0.000
1737552114.285,-41.992,-11.230,-12.207,-1000.000,0.000
1737552114.289,-17.578,-8.789,-1.465,-211.426,0.000
1737552114.293,-18.066,-10.742,-4.883,886.719,0.000
1737552114.297,-15.137,-10.254,-8.301,972.656,0.000
1737552114.301,-20.996,-9.766,-9.277,-321.777,0.000
1737552114.304,-32.715,-11.719,-20.020,-1000.000,0.000
1737552114.308,-28.320,-11.230,-28.320,-551.270,0.000
1737552114.312,-14.648,-5.371,-22.949,690.430,0.000
1737552114.316,6.836,-4.395,-12.207,999.512,0.000
1737552114.320,1.465,-17.090,-2.441,39.551,0.000
1737552114.324,0.000,-15.137,-7.324,-1000.000,0.000
1737552114.328,5.371,-10.254,-12.695,-655.762,0.000
1737552114.332,17.578,-17.090,-16.113,648.438,0.000
1737552114.336,43.457,-15.137,-20.508,999.512,0.000
1737552114.340,32.227,-13.672,-20.020,480.957,0.000
1737552114.343,3.906,-22.949,-30.273,-834.961,0.000
1737552114.347,-7.324,-26.855,-39.062,-969.727,0.000
1737552114.351,-24.902,-23.438,-16.113,332.520,0.000
1737552114.355,-39.062,-20.508,1.953,999.512,0.000
1737552114.359,-34.180,-17.090,-1.465,530.273,0.000
1737552114.363,-42.480,-20.996,-9.277,-831.055,0.000
1737552114.367,-36.621,-30.273,-11.719,-951.660,0.000
1737552114.371,-37.598,-29.297,-11.719,395.508,0.000
1737552114.375,-32.715,-27.344,-19.531,999.512,0.000
1737552114.379,0.000,-23.926,-29.785,550.293,0.000
1737552114.383,-7.324,-25.879,-26.855,-833.008,0.000
1737552114.386,-10.254,-22.461,-20.508,-955.566,0.000
1737552114.390,-18.066,-13.184,-14.160,409.180,0.000
1737552114.394,-41.992,-14.160,-18.066,999.512,0.000
1737552114.398,-32.715,-11.719,-18.066,775.879,0.000
1737552114.402,-24.902,-14.648,-14.160,-674.316,0.000
1737552114.406,-29.297,-22.461,-15.137,-1000.000,0.000
1737552114.410,-20.508,-13.672,-13.184,440.918,0.000
1737552114.414,-3.418,-8.301,-15.625,999.512,0.000
1737552114.418,0.977,-16.602,-22.461,882.324,0.000
1737552114.422,-23.926,-21.973,-21.973,-378.418,0.000
1737552114.426,-41.016,-19.531,-8.789,-1000.000,0.000
1737552114.429,-27.344,-10.742,-8.301,-54.199,0.000
1737552114.433,-2.930,-6.836,-5.371,948.730,0.000
1737552114.437,14.160,-4.883,-3.906,993.164,0.000
1737552114.441,-10.742,-12.207,-10.742,-228.516,0.000
1737552114.445,0.977,-24.902,-11.719,-1000.000,0.000
1737552114.449,16.113,-20.996,-15.137,74.707,0.000
1737552114.453,8.301,-9.766,-20.996,999.512,0.000
1737552114.457,22.949,-4.395,-19.043,980.469,0.000
1737552114.461,-14.160,-14.160,-11.719,-59.570,0.000
1737552114.465,-17.090,-14.160,-2.441,-1000.000,0.000
1737552114.468,0.977,-6.836,-8.789,-348.145,0.000
1737552114.472,20.020,-10.254,-21.973,849.609,0.000
1737552114.476,1.953,-16.113,-24.902,999.512,0.000
1737552114.480,-47.852,-14.648,-28.809,-44.922,0.000
1737552114.484,-51.758,-9.766,-23.438,-1000.000,0.000
1737552114.488,-41.992,-11.719,-8.301,-463.867,0.000
1737552114.492,-12.207,-6.348,-14.160,768.066,0.000
1737552114.496,-1.953,-5.371,-19.043,999.512,0.000
1737552114.500,-25.391,-17.090,-11.719,325.195,0.000
1737552114.504,-35.156,-20.020,-10.254,-950.195,0.000
1737552114.508,-15.137,-16.113,-12.695,-633.789,0.000
1737552114.511,6.836,-11.719,-14.160,737.305,0.000
1737552114.515,0.000,-14.160,-28.320,999.512,0.000
1737552114.519,-17.090,-21.484,-32.227,171.875,0.000
1737552114.523,-22.461,-27.832,-22.949,-965.820,0.000
1737552114.527,-26.367,-26.367,-19.043,-947.266,0.000
1737552114.531,-33.691,-20.020,-20.508,187.012,0.000
1737552114.535,-15.137,-19.531,-15.137,999.512,0.000
1737552114.539,-7.324,-19.043,-9.277,577.637,0.000
1737552114.543,-14.648,-13.184,-19.043,-869.629,0.000
1737552114.547,0.977,-7.812,-23.926,-803.223,0.000
1737552114.551,20.996,-12.695,-22.461,641.113,0.000
1737552114.554,11.719,-9.277,-24.902,999.512,0.000
1737552114.558,-33.203,-0.977,-25.879,693.359,0.000
1737552114.562,-58.105,-12.207,-22.461,-723.145,0.000
1737552114.566,-23.438,-14.160,-23.438,-1000.000,0.000
1737552114.570,1.953,-9.277,-25.879,378.418,0.000
1737552114.574,-1.953,-11.719,-17.578,999.512,0.000
1737552114.578,-20.020,-15.137,-7.324,828.613,0.000
1737552114.582,-46.875,-20.508,-13.672,-538.086,0.000
1737552114.586,-40.527,-17.090,-20.508,-1000.000,0.000
1737552114.590,-27.344,-6.836,-20.020,61.035,0.000
1737552114.593,-31.738,-9.277,-17.090,984.375,0.000
1737552114.597,-32.227,-19.043,-11.719,977.539,0.000
1737552114.601,-38.086,-24.414,-17.090,-279.297,0.000
1737552114.605,-46.387,-29.785,-21.484,-1000.000,0.000
1737552114.609,-35.156,-23.438,-10.254,212.891,0.000
1737552114.613,-11.719,-8.789,-3.418,999.512,0.000
1737552114.617,-4.883,-9.766,-9.277,987.793,0.000
1737552114.621,-13.184,-14.160,-7.324,129.883,0.000
1737552114.625,-26.367,-12.207,-4.883,-955.078,0.000
1737552114.629,-4.395,-11.230,-14.160,113.770,0.000
1737552114.633,6.836,-16.113,-14.648,999.512,0.000
1737552114.636,5.859,-23.438,-20.020,966.797,0.000
1737552114.640,0.977,-26.855,-28.809,-3.906,0.000
1737552114.644,-30.273,-28.809,-18.555,-1000.000,0.000
1737552114.648,-15.137,-23.926,-13.672,-320.312,0.000
1737552114.652,-6.348,-18.066,-20.508,834.473,0.000
1737552114.656,-25.879,-10.742,-20.996,999.512,0.000
1737552114.660,-45.898,-11.230,-14.648,205.078,0.000
1737552114.664,-63.965,-18.066,-14.160,-1000.000,0.000
1737552114.668,-53.711,-21.973,-12.695,-830.566,0.000
1737552114.672,-30.762,-25.391,-13.184,494.629,0.000
1737552114.675,-15.625,-22.949,-16.113,999.512,0.000
1737552114.679,-25.391,-23.438,-10.742,412.598,0.000
1737552114.683,-38.574,-23.438,-10.254,-926.270,0.000
1737552114.687,-24.902,-18.066,-18.555,-831.055,0.000
1737552114.691,3.906,-2.441,-19.043,587.891,0.000
1737552114.695,17.090,-5.371,-20.996,999.512,0.000
1737552114.699,-13.184,-20.996,-27.344,552.246,0.000
1737552114.703,-48.340,-21.973,-21.973,-844.238,0.000
1737552114.707,-24.414,-15.625,-24.902,-893.555,0.000
1737552114.711,-0.488,-8.789,-27.344,556.152,0.000
1737552114.715,-5.371,-17.090,-25.879,999.512,0.000
1737552114.718,-15.137,-21.973,-18.066,658.691,0.000
1737552114.722,-39.062,-14.160,-10.254,-712.402,0.000
1737552114.726,-46.387,-14.648,-9.277,-1000.000,0.000
1737552114.730,-33.691,-18.066,-17.090,132.324,0.000
1737552114.734,-12.207,-13.184,-11.230,999.512,0.000
1737552114.738,4.395,-13.672,-7.324,823.730,0.000
1737552114.742,-20.996,-18.555,-10.742,-586.914,0.000
1737552114.746,-28.320,-16.602,-13.672,-1000.000,0.000
1737552114.750,-8.789,-13.672,-21.484,-137.207,0.000
1737552114.754,12.695,-18.066,-23.438,932.129,0.000
1737552114.758,-10.742,-21.973,-16.113,905.762,0.000
1737552114.761,-56.152,-19.043,-17.578,-530.762,0.000
1737552114.765,-36.621,-17.578,-14.160,-1000.000,0.000
1737552114.769,-20.508,-15.625,-12.695,-137.695,0.000
1737552114.773,-26.855,-11.230,-16.602,919.922,0.000
1737552114.777,-25.879,-12.695,-18.066,955.566,0.000
1737552114.781,-20.996,-18.555,-20.996,-387.695,0.000
1737552114.785,-33.691,-20.020,-29.297,-1000.000,0.000
1737552114.789,-26.855,-23.438,-25.879,-249.512,0.000
1737552114.793,0.488,-23.926,-17.090,838.867,0.000
1737552114.797,-18.555,-19.531,-14.648,999.512,0.000
1737552114.800,-37.598,-20.020,-16.113,-30.273,0.000
1737552114.804,-44.922,-27.344,-19.531,-1000.000,0.000
1737552114.808,-28.809,-20.508,-25.391,-678.711,0.000
1737552114.812,0.488,-10.742,-20.020,626.465,0.000
1737552114.816,-19.043,-24.902,-20.020,999.512,0.000
1737552114.820,-43.945,-25.879,-22.949,123.535,0.000
1737552114.824,-53.223,-14.648,-10.742,-1000.000,0.000
1737552114.828,-37.598,-8.301,0.977,-404.297,0.000
1737552114.832,-10.254,-5.371,-12.207,842.773,0.000
1737552114.836,-3.906,-10.742,-19.043,999.512,0.000
1737552114.840,-5.859,-9.766,-16.602,191.406,0.000
1737552114.843,-18.555,-22.949,-27.832,-1000.000,0.000
1737552114.847,-0.977,-26.855,-24.414,-814.941,0.000
1737552114.851,44.922,-6.348,-19.043,500.977,0.000
1737552114.855,25.391,-3.418,-23.438,999.512,0.000
1737552114.859,-12.695,-14.648,-21.484,375.000,0.000
1737552114.863,-57.129,-21.484,-18.066,-846.680,0.000
1737552114.867,-70.312,-25.391,-17.578,-1000.000,0.000
1737552114.871,-39.062,-32.227,-11.230,-222.656,0.000
1737552114.875,-21.484,-21.973,-11.719,941.406,0.000
1737552114.879,-35.645,-15.625,-25.879,696.289,0.000
1737552114.883,-44.922,-16.113,-33.203,-777.344,0.000
1737552114.886,-30.762,-10.254,-35.645,-1000.000,0.000
1737552114.890,-18.555,-14.160,-33.691,27.832,0.000
1737552114.894,-6.348,-5.859,-31.738,999.512,0.000
1737552114.898,-4.883,5.371,-40.039,779.785,0.000
1737552114.902,-16.113,7.812,-48.340,-717.285,0.000
1737552114.906,-14.160,7.812,-43.945,-1000.000,0.000
1737552114.910,8.789,11.719,-42.480,350.586,0.000
1737552114.914,29.785,19.043,-43.945,999.512,0.000
1737552114.918,23.438,13.184,-42.480,831.543,0.000
1737552114.922,-10.254,0.000,-46.875,-495.117,0.000
1737552114.925,-5.371,-6.348,-53.711,-1000.000,0.000
1737552114.929,10.254,-9.277,-54.688,-302.734,0.000
1737552114.933,23.926,-8.301,-42.969,824.707,0.000
1737552114.937,29.297,-4.395,-36.621,999.512,0.000
1737552114.941,14.160,-10.254,-42.969,-324.219,0.000
1737552114.945,26.367,-13.184,-44.434,-1000.000,0.000
1737552114.949,71.777,-2.441,-34.668,-27.344,0.000
1737552114.953,67.383,1.465,-34.668,961.426,0.000
1737552114.957,7.812,-8.789,-43.457,989.258,0.000
1737552114.961,-19.531,-17.090,-40.039,-140.137,0.000
1737552114.965,-35.156,-15.625,-30.273,-1000.000,0.000
1737552114.968,-41.504,-5.371,-24.902,-261.719,0.000
1737552114.972,-28.809,-1.465,-24.414,919.922,0.000
1737552114.976,1.953,-6.348,-27.832,947.266,0.000
1737552114.980,-13.184,-6.836,-26.367,-410.645,0.000
1737552114.984,-36.133,-13.184,-28.320,-1000.000,0.000
1737552114.988,-8.301,-13.184,-32.227,-889.160,0.000
1737552114.992,6.348,-10.254,-32.715,186.035,0.000
1737552114.996,1.465,-8.301,-27.832,999.512,0.000
1737552115.000,-17.090,-7.812,-28.809,181.152,0.000
1737552115.004,-25.391,-19.531,-28.809,-1000.000,0.000
1737552115.007,-24.414,-27.344,-21.973,-793.457,0.000
1737552115.011,-12.695,-14.160,-25.391,550.293,0.000
1737552115.015,8.789,2.441,-23.926,999.512,0.000
1737552115.019,15.137,-2.930,-16.113,355.469,0.000
1737552115.023,10.742,-12.207,-15.625,-902.344,0.000
1737552115.027,5.859,-13.184,-16.113,-973.145,0.000
1737552115.031,-10.742,-12.695,-20.996,277.832,0.000
1737552115.035,-0.488,-9.277,-20.508,999.512,0.000
1737552115.039,1.953,-15.137,-15.625,578.613,0.000
1737552115.043,-10.742,-31.738,-17.090,-817.383,0.000
1737552115.047,2.930,-11.230,-13.184,-965.332,0.000
1737552115.050,2.441,5.371,-10.254,401.855,0.000
1737552115.054,5.371,-6.348,-3.418,999.512,0.000
1737552115.058,-6.836,-8.789,1.465,790.039,0.000
1737552115.062,-20.020,-7.324,-3.418,-661.133,0.000
1737552115.066,-20.996,-3.906,-4.883,-992.188,0.000
1737552115.070,-14.160,-5.371,-6.836,466.309,0.000
1737552115.074,18.066,-12.695,-11.230,999.512,0.000
1737552115.078,23.438,-22.461,-13.184,693.359,0.000
1737552115.082,-9.766,-21.484,-16.602,-667.969,0.000
1737552115.086,-21.484,-15.137,-17.578,-1000.000,0.000
1737552115.090,-12.207,-15.137,-16.113,-110.352,0.000
1737552115.093,-15.137,-18.066,-12.695,941.406,0.000
1737552115.097,-25.391,-14.648,-15.625,917.969,0.000
1737552115.101,-27.344,-16.602,-20.020,-482.910,0.000
1737552115.105,-24.902,-20.020,-11.230,-1000.000,0.000
1737552115.109,-21.973,-23.438,-5.371,-192.871,0.000
1737552115.113,-2.441,-21.484,-14.160,908.691,0.000
1737552115.117,5.859,-18.555,-17.090,968.262,0.000
1737552115.121,-14.160,-17.578,-19.043,-390.625,0.000
1737552115.125,-20.020,-10.254,-20.020,-1000.000,0.000
1737552115.129,-14.648,-6.348,-19.531,-161.133,0.000
1737552115.132,-6.348,-12.207,-19.531,914.551,0.000
1737552115.136,1.465,-13.184,-23.438,978.516,0.000
1737552115.140,-11.230,-16.602,-28.809,-245.605,0.000
1737552115.144,-25.879,-18.555,-19.043,-1000.000,0.000
1737552115.148,-7.812,-18.555,-12.695,-585.449,0.000
1737552115.152,19.531,-12.207,-14.648,661.621,0.000
1737552115.156,3.418,-11.719,-6.836,999.512,0.000
1737552115.160,-14.648,-13.672,-6.348,187.500,0.000
1737552115.164,-23.438,-13.672,-17.090,-1000.000,0.000
1737552115.168,-13.184,-11.719,-15.625,-780.762,0.000
1737552115.172,3.418,-13.672,-9.277,593.262,0.000
1737552115.175,10.742,-22.461,-9.277,999.512,0.000
1737552115.179,16.113,-16.602,-3.906,321.289,0.000
1737552115.183,-0.977,-10.254,-11.719,-896.973,0.000
1737552115.187,-28.320,-16.602,-18.555,-978.027,0.000
1737552115.191,-41.016,-18.066,-14.648,138.184,0.000
1737552115.195,-37.109,-21.484,-20.508,999.512,0.000
1737552115.199,-36.621,-24.902,-16.602,283.691,0.000
1737552115.203,-51.270,-17.090,-10.742,-931.641,0.000
1737552115.207,-38.574,-17.578,-19.043,-1000.000,0.000
1737552115.211,-8.789,-16.113,-20.020,-157.227,0.000
1737552115.215,9.277,-4.883,-15.625,962.891,0.000
1737552115.218,-5.859,-9.766,-20.996,645.508,0.000
1737552115.222,-31.738,-21.484,-23.438,-770.508,0.000
1737552115.226,-24.902,-17.578,-20.996,-1000.000,0.000
1737552115.230,-9.766,-9.277,-17.090,-233.887,0.000
1737552115.234,-28.320,-14.648,-11.230,941.406,0.000
1737552115.238,-56.152,-19.043,-5.371,748.047,0.000
1737552115.242,-60.059,-15.137,-15.625,-734.375,0.000
1737552115.246,-64.941,-8.789,-21.484,-1000.000,0.000
1737552115.250,-75.684,-6.836,-19.043,-35.645,0.000
1737552115.254,-62.500,-11.719,-21.484,999.512,0.000
1737552115.257,-55.176,-23.438,-15.137,791.504,0.000
1737552115.261,-75.684,-31.738,-11.719,-623.535,0.000
1737552115.265,-83.984,-20.020,-25.391,-1000.000,0.000
1737552115.269,-60.059,-18.066,-26.367,-496.582,0.000
1737552115.273,-43.945,-20.996,-16.113,728.027,0.000
1737552115.277,-53.223,-17.578,-13.672,999.512,0.000
1737552115.281,-62.012,-24.414,-14.648,-396.484,0.000
1737552115.285,-48.828,-19.043,-16.113,-1000.000,0.000
1737552115.289,-43.945,-14.160,-24.902,-159.180,0.000
1737552115.293,-30.273,-17.578,-30.762,922.363,0.000
1737552115.297,-24.414,-20.020,-24.414,973.633,0.000
1737552115.300,-41.992,-25.879,-23.926,-257.324,0.000
1737552115.304,-57.129,-29.785,-24.902,-1000.000,0.000
1737552115.308,-50.293,-29.297,-18.066,-723.145,0.000
1737552115.312,-32.715,-20.020,-14.160,565.430,0.000
1737552115.316,-36.621,-7.812,-16.113,999.512,0.000
1737552115.320,-51.758,-14.160,-29.297,26.855,0.000
1737552115.324,-46.875,-25.391,-32.715,-1000.000,0.000
1737552115.328,-30.762,-27.344,-23.926,-696.289,0.000
1737552115.332,-24.902,-16.602,-20.020,656.738,0.000
1737552115.336,-13.672,-12.695,-17.090,999.512,0.000
1737552115.339,-18.555,-16.113,-17.090,136.719,0.000
1737552115.343,-50.293,-18.066,-19.531,-989.746,0.000
1737552115.347,-48.340,-25.391,-19.043,-901.855,0.000
1737552115.351,-32.715,-29.297,-21.484,288.574,0.000
1737552115.355,-9.766,-24.902,-24.414,999.512,0.000
1737552115.359,11.230,-21.973,-26.367,542.969,0.000
1737552115.363,-2.441,-12.207,-20.996,-846.191,0.000
1737552115.367,-40.039,-10.254,-19.043,-934.570,0.000
1737552115.371,-43.457,-10.254,-23.926,440.430,0.000
1737552115.375,-24.902,-5.859,-26.367,999.512,0.000
1737552115.379,-25.879,-8.789,-20.508,585.449,0.000
1737552115.382,-26.367,-19.531,-13.184,-724.609,0.000
1737552115.386,-10.254,-27.344,-10.254,-1000.000,0.000
1737552115.390,-4.883,-17.090,-14.648,-259.277,0.000
1737552115.394,-4.395,-7.324,-17.578,928.223,0.000
1737552115.398,-15.137,-17.090,-14.648,804.688,0.000
1737552115.402,-29.297,-28.809,-17.090,-678.223,0.000
1737552115.406,-25.879,-24.902,-17.578,-1000.000,0.000
1737552115.410,-15.137,-23.926,-15.137,-103.516,0.000
1737552115.414,-10.254,-26.367,-20.996,946.777,0.000
1737552115.418,-8.789,-24.414,-26.367,908.203,0.000
1737552115.422,-12.695,-29.297,-19.043,-521.484,0.000
1737552115.425,-3.906,-21.973,-13.672,-1000.000,0.000
1737552115.429,29.297,-7.324,-8.301,20.996,0.000
1737552115.433,23.926,-3.906,-18.555,963.867,0.000
1737552115.437,-14.648,-7.812,-37.598,982.910,0.000
1737552115.441,-46.387,-20.996,-18.066,-62.012,0.000
1737552115.445,-51.270,-26.855,-0.977,-1000.000,0.000
1737552115.449,-41.992,-20.508,-2.441,-595.703,0.000
1737552115.453,-12.207,-15.137,-3.418,701.660,0.000
1737552115.457,-1.465,-19.043,-20.996,999.512,0.000
1737552115.461,-14.648,-16.113,-21.973,-157.715,0.000
1737552115.464,-29.785,-18.555,-22.461,-1000.000,0.000
1737552115.468,-32.227,-23.926,-30.273,-568.848,0.000
1737552115.472,-26.367,-16.602,-26.855,701.172,0.000
1737552115.476,-22.949,-16.113,-28.809,999.512,0.000
1737552115.480,-26.367,-25.391,-26.855,114.258,0.000
1737552115.484,-36.133,-28.809,-21.973,-1000.000,0.000
1737552115.488,-24.902,-20.996,-14.160,-648.926,0.000
1737552115.492,-33.203,-17.578,-14.648,699.707,0.000
1737552115.496,-28.809,-20.508,-25.391,999.512,0.000
1737552115.500,8.789,-22.461,-30.762,167.969,0.000
1737552115.504,-2.930,-22.949,-30.273,-955.566,0.000
1737552115.507,-10.742,-16.602,-28.809,-969.727,0.000
1737552115.511,4.395,-15.137,-26.855,45.410,0.000
1737552115.515,-28.320,-14.160,-17.090,999.512,0.000
1737552115.519,-41.992,-11.230,-9.277,448.242,0.000
1737552115.523,-40.527,-17.578,-4.883,-892.090,0.000
1737552115.527,-46.387,-14.160,-9.277,-1000.000,0.000
1737552115.531,-35.156,-7.812,-18.555,211.426,0.000
1737552115.535,-19.043,-18.555,-16.602,999.512,0.000
1737552115.539,-5.859,-23.438,-19.043,575.195,0.000
1737552115.543,-8.789,-12.207,-17.578,-812.988,0.000
1737552115.547,-36.621,-6.348,-2.930,-976.562,0.000
1737552115.550,-34.668,-8.301,-1.953,308.594,0.000
1737552115.554,-27.344,-19.043,-11.719,999.512,0.000
1737552115.558,-37.598,-26.367,-12.207,669.434,0.000
1737552115.562,-44.922,-32.715,0.488,-728.027,0.000
1737552115.566,-51.758,-45.898,9.766,-1000.000,0.000
1737552115.570,-36.133,-44.922,7.812,129.395,0.000
1737552115.574,-19.043,-38.086,7.812,999.512,0.000
1737552115.578,-32.227,-36.133,11.719,917.480,0.000
1737552115.582,-43.457,-37.109,9.766,-394.531,0.000
1737552115.586,-59.082,-41.504,5.371,-1000.000,0.000
1737552115.589,-60.547,-37.598,0.488,-167.480,0.000
1737552115.593,-37.109,-36.621,0.977,912.598,0.000
1737552115.597,-14.648,-35.645,0.488,969.238,0.000
1737552115.601,-27.344,-36.133,0.488,-352.539,0.000
1737552115.605,-50.293,-39.551,-0.488,-1000.000,0.000
1737552115.609,-34.668,-42.480,-6.348,-229.492,0.000
1737552115.613,-25.391,-34.668,-9.277,875.000,0.000
1737552115.617,-9.766,-21.973,-6.348,996.094,0.000
1737552115.621,-7.812,-27.344,-7.812,-250.000,0.000
1737552115.625,-26.367,-30.273,-9.766,-1000.000,0.000
1737552115.629,-14.648,-35.645,-5.371,-425.293,0.000
1737552115.632,-16.113,-36.621,-0.977,754.395,0.000
1737552115.636,-1.465,-19.531,4.883,999.512,0.000
1737552115.640,-11.230,-13.184,2.930,70.801,0.000
1737552115.644,-34.180,-28.320,-4.395,-1000.000,0.000
1737552115.648,-13.184,-37.598,-8.301,-638.184,0.000
1737552115.652,14.160,-18.066,-8.301,685.547,0.000
1737552115.656,3.418,-5.371,-10.254,999.512,0.000
1737552115.660,-17.578,-10.254,-18.555,187.500,0.000
1737552115.664,-21.973,-9.766,-27.344,-919.434,0.000
1737552115.668,-16.602,-5.371,-31.738,-1000.000,0.000
1737552115.671,1.953,-1.953,-33.203,-93.750,0.000
1737552115.675,22.949,2.441,-31.250,993.164,0.000
1737552115.679,20.020,-2.930,-36.621,390.137,0.000
1737552115.683,3.906,-9.766,-48.340,-965.820,0.000
1737552115.687,0.488,-7.324,-46.875,-899.902,0.000
1737552115.691,15.625,-11.230,-41.504,408.203,0.000
1737552115.695,18.066,-10.254,-32.715,999.512,0.000
1737552115.699,3.418,-2.441,-27.832,676.758,0.000
1737552115.703,0.488,-4.883,-27.344,-701.172,0.000
1737552115.707,15.625,-7.812,-32.715,-1000.000,0.000
1737552115.711,50.293,-6.836,-39.551,66.895,0.000
1737552115.714,46.387,-11.719,-36.133,999.512,0.000
1737552115.718,35.156,-6.836,-27.832,749.512,0.000
1737552115.722,30.762,-2.930,-17.578,-637.695,0.000
1737552115.726,3.906,-17.578,-9.766,-1000.000,0.000
1737552115.730,3.418,-13.672,-12.207,-594.238,0.000
1737552115.734,19.531,-5.859,-16.602,624.023,0.000
1737552115.738,13.184,-13.184,-14.648,920.410,0.000
1737552115.742,-2.441,-24.414,-16.113,-584.473,0.000
1737552115.746,-17.090,-15.625,-11.230,-1000.000,0.000
1737552115.750,-10.742,-3.906,-10.742,-273.438,0.000
1737552115.754,17.090,-7.324,-15.137,892.090,0.000
1737552115.757,13.672,-3.418,-16.602,895.996,0.000
1737552115.761,-9.766,-13.184,-27.832,-572.754,0.000
1737552115.765,-19.043,-23.926,-23.926,-1000.000,0.000
1737552115.769,-19.531,-19.531,-12.695,-218.262,0.000
1737552115.773,-0.488,-13.672,-8.789,896.484,0.000
1737552115.777,17.578,-10.254,-13.672,944.336,0.000
1737552115.781,13.184,-13.672,-30.762,-421.387,0.000
1737552115.785,7.324,-9.277,-29.297,-1000.000,0.000
1737552115.789,4.395,-8.789,-22.949,-667.480,0.000
1737552115.793,13.672,-13.184,-20.020,558.105,0.000
1737552115.796,24.414,-14.648,-14.648,999.512,0.000
1737552115.800,16.113,-23.438,-15.137,-118.164,0.000
1737552115.804,-2.930,-33.203,-11.719,-1000.000,0.000
1737552115.808,1.465,-21.973,-17.578,-449.707,0.000
1737552115.812,2.441,-10.254,-19.531,745.605,0.000
1737552115.816,-20.996,-14.160,-7.324,999.512,0.000
1737552115.820,-42.480,-25.879,-11.719,227.539,0.000
1737552115.824,-37.109,-27.832,-18.066,-981.445,0.000
1737552115.828,-31.250,-16.113,-18.066,-876.953,0.000
1737552115.832,-1.953,-11.719,-14.648,455.566,0.000
1737552115.836,16.113,-15.625,-17.090,999.512,0.000
1737552115.839,-6.348,-14.160,-15.137,389.160,0.000
1737552115.843,-22.461,-20.020,-9.277,-929.688,0.000
1737552115.847,-7.812,-18.555,-7.324,-792.480,0.000
1737552115.851,4.883,-13.672,-9.766,604.980,0.000
1737552115.855,-5.371,-14.160,-15.137,999.512,0.000
1737552115.859,-2.441,-12.695,-15.625,555.176,0.000
1737552115.863,-3.906,-18.066,-16.113,-729.980,0.000
1737552115.867,-20.508,-26.855,-28.809,-1000.000,0.000
1737552115.871,6.348,-18.066,-29.297,-430.176,0.000
1737552115.875,41.504,-14.160,-17.090,780.762,0.000
1737552115.879,22.461,-15.625,-17.090,766.113,0.000
1737552115.882,-17.578,-16.602,-15.625,-746.582,0.000
1737552115.886,-28.320,-18.555,-12.695,-1000.000,0.000
1737552115.890,2.930,-8.301,-12.695,-89.355,0.000
1737552115.894,-5.371,-9.277,-11.719,982.422,0.000
1737552115.898,-41.504,-25.391,-10.254,749.023,0.000
1737552115.902,-41.992,-28.809,-8.789,-701.172,0.000
1737552115.906,-33.691,-13.672,-8.789,-1000.000,0.000
1737552115.910,-13.672,-10.742,-10.254,-139.648,0.000
1737552115.914,1.953,-22.949,-18.066,957.520,0.000
1737552115.918,-22.461,-19.531,-23.926,834.473,0.000
1737552115.921,-50.781,-10.742,-19.531,-594.727,0.000
1737552115.925,-44.922,-7.324,-16.602,-1000.000,0.000
1737552115.929,-13.672,-1.465,-18.066,-338.379,0.000
1737552115.933,-0.977,-2.441,-22.461,809.082,0.000
1737552115.937,-5.859,-3.418,-34.180,999.512,0.000
1737552115.941,-14.648,0.488,-39.062,-235.352,0.000
1737552115.945,-36.621,-15.625,-23.926,-1000.000,0.000
1737552115.949,-32.227,-26.855,-11.719,-398.438,0.000
1737552115.953,-7.324,-12.207,-15.625,776.367,0.000
1737552115.957,-1.465,-7.324,-19.043,999.512,0.000
1737552115.961,6.348,-8.789,-21.973,37.109,0.000
1737552115.964,7.812,-12.695,-18.066,-1000.000,0.000
1737552115.968,-2.441,-21.973,-14.160,-455.078,0.000
1737552115.972,-2.441,-20.020,-16.602,777.344,0.000
1737552115.976,-9.766,-11.230,-20.996,999.512,0.000
1737552115.980,-17.090,-13.184,-19.043,392.578,0.000
1737552115.984,-18.066,-16.602,-20.508,-934.082,0.000
1737552115.988,-26.367,-8.301,-23.438,-576.172,0.000
1737552115.992,-16.602,-3.418,-11.719,768.555,0.000
1737552115.996,-13.672,-6.836,-6.836,999.512,0.000
1737552116.000,-24.414,-10.254,-11.230,518.066,0.000
1737552116.003,-14.648,-11.719,-16.602,-810.547,0.000
1737552116.007,-3.418,-8.789,-22.949,-927.246,0.000
1737552116.011,-6.348,-16.113,-21.973,299.805,0.000
1737552116.015,-8.789,-22.949,-23.926,999.512,0.000
1737552116.019,-24.414,-16.113,-23.926,420.898,0.000
1737552116.023,-31.250,-17.578,-26.367,-879.883,0.000
1737552116.027,-8.789,-16.602,-29.785,-1000.000,0.000
1737552116.031,-1.465,-11.719,-27.832,134.766,0.000
1737552116.035,-7.324,-5.859,-31.250,999.512,0.000
1737552116.039,-16.113,-4.883,-26.367,756.836,0.000
1737552116.043,-25.879,-14.648,-23.926,-673.828,0.000
1737552116.046,-20.996,-12.695,-31.738,-1000.000,0.000
1737552116.050,-39.062,-14.648,-27.832,52.246,0.000
1737552116.054,-22.949,-19.531,-12.207,999.512,0.000
1737552116.058,-18.066,-20.996,-10.742,743.164,0.000
1737552116.062,-44.922,-19.531,-15.137,-656.250,0.000
1737552116.066,-37.109,-20.996,-17.578,-1000.000,0.000
1737552116.070,-18.066,-16.113,-21.484,-453.125,0.000
1737552116.074,2.930,-5.371,-24.414,800.293,0.000
1737552116.078,5.859,-9.277,-16.602,891.113,0.000
1737552116.082,-9.277,-18.066,-12.695,-616.699,0.000
1737552116.086,-33.203,-18.066,-18.066,-1000.000,0.000
1737552116.089,-20.020,-9.277,-18.555,-290.527,0.000
1737552116.093,4.883,-4.883,-20.508,871.582,0.000
1737552116.097,-16.113,-10.742,-16.113,944.824,0.000
1737552116.101,-33.691,-20.508,-20.508,-458.008,0.000
1737552116.105,-21.484,-28.320,-30.273,-1000.000,0.000
1737552116.109,-2.441,-22.461,-30.273,-715.332,0.000
1737552116.113,6.348,-10.254,-14.160,450.195,0.000
1737552116.117,-19.531,-15.625,-2.441,999.512,0.000
1737552116.121,-36.133,-21.973,-5.859,-3.418,0.000
1737552116.125,-30.762,-23.926,-14.648,-1000.000,0.000
1737552116.128,-20.996,-26.367,-20.508,-711.426,0.000
1737552116.132,-16.113,-18.066,-13.184,580.078,0.000
1737552116.136,-17.090,-12.695,-11.719,999.512,0.000
1737552116.140,-19.531,-21.973,-29.297,291.016,0.000
1737552116.144,-10.742,-19.531,-31.250,-969.727,0.000
1737552116.148,-10.742,-19.531,-15.137,-620.117,0.000
1737552116.152,-18.066,-25.879,-7.812,744.629,0.000
1737552116.156,-39.062,-29.297,-8.301,999.512,0.000
1737552116.160,-52.734,-25.391,-8.301,270.020,0.000
1737552116.164,-58.105,-20.020,-11.719,-898.926,0.000
1737552116.168,-60.547,-19.531,-23.926,-1000.000,0.000
1737552116.171,-37.109,-18.555,-27.344,-42.969,0.000
1737552116.175,-7.812,-17.090,-21.973,999.512,0.000
1737552116.179,-4.883,-18.555,-21.973,642.090,0.000
1737552116.183,-28.809,-23.926,-24.414,-857.422,0.000
1737552116.187,-13.184,-20.996,-24.902,-747.559,0.000
1737552116.191,23.926,-12.207,-25.879,686.035,0.000
1737552116.195,33.203,-6.348,-19.043,999.512,0.000
1737552116.199,-0.488,-12.695,-18.066,467.773,0.000
1737552116.203,-39.062,-23.438,-20.996,-800.781,0.000
1737552116.207,-40.039,-15.137,-20.020,-1000.000,0.000
1737552116.211,-22.461,-10.254,-16.602,-126.953,0.000
1737552116.214,-1.953,-17.578,-8.301,976.562,0.000
1737552116.218,-3.418,-17.578,-9.766,791.016,0.000
1737552116.222,-31.250,-15.625,-20.996,-640.137,0.000
1737552116.226,-41.992,-20.508,-22.461,-1000.000,0.000
1737552116.230,-22.461,-14.648,-14.160,-377.441,0.000
1737552116.234,-2.441,0.000,-12.207,824.219,0.000
1737552116.238,-6.836,-1.953,-15.137,985.840,0.000
1737552116.242,-27.832,-16.602,-20.508,-408.203,0.000
1737552116.246,-33.691,-19.043,-17.578,-1000.000,0.000
1737552116.250,-33.203,-16.602,-22.949,-660.156,0.000
1737552116.253,-30.762,-16.602,-30.273,346.680,0.000
1737552116.257,-24.902,-16.602,-11.230,917.480,0.000
1737552116.261,-36.621,-23.438,-0.977,-419.434,0.000
1737552116.265,-32.715,-27.832,-14.160,-1000.000,0.000
1737552116.269,4.883,-15.137,-11.230,-436.523,0.000
1737552116.273,20.508,-10.254,-12.695,742.188,0.000
1737552116.277,19.043,-15.137,-16.602,999.512,0.000
1737552116.281,-1.465,-16.113,-13.184,48.828,0.000
1737552116.285,-39.062,-16.602,-22.949,-1000.000,0.000
1737552116.289,-41.504,-20.020,-27.832,-780.762,0.000
1737552116.293,-31.250,-22.949,-27.832,466.797,0.000
1737552116.296,-41.992,-22.949,-23.438,999.512,0.000
1737552116.300,-58.105,-21.973,-27.832,-33.203,0.000
1737552116.304,-51.270,-19.043,-34.180,-1000.000,0.000
1737552116.308,-33.691,-14.648,-14.160,-452.148,0.000
1737552116.312,-10.742,-13.672,-8.301,752.930,0.000
1737552116.316,4.883,-10.742,-15.137,999.512,0.000
1737552116.320,-11.719,-7.324,-11.230,252.441,0.000
1737552116.324,-31.738,-9.766,-16.602,-987.305,0.000
1737552116.328,-29.785,-19.531,-22.461,-817.871,0.000
1737552116.332,-26.367,-14.648,-11.719,577.637,0.000
1737552116.335,-17.090,-6.836,-10.742,999.512,0.000
1737552116.339,-14.160,-10.742,-18.555,250.000,0.000
1737552116.343,-28.320,-15.625,-19.043,-937.012,0.000
1737552116.347,-26.855,-17.578,-22.461,-933.105,0.000
1737552116.351,-9.766,-16.113,-17.578,215.820,0.000
1737552116.355,3.906,-14.160,-7.324,999.512,0.000
1737552116.359,2.930,-22.461,-16.602,517.090,0.000
1737552116.363,-20.996,-32.227,-28.320,-782.227,0.000
1737552116.367,-36.621,-19.531,-18.066,-1000.000,0.000
1737552116.371,-16.602,-13.184,-16.602,-334.961,0.000
1737552116.375,-5.859,-9.766,-19.531,889.648,0.000
1737552116.378,-9.766,-11.230,-21.973,760.254,0.000
1737552116.382,-12.207,-19.531,-31.250,-720.703,0.000
1737552116.386,-3.418,-16.113,-30.273,-1000.000,0.000
1737552116.390,-13.184,-7.812,-17.578,-297.852,0.000
1737552116.394,-39.551,-7.812,-12.695,894.531,0.000
1737552116.398,-41.016,-11.230,-25.391,833.984,0.000
1737552116.402,-31.250,-11.230,-28.320,-632.324,0.000
1737552116.406,-30.762,-20.996,-20.020,-1000.000,0.000
1737552116.410,-51.270,-24.902,-28.809,-481.934,0.000
1737552116.414,-55.664,-24.414,-24.414,740.234,0.000
1737552116.418,-47.363,-28.320,-17.090,985.840,0.000
1737552116.421,-53.711,-17.578,-20.996,-399.902,0.000
1737552116.425,-55.664,-15.625,-18.555,-1000.000,0.000
1737552116.429,-47.363,-21.484,-14.648,-430.176,0.000
1737552116.433,-39.551,-18.066,-14.648,771.973,0.000
1737552116.437,-26.367,-17.578,-11.719,999.512,0.000
1737552116.441,-37.598,-23.438,-4.883,-241.699,0.000
1737552116.445,-40.039,-23.438,-7.812,-1000.000,0.000
1737552116.449,-6.836,-18.555,-18.555,-426.270,0.000
1737552116.453,-7.324,-12.695,-15.625,770.996,0.000
1737552116.457,-30.762,-16.602,-9.766,999.512,0.000
1737552116.460,-36.621,-19.531,-13.672,-162.109,0.000
1737552116.464,-35.156,-15.137,-10.742,-1000.000,0.000
1737552116.468,-27.344,-11.719,-14.160,-591.797,0.000
1737552116.472,-8.301,-12.695,-16.602,685.547,0.000
1737552116.476,-9.277,-19.043,-9.766,999.512,0.000
1737552116.480,-19.043,-22.461,-8.789,78.125,0.000
1737552116.484,-28.320,-26.367,-10.254,-1000.000,0.000
1737552116.488,-12.695,-24.414,-6.348,-750.977,0.000
1737552116.492,32.227,-15.625,-10.254,597.168,0.000
1737552116.496,43.457,-14.160,-16.602,999.512,0.000
1737552116.500,6.348,-16.113,-11.230,399.902,0.000
1737552116.503,-58.105,-19.043,-17.090,-815.430,0.000
1737552116.507,-81.055,-23.926,-19.531,-1000.000,0.000
1737552116.511,-57.129,-30.273,-6.348,-203.613,0.000
1737552116.515,-35.156,-27.344,-3.906,940.430,0.000
1737552116.519,-25.391,-20.508,-12.695,711.914,0.000
1737552116.523,-37.109,-22.949,-18.555,-727.539,0.000
1737552116.527,-36.133,-28.320,-13.672,-1000.000,0.000
1737552116.531,-22.461,-24.414,-13.184,-284.180,0.000
1737552116.535,-11.230,-17.578,-16.113,872.559,0.000
1737552116.539,1.465,-10.254,-18.066,941.406,0.000
1737552116.543,-1.465,-11.719,-20.996,-602.539,0.000
1737552116.546,-4.883,-20.020,-23.926,-1000.000,0.000
1737552116.550,13.184,-16.602,-29.297,397.461,0.000
1737552116.554,18.066,-16.602,-30.762,999.512,0.000
1737552116.558,18.555,-16.602,-22.949,759.277,0.000
1737552116.562,-17.090,-21.973,-26.855,-622.070,0.000
1737552116.566,-24.414,-15.137,-26.855,-1000.000,0.000
1737552116.570,9.766,-4.395,-17.578,-112.793,0.000
1737552116.574,10.742,-10.742,-16.113,960.449,0.000
1737552116.578,-9.766,-13.184,-15.137,800.781,0.000
1737552116.582,-52.734,-20.020,-16.602,-637.695,0.000
1737552116.585,-61.035,-23.438,-17.090,-1000.000,0.000
1737552116.589,-44.434,-17.578,-9.277,-333.984,0.000
1737552116.593,-35.156,-14.160,-8.301,839.355,0.000
1737552116.597,-45.898,-22.949,-5.859,988.281,0.000
1737552116.601,-52.246,-22.949,-4.883,-377.441,0.000
1737552116.605,-54.199,-20.508,-9.277,-1000.000,0.000
1737552116.609,-42.480,-21.973,-8.789,-268.555,0.000
1737552116.613,-20.996,-12.207,-8.301,865.234,0.000
1737552116.617,-26.367,-14.648,-11.230,999.512,0.000
1737552116.621,-39.062,-16.602,-18.555,-131.348,0.000
1737552116.625,-55.176,-19.043,-27.344,-1000.000,0.000
1737552116.628,-47.852,-22.461,-23.926,-725.098,0.000
1737552116.632,-29.297,-20.020,-16.113,578.613,0.000
1737552116.636,-16.602,-17.090,-14.648,999.512,0.000
1737552116.640,-20.020,-16.113,-17.090,21.484,0.000
1737552116.644,-31.250,-17.578,-21.484,-1000.000,0.000
1737552116.648,-14.648,-14.160,-23.926,-613.770,0.000
1737552116.652,20.020,-15.137,-22.949,695.801,0.000
1737552116.656,31.738,-10.742,-19.531,999.512,0.000
1737552116.660,11.230,-10.742,-20.020,378.906,0.000
1737552116.664,-32.227,-23.438,-20.996,-860.352,0.000
1737552116.668,-48.828,-25.391,-21.484,-988.281,0.000
1737552116.671,-47.363,-26.855,-20.508,110.352,0.000
1737552116.675,-33.203,-16.113,-18.066,999.512,0.000
1737552116.679,-27.832,-10.254,-22.461,484.375,0.000
1737552116.683,-44.922,-16.113,-25.391,-886.719,0.000
1737552116.687,-36.133,-16.113,-19.531,-966.797,0.000
1737552116.691,-10.742,-14.648,-17.090,318.848,0.000
1737552116.695,-1.953,-15.137,-19.531,999.512,0.000
1737552116.699,-3.418,-18.066,-21.484,598.633,0.000
1737552116.703,-2.930,-24.414,-24.414,-780.273,0.000
1737552116.707,-24.414,-29.785,-23.926,-1000.000,0.000
1737552116.710,-49.805,-26.367,-19.043,216.309,0.000
1737552116.714,-47.363,-25.391,-11.230,999.512,0.000
1737552116.718,-38.086,-28.809,-8.301,812.500,0.000
1737552116.722,-50.781,-37.109,-9.766,-612.793,0.000
1737552116.726,-51.758,-35.645,-3.418,-1000.000,0.000
1737552116.730,-37.109,-31.250,6.348,127.930,0.000
1737552116.734,-32.715,-33.691,1.465,999.512,0.000
1737552116.738,-37.109,-28.809,-6.348,876.953,0.000
1737552116.742,-50.293,-25.879,-3.906,-517.090,0.000
1737552116.746,-37.598,-31.738,-3.906,-1000.000,0.000
1737552116.750,-13.184,-33.203,-18.555,29.297,0.000
1737552116.753,2.441,-29.297,-14.160,996.582,0.000
1737552116.757,-7.324,-31.250,-3.906,916.016,0.000
1737552116.761,-58.594,-32.715,-5.859,-395.020,0.000
1737552116.765,-99.121,-35.645,-13.184,-1000.000,0.000
1737552116.769,-63.477,-30.762,-21.973,-424.805,0.000
1737552116.773,-20.508,-25.391,-14.648,780.762,0.000
1737552116.777,-15.625,-19.531,-4.395,999.512,0.000
1737552116.781,-32.715,-20.020,-11.719,-219.727,0.000
1737552116.785,-40.527,-27.344,-25.391,-1000.000,0.000
1737552116.789,-30.273,-21.484,-24.902,-666.504,0.000
1737552116.792,-17.578,-19.531,-13.184,601.074,0.000
1737552116.796,-6.348,-16.602,-3.906,999.512,0.000
1737552116.800,-12.695,-23.438,-10.742,49.805,0.000
1737552116.804,-22.461,-26.367,-13.672,-1000.000,0.000
1737552116.808,-20.508,-17.578,-8.789,-668.457,0.000
1737552116.812,-33.691,-17.090,-12.207,636.719,0.000
1737552116.816,-32.227,-21.973,-17.578,999.512,0.000
1737552116.820,-21.484,-31.738,-20.020,255.371,0.000
1737552116.824,-31.250,-31.738,-18.555,-976.074,0.000
1737552116.828,-24.902,-17.578,-11.230,-823.242,0.000
1737552116.832,-12.695,-18.066,-14.160,548.828,0.000
1737552116.835,-19.531,-20.020,-11.719,999.512,0.000
1737552116.839,-23.438,-17.578,-3.906,522.949,0.000
1737552116.843,-24.414,-17.578,-14.648,-838.867,0.000
1737552116.847,-22.461,-17.578,-20.508,-855.469,0.000
1737552116.851,-1.465,-13.184,-20.020,534.668,0.000
1737552116.855,38.086,-15.625,-19.043,999.512,0.000
1737552116.859,20.020,-23.926,-17.090,659.668,0.000
1737552116.863,-13.672,-17.578,-21.973,-712.891,0.000
1737552116.867,-45.410,-17.090,-24.414,-1000.000,0.000
1737552116.871,-63.477,-17.578,-21.973,-6.348,0.000
1737552116.875,-55.664,-12.695,-20.996,993.652,0.000
1737552116.878,-49.805,-15.137,-18.066,776.367,0.000
1737552116.882,-55.176,-28.320,-21.973,-710.449,0.000
1737552116.886,-45.410,-32.227,-19.043,-1000.000,0.000
1737552116.890,-21.973,-18.066,-11.230,239.746,0.000
1737552116.894,-7.812,-5.859,-20.508,999.512,0.000
1737552116.898,-17.578,-6.836,-20.508,792.969,0.000
1737552116.902,-32.227,-11.719,-22.949,-612.305,0.000
1737552116.906,-24.902,-7.324,-34.180,-1000.000,0.000
1737552116.910,-12.695,6.348,-34.180,108.398,0.000
1737552116.914,-0.488,9.766,-35.156,999.512,0.000
1737552116.917,-9.766,4.883,-39.551,916.016,0.000
1737552116.921,-21.484,4.395,-39.062,-382.812,0.000
1737552116.925,-14.648,0.000,-42.480,-1000.000,0.000
1737552116.929,-19.043,3.906,-35.156,-178.223,0.000
1737552116.933,-7.812,6.348,-25.879,911.621,0.000
1737552116.937,12.695,-3.906,-32.227,968.750,0.000
1737552116.941,6.348,-5.859,-29.785,-300.781,0.000
1737552116.945,-7.324,-7.324,-25.391,-1000.000,0.000
1737552116.949,-6.348,-11.230,-36.133,-607.422,0.000
1737552116.953,-6.836,-10.742,-38.086,644.043,0.000
1737552116.957,-4.883,-9.766,-28.809,999.512,0.000
1737552116.960,-30.273,-15.137,-23.926,-239.258,0.000
1737552116.964,-42.969,-18.555,-24.414,-1000.000,0.000
1737552116.968,-38.086,-19.531,-28.809,-850.586,0.000
1737552116.972,-28.809,-7.812,-27.344,68.848,0.000
1737552116.976,-17.578,-3.906,-26.855,999.512,0.000
1737552116.980,-29.785,-10.254,-27.832,378.906,0.000
1737552116.984,-40.527,-7.812,-23.926,-959.961,0.000
1737552116.988,-32.715,-4.883,-25.879,-683.105,0.000
1737552116.992,-14.160,-10.254,-27.832,625.000,0.000
1737552116.996,-7.324,-14.160,-22.461,999.512,0.000
1737552117.000,-10.742,-13.184,-19.531,549.316,0.000
1737552117.003,-29.297,-16.602,-20.996,-819.824,0.000
1737552117.007,-23.438,-18.555,-20.020,-935.059,0.000
1737552117.011,-6.348,-15.137,-18.555,424.316,0.000
1737552117.015,11.230,-13.184,-25.391,999.512,0.000
1737552117.019,20.508,-7.324,-16.113,593.262,0.000
1737552117.023,-6.348,-7.812,-10.742,-745.117,0.000
1737552117.027,-14.648,-7.812,-17.578,-1000.000,0.000
1737552117.031,-12.695,-7.324,-20.508,-9.277,0.000
1737552117.035,8.789,-8.789,-19.043,999.512,0.000
1737552117.039,37.109,-13.672,-28.809,652.344,0.000
1737552117.042,32.227,-20.996,-30.762,-722.168,0.000
1737552117.046,32.227,-18.555,-19.531,-1000.000,0.000
1737552117.050,20.508,-8.789,-19.043,-582.031,0.000
1737552117.054,7.812,-7.324,-21.484,709.473,0.000
1737552117.058,-4.395,-9.277,-18.066,910.156,0.000
1737552117.062,-58.105,-18.066,-20.508,-640.137,0.000
1737552117.066,-69.336,-24.414,-22.461,-1000.000,0.000
1737552117.070,-22.949,-16.113,-23.438,-91.309,0.000
1737552117.074,-8.301,-9.766,-31.250,964.355,0.000
1737552117.078,-13.184,-6.836,-33.691,893.066,0.000
1737552117.082,-15.137,-13.184,-17.578,-478.027,0.000
1737552117.085,-23.438,-18.555,-12.695,-1000.000,0.000
1737552117.089,-13.184,-9.766,-15.625,-657.715,0.000
1737552117.093,-11.230,-11.719,-8.789,629.883,0.000
1737552117.097,-4.883,-19.043,-3.906,991.211,0.000
1737552117.101,-5.859,-12.695,-7.812,-474.121,0.000
1737552117.105,-10.742,-10.254,-11.230,-1000.000,0.000
1737552117.109,-7.324,-10.742,-15.625,-466.309,0.000
1737552117.113,-15.625,-3.418,-11.719,749.023,0.000
1737552117.117,-24.902,-1.953,-5.859,999.512,0.000
1737552117.121,-20.508,-9.277,-11.719,-157.227,0.000
1737552117.124,-11.719,-11.230,-18.066,-1000.000,0.000
1737552117.128,4.395,-19.531,-19.043,-736.328,0.000
1737552117.132,12.207,-12.695,-18.555,461.914,0.000
1737552117.136,-15.625,-2.441,-15.137,999.512,0.000
1737552117.140,-53.223,-12.695,-7.812,142.090,0.000
1737552117.144,-62.012,-21.973,-5.859,-1000.000,0.000
1737552117.148,-38.574,-22.949,-10.742,-805.664,0.000
1737552117.152,-25.391,-22.949,-15.137,536.133,0.000
1737552117.156,-31.738,-30.762,-20.508,999.512,0.000
1737552117.160,-28.809,-30.273,-18.555,325.684,0.000
1737552117.164,-38.086,-24.902,-24.414,-937.012,0.000
1737552117.167,-20.996,-20.020,-33.691,-824.219,0.000
1737552117.171,8.301,-12.207,-25.391,568.848,0.000
1737552117.175,-20.020,-18.066,-18.555,999.512,0.000
1737552117.179,-39.551,-18.555,-23.926,433.594,0.000
1737552117.183,-31.738,-17.578,-15.625,-842.773,0.000
1737552117.187,-27.344,-21.973,-13.184,-983.887,0.000
1737552117.191,-15.137,-16.113,-22.949,180.176,0.000
1737552117.195,-20.020,-15.625,-20.020,999.512,0.000
1737552117.199,-26.855,-26.367,-21.484,729.004,0.000
1737552117.203,-36.621,-27.832,-20.508,-713.379,0.000
1737552117.207,-28.320,-25.879,-16.113,-1000.000,0.000
1737552117.210,-2.930,-20.508,-13.184,186.523,0.000
1737552117.214,-4.395,-16.602,-8.789,999.512,0.000
1737552117.218,-12.207,-17.090,-7.812,864.258,0.000
1737552117.222,-7.812,-21.484,-16.602,-489.746,0.000
1737552117.226,-13.184,-27.832,-16.113,-1000.000,0.000
1737552117.230,-18.066,-23.438,-14.648,-322.266,0.000
1737552117.234,-5.859,-16.602,-13.184,851.562,0.000
1737552117.238,-11.719,-26.855,-11.719,926.758,0.000
1737552117.242,-59.082,-27.832,-7.324,-536.133,0.000
1737552117.246,-56.152,-23.926,-10.254,-1000.000,0.000
1737552117.249,-28.320,-26.367,-20.996,-279.297,0.000
1737552117.253,-20.508,-10.742,-15.137,828.613,0.000
1737552117.257,-20.508,-7.324,-20.020,999.512,0.000
1737552117.261,-24.902,-17.578,-37.598,-175.293,0.000
1737552117.265,-48.828,-18.066,-34.668,-1000.000,0.000
1737552117.269,-43.945,-18.066,-19.531,-402.344,0.000
1737552117.273,-20.996,-24.902,-12.207,835.449,0.000
1737552117.277,-16.113,-36.621,-12.695,999.512,0.000
1737552117.281,-29.785,-33.691,-11.230,-235.352,0.000
1737552117.285,-50.781,-25.391,-13.184,-1000.000,0.000
1737552117.289,-38.086,-23.438,-17.578,-610.352,0.000
1737552117.292,-22.949,-18.066,-12.207,648.438,0.000
1737552117.296,-19.531,-19.531,-12.207,999.512,0.000
1737552117.300,-24.414,-27.832,-11.719,96.191,0.000
1737552117.304,-36.133,-27.344,-20.020,-1000.000,0.000
1737552117.308,-28.320,-22.461,-23.926,-808.594,0.000
1737552117.312,0.977,-10.742,-16.113,555.176,0.000
1737552117.316,8.301,-5.371,-13.672,999.512,0.000
1737552117.320,-18.066,-15.137,-20.996,243.164,0.000
1737552117.324,-34.668,-23.438,-33.203,-960.449,0.000
1737552117.328,-28.809,-17.578,-25.391,-858.887,0.000
1737552117.332,-21.973,-14.160,-10.254,444.824,0.000
1737552117.335,-12.695,-19.043,-7.324,999.512,0.000
1737552117.339,-10.742,-17.578,-12.207,499.512,0.000
1737552117.343,-25.391,-11.230,-13.672,-858.398,0.000
1737552117.347,-31.250,-3.906,-18.066,-917.969,0.000
1737552117.351,-15.137,-9.277,-19.043,466.309,0.000
1737552117.355,-14.160,-11.719,-4.883,999.512,0.000
1737552117.359,-13.672,-8.301,2.441,582.031,0.000
1737552117.363,-15.137,-18.066,-10.742,-738.281,0.000
1737552117.367,-31.738,-22.461,-15.137,-1000.000,0.000
1737552117.371,-29.785,-12.207,-4.395,7.812,0.000
1737552117.374,-4.883,-2.930,-0.977,999.023,0.000
1737552117.378,3.906,-3.906,-3.906,854.004,0.000
1737552117.382,-20.508,-21.484,-13.672,-598.633,0.000
1737552117.386,-20.996,-23.438,-19.531,-1000.000,0.000
1737552117.390,2.441,-8.301,-15.137,81.055,0.000
1737552117.394,9.277,-10.742,-19.531,999.512,0.000
1737552117.398,-3.418,-14.648,-20.508,903.320,0.000
1737552117.402,4.883,-12.695,-16.602,-493.652,0.000
1737552117.406,19.531,-11.719,-12.695,-1000.000,0.000
1737552117.410,7.812,-17.090,-10.742,99.121,0.000
1737552117.414,11.230,-18.555,-13.184,999.512,0.000
1737552117.417,6.348,-17.090,-11.719,934.570,0.000
1737552117.421,-21.484,-20.508,-16.602,-291.504,0.000
1737552117.425,-24.414,-20.996,-28.809,-1000.000,0.000
1737552117.429,-0.977,-30.273,-27.344,-420.410,0.000
1737552117.433,-5.859,-33.203,-25.879,805.176,0.000
1737552117.437,-28.809,-17.578,-23.438,999.512,0.000
1737552117.441,-36.621,-17.090,-28.320,-303.223,0.000
1737552117.445,-44.434,-27.832,-33.203,-1000.000,0.000
1737552117.449,-34.668,-19.043,-17.578,-562.500,0.000
1737552117.453,-14.648,-4.883,-6.348,700.195,0.000
1737552117.456,-12.695,-12.695,-5.859,999.512,0.000
1737552117.460,-26.367,-24.902,-13.184,-148.438,0.000
1737552117.464,-17.090,-20.996,-20.508,-1000.000,0.000
1737552117.468,-17.578,-19.531,-23.926,-518.555,0.000
1737552117.472,-26.367,-18.066,-20.996,747.559,0.000
1737552117.476,-16.113,-19.043,-17.578,999.512,0.000
1737552117.480,-14.648,-26.367,-12.207,-96.191,0.000
1737552117.484,-27.344,-25.391,-10.742,-1000.000,0.000
1737552117.488,-24.902,-20.996,-17.578,-732.422,0.000
1737552117.492,-0.977,-28.809,-21.484,428.223,0.000
1737552117.496,-0.488,-19.043,-13.672,999.512,0.000
1737552117.499,-22.949,-11.230,-5.371,673.828,0.000
1737552117.503,-39.062,-24.902,-10.254,-704.590,0.000
1737552117.507,-32.715,-23.926,-14.160,-1000.000,0.000
1737552117.511,-18.555,-19.043,-15.137,93.750,0.000
1737552117.515,-1.953,-17.578,-25.391,999.512,0.000
1737552117.519,6.348,-15.137,-21.484,792.969,0.000
1737552117.523,-25.391,-18.066,-15.625,-676.758,0.000
1737552117.527,-40.527,-20.508,-16.113,-1000.000,0.000
1737552117.531,-56.152,-29.297,-12.695,236.816,0.000
1737552117.535,-55.664,-35.645,-17.090,999.512,0.000
1737552117.539,-61.523,-30.762,-15.137,671.875,0.000
1737552117.542,-72.754,-22.461,-15.625,-731.445,0.000
1737552117.546,-51.270,-11.719,-20.508,-1000.000,0.000
1737552117.550,-39.062,-4.395,-18.555,106.934,0.000
1737552117.554,-34.668,-5.371,-18.555,999.512,0.000
1737552117.558,-35.156,-17.578,-21.973,806.152,0.000
1737552117.562,-42.480,-26.367,-29.297,-590.332,0.000
1737552117.566,-39.551,-18.555,-24.414,-1000.000,0.000
1737552117.570,-29.297,-16.602,-16.113,-196.289,0.000
1737552117.574,-8.301,-12.207,-19.043,893.555,0.000
1737552117.578,-9.766,-10.254,-25.879,941.406,0.000
1737552117.581,-33.691,-16.113,-28.809,-402.344,0.000
1737552117.585,-29.297,-13.672,-29.785,-1000.000,0.000
1737552117.589,-13.672,-11.230,-22.461,-539.062,0.000
1737552117.593,-2.930,-8.789,-22.461,703.125,0.000
1737552117.597,13.672,-11.230,-32.227,999.512,0.000
1737552117.601,22.461,-16.113,-26.855,-185.059,0.000
1737552117.605,9.766,-14.648,-19.531,-1000.000,0.000
1737552117.609,14.160,-5.859,-17.090,-401.367,0.000
1737552117.613,20.996,-3.418,-17.090,821.777,0.000
1737552117.617,-6.836,-10.254,-17.090,999.512,0.000
1737552117.621,-18.555,-12.695,-16.602,-190.918,0.000
1737552117.624,-10.742,-7.812,-29.297,-1000.000,0.000
1737552117.628,-9.277,-6.348,-33.691,-783.203,0.000
1737552117.632,-20.020,-14.160,-14.160,284.180,0.000
1737552117.636,-25.879,-18.066,-5.371,999.512,0.000
1737552117.640,-35.156,-14.648,-15.625,163.086,0.000
1737552117.644,-30.762,-21.973,-19.043,-990.234,0.000
1737552117.648,-39.062,-28.320,-19.043,-937.988,0.000
1737552117.652,-41.992,-16.113,-15.137,204.102,0.000
1737552117.656,-8.789,-11.719,-9.277,999.512,0.000
1737552117.660,-22.949,-14.648,-18.066,357.910,0.000
1737552117.664,-50.781,-12.695,-27.344,-982.422,0.000
1737552117.667,-31.250,-9.766,-23.438,-673.340,0.000
1737552117.671,-1.953,-4.395,-9.277,706.055,0.000
1737552117.675,0.977,-4.883,-5.371,999.512,0.000
1737552117.679,-19.531,-13.672,-12.695,514.160,0.000
1737552117.683,-20.020,-19.043,-19.043,-854.004,0.000
1737552117.687,-4.883,-20.020,-19.531,-874.023,0.000
1737552117.691,-18.066,-15.137,-16.602,555.176,0.000
1737552117.695,-34.668,-12.207,-24.902,999.512,0.000
1737552117.699,-52.246,-14.648,-23.438,763.672,0.000
1737552117.703,-57.617,-15.625,-11.230,-633.789,0.000
1737552117.706,-34.180,-20.996,-19.531,-1000.000,0.000
1737552117.710,-11.719,-19.043,-20.020,277.344,0.000
1737552117.714,-4.395,-8.301,-16.113,999.512,0.000
1737552117.718,-2.441,-9.766,-24.414,992.676,0.000
1737552117.722,-10.742,-13.672,-26.855,118.652,0.000
1737552117.726,-13.184,-13.672,-15.625,-672.363,0.000
1737552117.730,10.742,-15.625,-6.836,508.301,0.000
1737552117.734,21.484,-9.766,-14.160,999.512,0.000
1737552117.738,-8.789,-9.766,-16.602,888.672,0.000
1737552117.742,-19.043,-24.902,-22.949,-343.750,0.000
1737552117.746,-25.391,-28.320,-23.926,-1000.000,0.000
1737552117.749,-19.531,-19.043,-21.484,-87.891,0.000
1737552117.753,4.395,-14.160,-22.461,900.391,0.000
1737552117.757,15.137,-20.508,-18.066,999.512,0.000
1737552117.761,-5.859,-33.691,-20.020,94.238,0.000
1737552117.765,-29.785,-27.832,-21.484,-1000.000,0.000
1737552117.769,-8.301,-15.137,-13.184,-30.762,0.000
1737552117.773,-4.883,-13.184,-7.812,962.891,0.000
1737552117.777,-0.488,-26.855,-11.230,999.512,0.000
1737552117.781,-6.348,-27.344,-10.742,443.359,0.000
1737552117.785,-30.273,-11.719,-6.348,-890.137,0.000
1737552117.788,-26.367,-11.230,-19.531,-541.504,0.000
1737552117.792,-13.184,-13.184,-16.602,761.230,0.000
1737552117.796,-1.953,-20.020,-12.695,999.512,0.000
1737552117.800,3.906,-22.461,-23.438,254.395,0.000
1737552117.804,-3.418,-25.391,-20.996,-989.746,0.000
1737552117.808,-1.465,-34.668,-14.648,-503.418,0.000
1737552117.812,-4.395,-27.832,-14.160,785.645,0.000
1737552117.816,-2.930,-20.020,-13.184,999.512,0.000
1737552117.820,14.160,-18.066,-13.184,519.531,0.000
1737552117.824,-3.906,-20.020,-24.902,-877.441,0.000
1737552117.828,-31.250,-15.625,-27.344,-595.215,0.000
1737552117.831,-3.418,-14.648,-17.090,777.344,0.000
1737552117.835,30.762,-19.043,-13.184,999.512,0.000
1737552117.839,11.719,-19.043,-15.137,641.602,0.000
1737552117.843,-21.973,-22.949,-10.742,-778.320,0.000
1737552117.847,-32.715,-27.344,-12.695,-956.055,0.000
1737552117.851,-22.949,-20.996,-10.254,461.914,0.000
1737552117.855,-25.879,-18.066,-3.906,999.512,0.000
1737552117.859,-28.809,-19.531,-17.578,664.062,0.000
1737552117.863,-27.344,-22.949,-26.367,-699.707,0.000
1737552117.867,-24.414,-22.949,-21.484,-1000.000,0.000
1737552117.871,5.859,-9.766,-23.438,100.098,0.000
1737552117.874,24.414,-8.789,-28.320,999.512,0.000
1737552117.878,7.812,-22.949,-14.648,879.883,0.000
1737552117.882,-30.762,-29.297,-11.230,-555.664,0.000
1737552117.886,-32.227,-15.625,-24.902,-1000.000,0.000
1737552117.890,-11.230,-7.324,-14.160,189.453,0.000
1737552117.894,-4.395,-4.395,-5.859,999.512,0.000
1737552117.898,-0.488,-7.812,-25.879,816.406,0.000
1737552117.902,-17.578,-15.137,-29.297,-556.641,0.000
1737552117.906,-23.926,-27.832,-19.531,-1000.000,0.000
1737552117.910,-6.836,-26.855,-20.996,-238.770,0.000
1737552117.913,-15.625,-18.555,-8.301,837.891,0.000
1737552117.917,-12.207,-22.461,-0.488,999.512,0.000
1737552117.921,-14.160,-15.625,-12.207,-32.227,0.000
1737552117.925,-20.508,-14.160,-22.949,-1000.000,0.000
1737552117.929,-17.090,-13.672,-15.137,-417.969,0.000
1737552117.933,-29.297,-13.672,-9.277,821.777,0.000
1737552117.937,-33.203,-23.926,-18.066,999.512,0.000
1737552117.941,-17.090,-18.555,-21.484,-93.750,0.000
1737552117.945,-20.508,-25.391,-16.602,-1000.000,0.000
1737552117.949,-20.020,-31.738,-8.301,-665.039,0.000
1737552117.953,-9.277,-10.254,-6.348,655.762,0.000
1737552117.956,-21.973,-3.906,-5.859,999.512,0.000
1737552117.960,-36.621,-13.184,-8.301,24.414,0.000
1737552117.964,-42.480,-17.578,-16.602,-1000.000,0.000
1737552117.968,-30.762,-17.090,-12.695,-587.891,0.000
1737552117.972,-16.113,-14.160,-9.277,710.938,0.000
1737552117.976,-8.789,-16.113,-17.090,999.512,0.000
1737552117.980,-14.160,-14.648,-23.438,248.047,0.000
1737552117.984,-18.066,-22.949,-28.320,-977.051,0.000
1737552117.988,-17.090,-25.879,-28.320,-849.121,0.000
1737552117.992,7.812,-11.719,-8.301,494.629,0.000
1737552117.996,21.484,-5.859,6.348,999.512,0.000
1737552117.999,-1.953,-14.648,-0.488,383.789,0.000
1737552118.003,-23.926,-24.902,-14.160,-857.910,0.000
1737552118.007,-38.086,-16.602,-23.926,-1000.000,0.000
1737552118.011,-38.086,-1.953,-1.465,25.879,0.000
1737552118.015,-17.578,-0.977,4.395,999.512,0.000
1737552118.019,-10.742,-12.207,-14.648,649.902,0.000
1737552118.023,-41.016,-18.066,-20.996,-747.559,0.000
1737552118.027,-36.621,-18.066,-17.090,-1000.000,0.000
1737552118.031,-2.930,-26.855,-14.648,-139.160,0.000
1737552118.035,2.930,-20.508,-24.414,953.125,0.000
1737552118.038,-20.020,-11.719,-22.949,830.078,0.000
1737552118.042,-42.969,-20.508,-14.648,-625.977,0.000
1737552118.046,-34.180,-16.602,-13.672,-1000.000,0.000
1737552118.050,-36.133,-7.812,-14.160,-146.484,0.000
1737552118.054,-24.414,-15.625,-16.113,921.387,0.000
1737552118.058,3.906,-19.043,-20.508,935.547,0.000
1737552118.062,5.859,-16.113,-32.715,-469.238,0.000
1737552118.066,2.441,-15.625,-31.250,-1000.000,0.000
1737552118.070,-2.930,-14.160,-9.277,-132.324,0.000
1737552118.074,-37.109,-10.742,-8.301,923.340,0.000
1737552118.078,-44.922,-12.695,-14.160,919.434,0.000
1737552118.081,-32.715,-20.996,-11.230,-450.195,0.000
1737552118.085,-42.480,-25.879,-12.695,-1000.000,0.000
1737552118.089,-34.180,-29.785,-16.113,-504.883,0.000
1737552118.093,-19.043,-32.227,-17.578,714.844,0.000
1737552118.097,-11.230,-21.484,-15.137,999.512,0.000
1737552118.101,-23.926,-13.672,-8.789,-153.809,0.000
1737552118.105,-41.016,-20.020,-7.812,-1000.000,0.000
1737552118.109,-18.066,-18.066,-8.301,-235.840,0.000
1737552118.113,7.324,-8.301,-11.230,900.391,0.000
1737552118.117,5.859,-11.230,-23.438,999.512,0.000
1737552118.120,-4.395,-13.184,-27.832,-44.434,0.000
1737552118.124,-16.113,-15.625,-26.367,-1000.000,0.000
1737552118.128,-11.719,-19.531,-21.484,-963.867,0.000
1737552118.132,2.930,-14.160,-13.184,34.668,0.000
1737552118.136,10.254,-10.742,-7.812,999.512,0.000
1737552118.140,4.883,-8.789,-11.719,168.945,0.000
1737552118.144,-9.277,-16.113,-22.461,-1000.000,0.000
1737552118.148,-19.531,-24.902,-25.391,-873.535,0.000
1737552118.152,-29.297,-21.484,-21.973,234.375,0.000
1737552118.156,-6.348,-12.207,-22.461,999.512,0.000
1737552118.160,-3.418,-17.090,-21.973,519.531,0.000
1737552118.163,-41.504,-25.391,-15.625,-827.148,0.000
1737552118.167,-38.574,-21.973,-14.648,-1000.000,0.000
1737552118.171,-35.645,-26.855,-24.414,46.875,0.000
1737552118.175,-28.809,-25.391,-23.926,999.512,0.000
1737552118.179,-10.742,-16.113,-15.137,711.914,0.000
1737552118.183,-3.418,-18.066,-16.113,-686.523,0.000
1737552118.187,-4.395,-35.645,-18.555,-1000.000,0.000
1737552118.191,11.230,-32.227,-17.578,-246.094,0.000
1737552118.195,11.230,-12.207,-21.484,912.109,0.000
1737552118.199,-0.488,-9.277,-30.762,783.203,0.000
1737552118.203,-18.066,-22.461,-30.273,-736.328,0.000
1737552118.206,-30.273,-45.410,-22.949,-1000.000,0.000
1737552118.210,-14.648,-40.527,-14.648,151.367,0.000
1737552118.214,-30.273,-26.855,-17.090,999.512,0.000
1737552118.218,-52.246,-30.273,-23.926,789.551,0.000
1737552118.222,-62.988,-34.180,-19.043,-585.938,0.000
1737552118.226,-56.641,-31.250,-18.066,-1000.000,0.000
1737552118.230,-26.367,-30.762,-29.297,-654.785,0.000
1737552118.234,-13.184,-25.879,-38.086,546.875,0.000
1737552118.238,-10.742,-25.391,-20.508,999.512,0.000
1737552118.242,-24.902,-27.344,-13.184,-414.551,0.000
1737552118.245,-51.758,-23.926,-22.949,-1000.000,0.000
1737552118.249,-41.504,-27.832,-21.484,-397.949,0.000
1737552118.253,-12.695,-34.180,-19.531,808.105,0.000
1737552118.257,-14.160,-28.320,-19.043,999.512,0.000
1737552118.261,-23.926,-29.785,-19.043,-256.836,0.000
1737552118.265,-20.508,-30.273,-25.879,-1000.000,0.000
1737552118.269,-29.297,-14.648,-27.832,-794.922,0.000
1737552118.273,-21.973,-10.254,-23.926,402.344,0.000
1737552118.277,-7.324,-19.531,-24.902,999.512,0.000
1737552118.281,-20.508,-28.809,-32.227,133.301,0.000
1737552118.285,-30.762,-20.508,-25.879,-1000.000,0.000
1737552118.288,-31.250,-16.602,-20.020,-663.086,0.000
1737552118.292,-13.184,-19.531,-16.602,647.461,0.000
1737552118.296,-14.648,-10.742,-4.883,999.512,0.000
1737552118.300,-25.391,-13.672,-9.277,309.570,0.000
1737552118.304,-18.555,-22.949,-16.602,-910.645,0.000
1737552118.308,-2.441,-17.578,-17.090,-927.246,0.000
1737552118.312,9.766,-9.766,-15.137,336.914,0.000
1737552118.316,0.977,-10.254,-25.391,999.512,0.000
1737552118.320,-19.043,-10.254,-20.996,384.277,0.000
1737552118.324,-17.090,-5.371,2.441,-862.305,0.000
1737552118.328,-17.578,-12.695,4.395,-1000.000,0.000
1737552118.331,7.324,-16.113,-8.789,8.301,0.000
1737552118.335,34.668,-17.090,-13.184,999.512,0.000
1737552118.339,16.602,-17.090,-8.789,706.543,0.000
1737552118.343,-20.996,-5.859,-15.137,-736.816,0.000
1737552118.347,-35.645,-2.441,-21.484,-986.816,0.000
1737552118.351,-22.461,-11.719,-18.555,189.453,0.000
1737552118.355,-25.879,-20.508,-11.719,999.512,0.000
1737552118.359,-30.273,-25.879,-13.184,496.094,0.000
1737552118.363,-33.203,-20.996,-17.578,-807.617,0.000
1737552118.367,-45.898,-22.949,-29.297,-1000.000,0.000
1737552118.370,-38.574,-19.043,-29.297,-285.156,0.000
1737552118.374,-19.531,-11.230,-20.020,843.262,0.000
1737552118.378,-20.020,-10.254,-22.461,999.512,0.000
1737552118.382,-20.996,-15.625,-13.672,-358.887,0.000
1737552118.386,-42.969,-24.414,-8.301,-1000.000,0.000
1737552118.390,-34.180,-15.625,-14.648,88.379,0.000
1737552118.394,-12.695,-15.137,-28.809,999.512,0.000
1737552118.398,-18.555,-21.484,-17.578,822.754,0.000
1737552118.402,-27.832,-15.625,-6.836,-575.684,0.000
1737552118.406,-28.809,-9.277,-17.578,-1000.000,0.000
1737552118.410,-36.621,-17.578,-15.137,-159.668,0.000
1737552118.413,-35.645,-13.672,-12.695,880.371,0.000
1737552118.417,-8.301,-12.695,-12.695,999.512,0.000
1737552118.421,-4.395,-20.020,-7.812,-106.934,0.000
1737552118.425,-16.602,-14.160,-13.184,-1000.000,0.000
1737552118.429,0.977,-14.160,-25.391,-414.551,0.000
1737552118.433,4.883,-4.395,-24.902,809.082,0.000
1737552118.437,-10.742,4.883,-16.113,999.512,0.000
1737552118.441,-28.809,-11.719,-20.020,-90.332,0.000
1737552118.445,-41.992,-20.508,-38.086,-1000.000,0.000
1737552118.449,-22.949,-14.160,-28.320,-634.277,0.000
1737552118.452,5.371,-11.719,-10.254,681.641,0.000
1737552118.456,-13.184,-22.949,-8.789,999.512,0.000
1737552118.460,-32.715,-27.344,-22.949,7.812,0.000
1737552118.464,-35.645,-21.973,-32.715,-1000.000,0.000
1737552118.468,-28.809,-21.484,-18.555,-786.133,0.000
1737552118.472,-22.949,-17.090,-18.555,419.434,0.000
1737552118.476,-30.762,-1.465,-24.414,999.512,0.000
1737552118.480,-33.691,-9.277,-28.320,268.066,0.000
1737552118.484,-31.738,-20.996,-36.621,-994.629,0.000
1737552118.488,-30.762,-15.137,-24.902,-702.148,0.000
1737552118.492,-4.883,-16.113,-16.113,654.297,0.000
1737552118.495,2.441,-12.207,-20.508,999.512,0.000
1737552118.499,-13.672,-12.207,-25.879,313.477,0.000
1737552118.503,-23.438,-12.695,-24.902,-963.867,0.000
1737552118.507,-49.805,-7.324,-23.438,-807.617,0.000
1737552118.511,-41.504,-6.348,-21.973,587.891,0.000
1737552118.515,-23.926,-13.672,-18.066,999.512,0.000
1737552118.519,-15.625,-18.066,-22.949,723.145,0.000
1737552118.523,-41.504,-14.648,-24.414,-702.148,0.000
1737552118.527,-68.359,-20.020,-19.043,-998.047,0.000
1737552118.531,-37.598,-24.414,-9.277,453.125,0.000
1737552118.535,-13.184,-10.742,-13.184,999.512,0.000
1737552118.538,-24.902,-19.531,-31.738,559.082,0.000
1737552118.542,-46.387,-34.668,-22.949,-747.070,0.000
1737552118.546,-32.715,-24.414,-12.695,-1000.000,0.000
1737552118.550,-29.297,-15.137,-16.113,-161.133,0.000
1737552118.554,-25.391,-13.672,-19.043,931.152,0.000
1737552118.558,-20.996,-15.137,-24.902,907.715,0.000
1737552118.562,-32.715,-19.043,-21.484,-500.000,0.000
1737552118.566,-33.691,-20.020,-21.484,-1000.000,0.000
1737552118.570,-21.973,-19.531,-20.508,-267.578,0.000
1737552118.574,14.648,-20.508,-15.625,826.172,0.000
1737552118.577,28.320,-18.555,-15.137,999.512,0.000
1737552118.581,-24.902,-24.902,-23.438,-112.793,0.000
1737552118.585,-39.551,-22.461,-35.645,-1000.000,0.000
1737552118.589,-3.906,-8.301,-25.391,-535.645,0.000
1737552118.593,-18.066,-0.977,-9.277,700.684,0.000
1737552118.597,-42.480,-5.859,-5.371,999.512,0.000
1737552118.601,-28.320,-20.020,-4.883,264.648,0.000
1737552118.605,-31.250,-24.902,-9.277,-936.035,0.000
1737552118.609,-43.457,-18.066,-10.254,-853.516,0.000
1737552118.613,-20.508,-5.371,-8.301,478.516,0.000
1737552118.617,-0.488,1.465,-7.324,999.512,0.000
1737552118.620,-12.695,-8.789,-11.719,-12.695,0.000
1737552118.624,-30.762,-16.113,-12.207,-1000.000,0.000
1737552118.628,-22.949,-12.695,-10.742,-398.438,0.000
1737552118.632,2.930,-17.090,-13.672,807.617,0.000
1737552118.636,3.418,-24.902,-19.043,999.512,0.000
1737552118.640,-16.113,-29.297,-25.391,286.133,0.000
1737552118.644,-4.883,-28.809,-28.320,-945.801,0.000
1737552118.648,5.371,-19.043,-18.555,-913.086,0.000
1737552118.652,25.391,-7.324,-9.766,359.863,0.000
1737552118.656,37.598,-8.301,-9.277,999.512,0.000
1737552118.660,-4.883,-17.578,-7.812,546.875,0.000
1737552118.663,-33.203,-16.113,-9.277,-860.840,0.000
1737552118.667,-11.719,-13.672,-8.301,-798.340,0.000
1737552118.671,-4.883,-11.230,-6.836,647.949,0.000
1737552118.675,-27.344,-12.207,-6.836,999.512,0.000
1737552118.679,-38.086,-18.555,-10.742,460.449,0.000
1737552118.683,-54.688,-16.602,-17.578,-808.594,0.000
1737552118.687,-61.523,-7.812,-24.902,-1000.000,0.000
1737552118.691,-35.645,-24.902,-13.184,-46.875,0.000
1737552118.695,0.488,-33.203,-9.277,989.258,0.000
1737552118.699,-6.348,-14.160,-10.254,770.996,0.000
1737552118.702,-37.109,-10.742,-0.488,-709.961,0.000
1737552118.706,-21.973,-17.578,0.488,-1000.000,0.000
1737552118.710,-24.902,-17.578,-8.301,159.668,0.000
1737552118.714,-27.344,-14.648,-16.113,999.512,0.000
1737552118.718,-19.531,-12.207,-19.043,845.703,0.000
1737552118.722,-27.832,-17.090,-28.809,-524.902,0.000
1737552118.726,-33.691,-26.855,-33.203,-1000.000,0.000
1737552118.730,-26.367,-26.855,-20.020,-300.293,0.000
1737552118.734,-12.695,-25.391,-7.324,853.027,0.000
1737552118.738,-16.113,-22.461,-7.812,969.727,0.000
1737552118.742,-21.973,-16.113,-12.207,-408.203,0.000
1737552118.745,-29.297,-20.996,-7.324,-1000.000,0.000
1737552118.749,-24.414,-21.973,-9.766,-397.461,0.000
1737552118.753,5.371,-15.137,-20.508,800.293,0.000
1737552118.757,26.855,-15.137,-21.973,999.512,0.000
1737552118.761,8.789,-14.648,-15.625,-301.270,0.000
1737552118.765,-32.715,-19.531,-10.254,-1000.000,0.000
1737552118.769,-14.648,-16.602,-7.812,-135.254,0.000
1737552118.773,-5.859,-14.160,-15.625,907.715,0.000
1737552118.777,-3.906,-24.414,-11.719,999.512,0.000
1737552118.781,-7.812,-20.020,-5.371,-73.242,0.000
1737552118.785,-28.320,-6.348,-11.230,-1000.000,0.000
1737552118.788,-9.277,-4.883,-12.695,-481.445,0.000
1737552118.792,-3.418,-9.766,-8.301,788.574,0.000
1737552118.796,-12.207,-19.531,-14.648,999.512,0.000
1737552118.800,-22.461,-24.902,-24.414,-67.383,0.000
1737552118.804,-38.574,-33.203,-21.973,-1000.000,0.000
1737552118.808,-43.945,-29.785,-18.066,-555.664,0.000
1737552118.812,-14.648,-16.602,-20.020,737.793,0.000
1737552118.816,12.207,-14.648,-17.578,999.512,0.000
1737552118.820,-3.418,-23.926,-19.531,239.258,0.000
1737552118.824,-9.277,-25.879,-32.715,-919.434,0.000
1737552118.827,-14.160,-20.020,-35.156,-993.164,0.000
1737552118.831,-40.039,-20.996,-22.949,-48.828,0.000
1737552118.835,-20.020,-21.484,-7.812,999.512,0.000
1737552118.839,-9.277,-18.555,-11.230,714.844,0.000
1737552118.843,-45.898,-24.902,-16.113,-752.930,0.000
1737552118.847,-29.297,-15.625,-10.254,-1000.000,0.000
1737552118.851,-0.488,-6.836,-8.301,173.828,0.000
1737552118.855,0.000,-11.719,-10.742,999.512,0.000
1737552118.859,-0.488,-14.648,-18.066,833.496,0.000
1737552118.863,-21.973,-25.879,-24.414,-583.008,0.000
1737552118.867,-36.621,-13.672,-23.926,-1000.000,0.000
1737552118.870,-26.855,-6.348,-15.625,-1.465,0.000
1737552118.874,-23.926,-18.066,-6.836,999.512,0.000
1737552118.878,-24.902,-23.438,-13.184,798.828,0.000
1737552118.882,-22.461,-20.508,-33.203,-643.555,0.000
1737552118.886,-21.484,-22.461,-26.855,-1000.000,0.000
1737552118.890,-16.113,-23.438,-10.254,-136.230,0.000
