timestamps,TP9,AF7,AF8,TP10,Right AUX
1737551786.897,-30.762,-17.090,-63.965,-329.102,0.000
1737551786.901,-54.199,-23.438,-27.832,-413.086,0.000
1737551786.905,-55.176,-28.320,13.184,-726.074,0.000
1737551786.909,-17.090,-20.020,-26.367,-531.738,0.000
1737551786.913,0.977,-15.625,-39.062,-104.492,0.000
1737551786.917,-28.809,-9.766,11.719,-330.078,0.000
1737551786.921,-24.902,-8.789,0.000,-477.051,0.000
1737551786.925,-2.441,-12.695,-48.340,-588.379,0.000
1737551786.929,-32.227,-22.461,-19.043,-515.625,0.000
1737551786.932,-22.461,-7.812,-30.762,-13.672,0.000
1737551786.936,-48.828,-13.672,-5.859,-113.770,0.000
1737551786.940,-75.684,-38.574,21.973,-400.879,0.000
1737551786.944,-37.109,-30.762,-32.227,-540.039,0.000
1737551786.948,25.879,0.488,-80.566,-408.691,0.000
1737551786.952,12.207,-19.531,-29.297,141.602,0.000
1737551786.956,-52.246,-33.691,16.113,-129.883,0.000
1737551786.960,-55.176,-21.973,0.000,-426.270,0.000
1737551786.964,7.812,-2.441,-55.176,-206.055,0.000
1737551786.968,-13.672,-16.113,-33.203,-132.324,0.000
1737551786.972,-69.824,-55.176,45.410,-418.945,0.000
1737551786.975,-33.691,-12.695,-31.250,-325.195,0.000
1737551786.979,-7.812,-0.977,-68.359,2.930,0.000
1737551786.983,-28.320,-29.785,-11.719,-255.859,0.000
1737551786.987,-60.059,-12.695,0.488,-480.957,0.000
1737551786.991,-29.297,-8.301,-14.648,-333.008,0.000
1737551786.995,9.766,-5.859,-50.781,24.902,0.000
1737551786.999,-3.906,6.348,-62.012,106.445,0.000
1737551787.003,-33.691,0.000,-38.574,-222.168,0.000
1737551787.007,-41.504,-9.766,1.465,-462.891,0.000
1737551787.011,-2.930,-7.812,-7.812,-286.621,0.000
1737551787.015,-15.625,-8.301,-45.898,-36.621,0.000
1737551787.018,-27.832,-30.762,-30.762,21.973,0.000
1737551787.022,-51.758,-37.109,14.160,-291.992,0.000
1737551787.026,-55.176,-7.812,-20.996,-659.180,0.000
1737551787.030,-24.902,2.441,-45.898,-178.711,0.000
1737551787.034,-22.949,0.977,-16.113,-28.809,0.000
1737551787.038,-13.672,-10.742,-9.766,-290.039,0.000
1737551787.042,-20.996,-31.738,14.160,-286.133,0.000
1737551787.046,-20.508,-23.438,-3.418,-553.711,0.000
1737551787.050,-20.508,-27.832,9.277,-452.148,0.000
1737551787.054,-16.113,-17.578,2.441,-114.746,0.000
1737551787.057,-28.809,-36.621,7.324,-196.777,0.000
1737551787.061,-24.902,-21.484,-18.555,-574.219,0.000
1737551787.065,15.137,25.879,-86.914,-338.379,0.000
1737551787.069,0.977,10.254,-46.875,199.707,0.000
1737551787.073,-28.320,-20.508,-9.277,21.973,0.000
1737551787.077,-32.227,-25.879,-11.719,-164.551,0.000
1737551787.081,-27.344,-13.184,-20.996,-144.043,0.000
1737551787.085,-40.039,-23.926,-19.043,-373.535,0.000
1737551787.089,-20.508,-26.855,-39.551,-262.695,0.000
1737551787.093,-23.926,-21.973,-1.953,-181.152,0.000
1737551787.097,-32.227,-23.438,36.621,-431.152,0.000
1737551787.100,-9.277,-26.367,-54.688,-222.656,0.000
1737551787.104,-32.227,-1.465,-86.914,39.551,0.000
1737551787.108,-42.969,1.953,-0.488,-46.387,0.000
1737551787.112,-41.504,-25.391,37.109,-198.242,0.000
1737551787.116,-34.180,-30.762,13.184,-546.387,0.000
1737551787.120,5.859,-10.742,-39.062,-215.332,0.000
1737551787.124,-18.066,-32.715,-25.879,125.977,0.000
1737551787.128,-36.621,-36.133,-30.273,-50.781,0.000
1737551787.132,-7.324,-8.301,-52.246,57.617,0.000
1737551787.136,-23.926,2.930,-18.066,-45.898,0.000
1737551787.140,-47.363,-5.371,35.645,-112.305,0.000
1737551787.143,-14.648,-9.277,-0.488,-223.633,0.000
1737551787.147,-0.977,-4.395,-7.324,-363.770,0.000
1737551787.151,-8.789,-17.090,18.555,-58.105,0.000
1737551787.155,-25.391,-35.645,38.574,-299.316,0.000
1737551787.159,13.184,-16.113,-28.809,-401.367,0.000
1737551787.163,16.602,-3.418,-86.914,-19.043,0.000
1737551787.167,-54.688,-22.949,-15.625,-155.762,0.000
1737551787.171,-33.691,-10.742,-7.324,-30.273,0.000
1737551787.175,-4.883,-4.883,7.324,255.371,0.000
1737551787.179,5.371,-15.137,27.344,71.289,0.000
1737551787.182,27.832,-6.836,-18.066,-214.844,0.000
1737551787.186,11.230,-13.672,-22.461,-296.387,0.000
1737551787.190,-18.555,-28.809,10.254,-134.766,0.000
1737551787.194,-3.906,-43.945,-3.418,28.320,0.000
1737551787.198,25.391,-22.461,-58.105,63.965,0.000
1737551787.202,0.000,-11.719,-58.105,84.473,0.000
1737551787.206,-32.227,-31.250,-27.344,-183.105,0.000
1737551787.210,-38.574,-22.949,-30.762,-119.141,0.000
1737551787.214,-27.832,-8.301,-13.672,16.113,0.000
1737551787.218,-3.418,-3.418,-27.832,-93.750,0.000
1737551787.222,-14.648,-7.324,-13.672,-163.086,0.000
1737551787.225,-41.504,-24.414,15.625,-355.469,0.000
1737551787.229,-39.062,-24.902,20.508,110.840,0.000
1737551787.233,-30.762,-20.020,6.348,350.098,0.000
1737551787.237,-6.348,0.977,-71.289,135.742,0.000
1737551787.241,-13.672,-1.465,-50.293,98.145,0.000
1737551787.245,-44.434,-15.137,-4.883,-238.281,0.000
1737551787.249,-40.039,-16.602,-14.160,-295.410,0.000
1737551787.253,-9.766,-24.902,-55.176,95.215,0.000
1737551787.257,-46.875,-51.758,16.602,-59.570,0.000
1737551787.261,-46.875,-39.551,7.324,-353.027,0.000
1737551787.264,-23.926,-21.973,-24.902,-320.801,0.000
1737551787.268,-9.277,-14.160,-15.137,83.984,0.000
1737551787.272,4.395,-17.578,-32.227,354.492,0.000
1737551787.276,-6.348,-30.273,-9.766,-5.371,0.000
1737551787.280,-6.348,-4.395,-35.645,-167.969,0.000
1737551787.284,-0.488,7.812,-68.848,-33.691,0.000
1737551787.288,-8.301,-1.465,-28.809,87.891,0.000
1737551787.292,-26.855,-30.273,34.668,-53.223,0.000
1737551787.296,-27.832,-50.293,51.270,-318.359,0.000
1737551787.300,13.672,-4.883,-26.367,-139.160,0.000
1737551787.304,11.719,18.066,-71.777,251.953,0.000
1737551787.307,-14.160,-3.418,-46.387,159.668,0.000
1737551787.311,-21.484,-21.973,-1.953,-40.039,0.000
1737551787.315,-1.953,-7.324,-40.039,79.590,0.000
1737551787.319,0.977,-15.625,-32.227,38.574,0.000
1737551787.323,-25.391,-17.578,12.695,-139.648,0.000
1737551787.327,-55.176,-21.484,10.742,-350.586,0.000
1737551787.331,-78.125,-36.133,36.621,-327.148,0.000
1737551787.335,-46.875,-27.832,41.504,-96.191,0.000
1737551787.339,-8.301,0.000,-39.062,-43.457,0.000
1737551787.343,-8.301,4.395,-78.613,115.723,0.000
1737551787.347,-3.906,-4.395,-87.891,89.844,0.000
1737551787.350,-22.949,-5.371,-21.484,11.719,0.000
1737551787.354,-17.090,-0.488,18.066,-61.035,0.000
1737551787.358,-10.742,-16.113,-6.836,-210.449,0.000
1737551787.362,-16.113,-23.926,-31.250,-177.734,0.000
1737551787.366,-24.902,-11.230,-6.348,-125.977,0.000
1737551787.370,-64.453,-16.602,59.082,-51.270,0.000
1737551787.374,-34.180,-1.953,-15.625,-84.961,0.000
1737551787.378,-2.441,-3.418,-44.434,-60.059,0.000
1737551787.382,9.766,-23.438,-31.738,0.488,0.000
1737551787.386,-22.461,-38.086,16.113,-106.445,0.000
1737551787.389,-56.152,-24.414,2.441,-237.305,0.000
1737551787.393,-3.418,-3.906,-63.965,116.699,0.000
1737551787.397,22.461,-3.906,-40.039,243.164,0.000
1737551787.401,-2.930,-9.766,-9.766,-53.711,0.000
1737551787.405,20.996,-9.766,-51.270,-224.121,0.000
1737551787.409,36.133,-7.324,-56.641,-28.320,0.000
1737551787.413,-34.668,-32.715,36.133,-69.336,0.000
1737551787.417,-22.949,-16.602,-20.020,-221.191,0.000
1737551787.421,-16.113,-10.742,-78.613,-130.859,0.000
1737551787.425,-41.504,-23.926,-15.137,-124.512,0.000
1737551787.429,-48.828,-13.184,33.691,-271.484,0.000
1737551787.432,-20.020,2.930,-9.766,-266.602,0.000
1737551787.436,7.812,15.625,-63.965,141.602,0.000
1737551787.440,-12.207,-3.906,-9.766,148.926,0.000
1737551787.444,-56.641,-40.039,53.223,-325.684,0.000
1737551787.448,-63.965,-31.738,49.316,-454.102,0.000
1737551787.452,2.930,7.324,-54.688,42.969,0.000
1737551787.456,-14.160,-6.836,-25.391,110.352,0.000
1737551787.460,-6.348,-24.414,-7.812,-43.945,0.000
1737551787.464,-2.441,-41.504,-12.695,-216.797,0.000
1737551787.468,4.395,-20.508,-57.617,-127.441,0.000
1737551787.472,-12.695,6.348,-50.781,203.613,0.000
1737551787.475,-29.297,11.719,-13.184,-125.000,0.000
1737551787.479,-5.371,7.812,-25.879,-265.625,0.000
1737551787.483,0.000,-10.742,-9.766,-139.160,0.000
1737551787.487,-58.594,-41.016,31.738,-553.223,0.000
1737551787.491,-66.406,-26.855,-5.859,-215.820,0.000
1737551787.495,-15.137,-18.555,-23.926,170.410,0.000
1737551787.499,7.324,-46.875,-33.691,-175.781,0.000
1737551787.503,-14.648,-41.504,-52.246,-175.293,0.000
1737551787.507,-55.176,-5.859,-18.066,-166.992,0.000
1737551787.511,-63.965,17.578,-39.551,-74.219,0.000
1737551787.514,-76.172,-9.277,-5.371,-69.336,0.000
1737551787.518,-102.539,-26.855,6.348,-543.945,0.000
1737551787.522,-119.629,-18.066,-17.090,-312.988,0.000
1737551787.526,-99.609,-7.324,-37.598,95.215,0.000
1737551787.530,-102.539,-6.836,-51.270,-51.758,0.000
1737551787.534,-129.395,-27.832,-1.953,-340.820,0.000
1737551787.538,-105.469,-27.344,-22.949,-188.477,0.000
1737551787.542,-66.895,-18.555,-48.828,-163.086,0.000
1737551787.546,-38.086,-9.277,-48.828,-304.688,0.000
1737551787.550,-46.387,-17.090,-23.926,-163.574,0.000
1737551787.554,-41.016,-21.973,-37.598,76.172,0.000
1737551787.557,-66.895,-18.555,-16.113,-30.273,0.000
1737551787.561,-73.730,-1.465,-14.160,-247.070,0.000
1737551787.565,-63.965,-4.883,-17.578,-300.293,0.000
1737551787.569,-84.473,-37.109,19.531,-236.328,0.000
1737551787.573,-41.992,-9.766,-22.461,-126.953,0.000
1737551787.577,-9.766,-7.324,-25.879,50.293,0.000
1737551787.581,-37.598,-34.668,0.488,21.973,0.000
1737551787.585,-29.785,-17.578,-27.344,-202.637,0.000
1737551787.589,-24.414,-22.461,-9.766,-159.180,0.000
1737551787.593,-41.016,-24.902,-7.324,37.109,0.000
1737551787.597,-57.617,-20.020,-27.344,-112.305,0.000
1737551787.600,-34.180,-7.324,-38.086,-42.969,0.000
1737551787.604,-10.742,-3.906,-48.340,-5.371,0.000
1737551787.608,-27.344,-19.531,-26.855,-361.816,0.000
1737551787.612,-29.297,-22.949,14.160,211.426,0.000
1737551787.616,1.953,-11.230,-14.160,486.328,0.000
1737551787.620,-5.859,-23.926,-15.625,256.348,0.000
1737551787.624,-18.555,-28.809,3.906,69.824,0.000
1737551787.628,9.766,-11.719,-23.926,325.195,0.000
1737551787.632,12.695,-14.160,-9.766,791.504,0.000
1737551787.636,-30.273,-21.973,2.930,550.781,0.000
1737551787.639,17.578,2.930,-66.406,273.438,0.000
1737551787.643,50.781,3.906,-53.223,227.051,0.000
1737551787.647,6.836,-12.207,-14.160,4.395,0.000
1737551787.651,-32.715,-22.949,3.418,-180.176,0.000
1737551787.655,-22.461,-20.996,-0.977,-47.363,0.000
1737551787.659,-1.953,-9.766,-24.902,111.816,0.000
1737551787.663,-23.926,-20.508,0.977,-136.719,0.000
1737551787.667,-11.719,-7.812,-3.906,-179.199,0.000
1737551787.671,13.672,-0.488,-38.574,139.160,0.000
1737551787.675,-34.180,-37.109,0.488,-141.602,0.000
1737551787.679,-50.781,-36.621,9.277,-457.520,0.000
1737551787.682,-44.922,-27.344,0.000,-410.156,0.000
1737551787.686,-9.766,-10.742,-18.555,-177.734,0.000
1737551787.690,37.109,-4.395,-55.176,-41.992,0.000
1737551787.694,1.953,-22.461,-48.340,74.707,0.000
1737551787.698,-24.414,-22.949,-36.133,36.621,0.000
1737551787.702,-19.531,-16.602,-12.695,-159.180,0.000
1737551787.706,-32.227,-19.531,6.348,-198.730,0.000
1737551787.710,-6.836,-12.207,-32.227,-140.625,0.000
1737551787.714,4.883,0.000,-38.574,-84.473,0.000
1737551787.718,-20.508,-11.719,-5.371,32.715,0.000
1737551787.721,-51.270,-34.180,15.137,-255.371,0.000
1737551787.725,-32.715,-14.648,-33.203,-705.078,0.000
1737551787.729,-13.184,-8.301,-35.156,-12.207,0.000
1737551787.733,-33.203,-23.926,26.367,336.426,0.000
1737551787.737,-1.953,-4.883,-25.391,-54.688,0.000
1737551787.741,-42.480,-18.066,-5.371,-411.133,0.000
1737551787.745,-11.719,-20.996,-26.367,-412.598,0.000
1737551787.749,54.688,-3.906,-75.684,131.348,0.000
1737551787.753,28.809,-0.977,-35.156,169.434,0.000
1737551787.757,-11.230,-18.066,6.348,-172.852,0.000
1737551787.761,14.648,-17.578,-7.812,-187.012,0.000
1737551787.764,40.039,-7.324,-30.762,-151.367,0.000
1737551787.768,3.418,-15.625,-8.301,-429.199,0.000
1737551787.772,-20.508,-9.277,-31.250,-415.039,0.000
1737551787.776,14.160,10.742,-77.148,187.500,0.000
1737551787.780,-0.977,-1.465,-12.207,186.035,0.000
1737551787.784,-55.664,-12.207,24.414,-433.594,0.000
1737551787.788,-62.500,-13.672,18.066,-563.477,0.000
1737551787.792,-33.691,-11.719,12.695,-197.266,0.000
1737551787.796,-8.301,-25.879,4.883,65.430,0.000
1737551787.800,-4.883,-28.320,-18.555,-9.277,0.000
1737551787.804,4.395,-2.441,-55.664,-226.074,0.000
1737551787.807,-4.395,-14.160,-19.531,-424.805,0.000
1737551787.811,12.207,-22.949,-50.293,-234.863,0.000
1737551787.815,-14.648,-23.438,-37.109,-90.820,0.000
1737551787.819,9.766,-4.883,-42.969,-61.035,0.000
1737551787.823,30.273,6.348,-33.691,-86.426,0.000
1737551787.827,20.508,2.930,-9.766,-330.078,0.000
1737551787.831,14.648,3.906,-28.320,-385.742,0.000
1737551787.835,-33.691,-11.230,-2.441,-166.992,0.000
1737551787.839,-24.414,-23.438,11.230,-129.395,0.000
1737551787.843,8.301,-11.230,-40.527,5.859,0.000
1737551787.846,-1.465,-10.742,-21.973,-17.090,0.000
1737551787.850,16.113,-22.461,-25.391,-207.520,0.000
1737551787.854,24.902,-14.648,-26.855,-96.680,0.000
1737551787.858,10.254,-22.461,5.859,-254.883,0.000
1737551787.862,2.441,-20.996,-21.484,-299.316,0.000
1737551787.866,6.836,6.836,-54.199,-15.137,0.000
1737551787.870,20.996,9.277,-56.641,51.270,0.000
1737551787.874,-22.461,-19.531,2.441,-0.488,0.000
1737551787.878,-50.293,-31.250,24.414,-134.766,0.000
1737551787.882,17.090,-8.301,-26.367,-116.699,0.000
1737551787.886,26.855,4.395,-31.250,-60.059,0.000
1737551787.889,24.902,8.789,-45.410,115.723,0.000
1737551787.893,38.086,-4.395,-45.410,215.332,0.000
1737551787.897,-4.395,-23.438,-22.949,83.984,0.000
1737551787.901,-46.387,-35.156,6.348,-79.590,0.000
1737551787.905,-29.297,-17.578,-14.648,-266.113,0.000
1737551787.909,-18.066,-7.812,-40.039,185.547,0.000
1737551787.913,-7.324,-18.555,-33.203,384.277,0.000
1737551787.917,-18.066,-39.551,-13.184,148.926,0.000
1737551787.921,-24.414,-38.574,-12.207,104.492,0.000
1737551787.925,9.277,-5.371,-41.016,62.500,0.000
1737551787.929,13.184,2.441,-29.297,72.754,0.000
1737551787.932,-0.488,-14.160,3.418,121.582,0.000
1737551787.936,4.883,-7.324,-14.160,85.449,0.000
1737551787.940,21.484,-11.230,-30.273,160.156,0.000
1737551787.944,33.203,-28.320,-33.691,85.938,0.000
1737551787.948,20.508,-23.926,-30.762,95.215,0.000
1737551787.952,0.977,-8.789,-17.578,267.090,0.000
1737551787.956,-7.812,-8.789,-20.996,119.629,0.000
1737551787.960,-26.367,-17.090,-11.719,-28.320,0.000
1737551787.964,2.441,-17.090,-11.719,-114.746,0.000
1737551787.968,-9.766,-23.926,-21.484,-97.656,0.000
1737551787.971,-47.363,-31.250,-11.230,41.016,0.000
1737551787.975,-20.996,-24.902,-0.977,-45.410,0.000
1737551787.979,32.227,-17.090,-13.672,25.879,0.000
1737551787.983,8.789,-19.043,-12.695,111.816,0.000
1737551787.987,-30.762,-30.762,8.789,-14.160,0.000
1737551787.991,-40.039,-22.461,9.277,-28.320,0.000
1737551787.995,-59.570,-15.137,17.090,-159.668,0.000
1737551787.999,-33.203,-5.859,-28.809,-3.906,0.000
1737551788.003,-3.418,-7.812,-44.434,269.043,0.000
1737551788.007,-12.695,-26.367,-20.020,60.547,0.000
1737551788.011,6.836,-23.438,-13.672,144.531,0.000
1737551788.014,13.672,-13.184,-10.742,248.047,0.000
1737551788.018,-2.930,-16.602,-6.836,92.773,0.000
1737551788.022,-25.391,-28.809,7.812,-33.203,0.000
1737551788.026,-18.555,-31.738,10.742,-214.844,0.000
1737551788.030,5.859,-11.230,-19.531,166.504,0.000
1737551788.034,-3.418,-9.277,-15.137,514.160,0.000
1737551788.038,-13.184,-19.531,5.371,346.680,0.000
1737551788.042,-12.695,-16.113,-1.953,230.957,0.000
1737551788.046,-16.602,-17.578,-3.418,16.602,0.000
1737551788.050,-9.277,-13.672,-13.672,136.230,0.000
1737551788.054,0.488,-19.043,-15.137,321.289,0.000
1737551788.057,-3.418,-28.320,-14.160,193.359,0.000
1737551788.061,-15.625,-33.691,-3.418,189.941,0.000
1737551788.065,24.414,-20.508,5.371,105.469,0.000
1737551788.069,31.738,-1.465,13.184,208.008,0.000
1737551788.073,-11.230,-12.207,26.367,240.723,0.000
1737551788.077,-5.859,-25.391,-5.371,43.945,0.000
1737551788.081,39.551,-22.461,-23.438,352.051,0.000
1737551788.085,22.949,-9.766,-0.977,365.723,0.000
1737551788.089,-2.441,-7.812,-15.137,120.605,0.000
1737551788.093,12.207,-37.598,18.555,234.863,0.000
1737551788.096,31.738,-26.855,-21.973,384.277,0.000
1737551788.100,3.906,-4.883,-32.227,488.281,0.000
1737551788.104,-40.527,-14.160,11.719,423.340,0.000
1737551788.108,-24.902,-20.020,-2.441,364.746,0.000
1737551788.112,2.930,-33.203,-2.930,505.371,0.000
1737551788.116,-8.789,-19.531,1.953,506.348,0.000
1737551788.120,-21.484,-15.137,-7.324,388.672,0.000
1737551788.124,-43.457,-27.344,4.395,247.070,0.000
1737551788.128,-53.711,-36.621,8.301,211.426,0.000
1737551788.132,-22.949,-26.855,-11.230,500.000,0.000
1737551788.136,-4.883,-18.066,-7.812,596.191,0.000
1737551788.139,-7.812,-31.738,0.000,395.020,0.000
1737551788.143,-20.020,-26.855,-3.418,214.355,0.000
1737551788.147,-16.602,-11.230,1.465,108.887,0.000
1737551788.151,-2.930,-15.625,12.207,423.828,0.000
1737551788.155,-6.348,-32.227,14.160,417.480,0.000
1737551788.159,-16.602,-25.879,-5.371,206.055,0.000
1737551788.163,-35.645,-19.043,-18.555,290.527,0.000
1737551788.167,-39.062,-23.926,-17.578,164.062,0.000
1737551788.171,-38.574,-32.227,-13.672,221.680,0.000
1737551788.175,-34.180,-18.555,-9.277,225.098,0.000
1737551788.178,-18.066,-1.465,-15.625,69.824,0.000
1737551788.182,-10.742,-24.414,-20.020,253.906,0.000
1737551788.186,-10.254,-32.715,-1.953,106.934,0.000
1737551788.190,-29.785,-12.695,7.812,105.469,0.000
1737551788.194,-35.156,-1.465,-8.789,319.824,0.000
1737551788.198,-33.203,-17.578,-12.695,323.242,0.000
1737551788.202,-42.969,-23.438,-12.695,276.855,0.000
1737551788.206,-52.734,-10.742,-21.484,72.754,0.000
1737551788.210,-44.434,-12.207,-17.578,176.758,0.000
1737551788.214,-17.090,-9.766,-24.902,353.027,0.000
1737551788.218,-1.465,-6.836,-19.043,230.957,0.000
1737551788.221,-17.090,-20.508,-7.324,178.711,0.000
1737551788.225,-44.434,-21.973,-12.695,70.801,0.000
1737551788.229,-29.297,-2.441,-9.277,159.180,0.000
1737551788.233,-32.715,-15.625,-9.766,316.406,0.000
1737551788.237,-13.672,-42.969,-23.926,187.500,0.000
1737551788.241,25.879,-24.414,-23.438,74.707,0.000
1737551788.245,1.953,-4.883,-20.508,-10.742,0.000
1737551788.249,-16.602,-8.789,-23.926,51.270,0.000
1737551788.253,-37.109,-22.461,-16.113,217.773,0.000
1737551788.257,-58.105,-18.555,-10.742,140.137,0.000
1737551788.261,-49.316,-12.207,-7.812,-28.320,0.000
1737551788.264,-39.551,-14.648,-5.859,29.297,0.000
1737551788.268,-44.922,-27.344,-3.906,-7.812,0.000
1737551788.272,-36.133,-35.645,-14.160,36.621,0.000
1737551788.276,-26.367,-41.504,-6.836,228.516,0.000
1737551788.280,-20.996,-51.270,-12.207,5.371,0.000
1737551788.284,-13.672,-20.508,-17.578,-129.883,0.000
1737551788.288,-28.320,-4.395,0.488,-3.418,0.000
1737551788.292,-41.016,-12.207,-5.859,211.426,0.000
1737551788.296,-16.602,-9.277,-17.090,139.160,0.000
1737551788.300,-24.414,-19.043,-0.488,-26.855,0.000
1737551788.303,-52.246,-25.391,15.625,-73.242,0.000
1737551788.307,-44.434,-20.996,-1.465,-218.750,0.000
1737551788.311,-8.789,-22.949,-13.672,-69.824,0.000
1737551788.315,0.488,-21.484,-22.949,167.480,0.000
1737551788.319,-20.996,-27.832,-23.926,158.203,0.000
1737551788.323,-15.137,-26.855,-10.254,-100.586,0.000
1737551788.327,-5.859,-11.230,-12.695,-123.047,0.000
1737551788.331,-23.926,-1.953,-8.789,51.270,0.000
1737551788.335,-53.223,-12.207,-4.395,63.965,0.000
1737551788.339,-69.336,-16.602,-20.020,26.855,0.000
1737551788.343,-54.688,-22.949,-6.836,-28.809,0.000
1737551788.346,-50.293,-35.645,13.672,-104.980,0.000
1737551788.350,-48.340,-22.461,22.461,33.203,0.000
1737551788.354,-20.020,-2.930,-26.367,39.062,0.000
1737551788.358,1.465,-8.789,-61.523,158.691,0.000
1737551788.362,-12.695,-29.297,-22.949,185.059,0.000
1737551788.366,-38.086,-15.625,-2.930,-29.297,0.000
1737551788.370,-31.250,-2.441,13.184,185.547,0.000
1737551788.374,-1.465,-7.324,-4.883,267.090,0.000
1737551788.378,-11.719,-26.855,-18.555,121.582,0.000
1737551788.382,-46.387,-59.570,19.043,13.184,0.000
1737551788.386,-1.953,-41.992,-9.277,-72.266,0.000
1737551788.389,1.953,-20.508,-12.207,240.723,0.000
1737551788.393,-57.129,-15.137,-14.160,437.988,0.000
1737551788.397,-61.035,-20.020,-15.137,237.305,0.000
1737551788.401,-17.090,-14.648,-21.484,45.410,0.000
1737551788.405,13.672,11.719,-40.039,196.289,0.000
1737551788.409,-9.277,5.371,-21.484,265.137,0.000
1737551788.413,-66.406,-28.320,30.273,250.977,0.000
1737551788.417,-46.875,-29.785,23.438,404.785,0.000
1737551788.421,4.883,-28.320,-24.902,200.684,0.000
1737551788.425,7.324,-24.902,-57.617,1.953,0.000
1737551788.428,-26.367,-11.719,-13.184,184.570,0.000
1737551788.432,-22.461,-5.371,-7.324,504.395,0.000
1737551788.436,-18.555,-7.812,-17.578,431.641,0.000
1737551788.440,-11.719,-4.883,-26.855,333.984,0.000
1737551788.444,-8.789,-6.836,-22.461,178.711,0.000
1737551788.448,-29.785,-33.203,32.227,56.641,0.000
1737551788.452,-43.945,-29.785,37.598,220.703,0.000
1737551788.456,-26.855,-5.371,-62.012,311.523,0.000
1737551788.460,-1.953,-13.672,-71.777,413.574,0.000
1737551788.464,-11.719,-7.812,-14.160,317.871,0.000
1737551788.468,-34.180,-9.766,-1.465,30.273,0.000
1737551788.471,-43.457,-33.691,14.160,141.113,0.000
1737551788.475,-60.547,-41.992,47.363,88.867,0.000
1737551788.479,1.953,3.418,-40.039,280.762,0.000
1737551788.483,9.277,-3.418,-31.250,408.691,0.000
1737551788.487,-25.391,-27.344,-18.555,161.621,0.000
1737551788.491,-1.465,7.324,-73.730,320.801,0.000
1737551788.495,-5.859,11.230,-43.945,394.531,0.000
1737551788.499,27.832,4.395,-55.664,379.883,0.000
1737551788.503,-20.020,-43.457,-13.672,218.750,0.000
1737551788.507,-43.457,-35.645,-40.527,-7.812,0.000
1737551788.510,-35.645,-18.066,-3.418,163.086,0.000
1737551788.514,-42.480,-24.902,61.523,305.176,0.000
1737551788.518,35.156,19.531,-49.316,89.355,0.000
1737551788.522,57.617,20.996,-62.012,276.367,0.000
1737551788.526,20.508,9.277,-62.988,514.160,0.000
1737551788.530,-29.297,4.395,-60.547,459.473,0.000
1737551788.534,-17.578,-1.953,-53.223,396.973,0.000
1737551788.538,-3.906,-28.809,-51.758,258.789,0.000
1737551788.542,27.344,-28.320,-41.504,72.266,0.000
1737551788.546,7.812,-20.996,-22.949,50.293,0.000
1737551788.550,-29.785,-16.113,-41.504,286.133,0.000
1737551788.553,-24.902,-3.418,-20.996,290.527,0.000
1737551788.557,-47.363,-8.789,-4.883,126.953,0.000
1737551788.561,-71.777,-17.578,16.602,107.910,0.000
1737551788.565,-24.902,0.488,-35.156,98.633,0.000
1737551788.569,-17.578,-10.742,-51.758,122.559,0.000
1737551788.573,-16.602,-28.320,-30.273,291.504,0.000
1737551788.577,-11.230,-27.832,-40.527,213.379,0.000
1737551788.581,-27.344,-13.184,-30.273,-83.984,0.000
1737551788.585,-24.902,-2.441,-18.066,31.250,0.000
1737551788.589,-31.738,-23.438,20.508,157.715,0.000
1737551788.593,-39.062,-37.598,44.922,146.973,0.000
1737551788.596,8.301,-4.395,-35.156,159.180,0.000
1737551788.600,27.832,-1.953,-51.270,273.926,0.000
1737551788.604,-1.465,-29.785,-14.160,206.055,0.000
1737551788.608,-13.184,-20.508,-26.855,162.598,0.000
1737551788.612,-27.832,-23.438,-36.621,224.121,0.000
1737551788.616,-27.344,-10.254,-40.039,242.188,0.000
1737551788.620,-21.484,6.836,-30.273,77.148,0.000
1737551788.624,-28.320,-5.859,-14.648,-199.219,0.000
1737551788.628,-31.250,-19.043,5.859,-93.262,0.000
1737551788.632,-29.785,-20.020,-4.395,187.988,0.000
1737551788.635,-22.461,-12.695,-22.949,164.551,0.000
1737551788.639,-4.883,-23.926,-13.672,-18.555,0.000
1737551788.643,2.441,-26.855,-4.395,-154.785,0.000
1737551788.647,-21.973,-21.973,-5.371,-227.051,0.000
1737551788.651,-36.621,-24.902,-15.625,-8.301,0.000
1737551788.655,-38.574,-20.996,-15.625,-116.699,0.000
1737551788.659,-26.855,-13.184,-27.832,-389.648,0.000
1737551788.663,-24.414,-10.254,-25.879,-329.590,0.000
1737551788.667,-33.691,-21.484,-11.230,-260.254,0.000
1737551788.671,-38.574,-19.043,12.207,-143.066,0.000
1737551788.675,-17.578,-22.461,25.879,-152.344,0.000
1737551788.678,-8.301,-22.461,8.301,-334.473,0.000
1737551788.682,-88.867,-33.691,-3.418,-468.262,0.000
1737551788.686,-106.934,-25.879,-17.578,-653.320,0.000
1737551788.690,-43.945,5.859,-42.969,-360.352,0.000
1737551788.694,-57.617,-3.418,-31.250,-56.152,0.000
1737551788.698,-79.102,-18.555,-4.395,-199.219,0.000
1737551788.702,-75.195,-24.902,17.090,-301.270,0.000
1737551788.706,-86.914,-16.602,0.000,-467.285,0.000
1737551788.710,-111.328,-7.812,-7.324,-401.855,0.000
1737551788.714,-120.117,-17.090,-6.348,-241.211,0.000
1737551788.718,-92.773,-27.344,-30.273,-239.258,0.000
1737551788.721,-75.195,-20.020,-24.902,-279.297,0.000
1737551788.725,-93.262,-16.113,-26.367,-431.641,0.000
1737551788.729,-98.145,-24.414,-17.090,-375.977,0.000
1737551788.733,-72.754,-18.555,-3.418,-159.668,0.000
1737551788.737,-76.172,-15.625,-11.230,-231.934,0.000
1737551788.741,-65.430,-28.320,-8.789,-389.160,0.000
1737551788.745,-48.340,-28.320,-1.465,-471.680,0.000
1737551788.749,-59.570,-11.719,-18.066,-314.941,0.000
1737551788.753,-61.035,-15.625,-14.648,-85.938,0.000
1737551788.757,-64.453,-18.066,-15.137,-143.555,0.000
1737551788.760,-51.758,-17.578,-15.625,-240.723,0.000
1737551788.764,-50.293,-40.039,10.254,-495.117,0.000
1737551788.768,-43.945,-37.598,12.207,-468.750,0.000
1737551788.772,-49.805,-25.391,0.488,-129.395,0.000
1737551788.776,-34.180,-27.344,-40.039,-38.086,0.000
1737551788.780,-43.457,-26.855,-30.273,-100.098,0.000
1737551788.784,-64.453,-19.531,4.883,-294.922,0.000
1737551788.788,-44.434,-14.160,-17.578,-235.840,0.000
1737551788.792,-68.359,-11.719,-7.324,-6.348,0.000
1737551788.796,-88.379,-6.836,16.602,-33.691,0.000
1737551788.800,-68.359,-21.484,-5.371,-146.973,0.000
1737551788.803,-39.062,-28.320,-0.488,-166.016,0.000
1737551788.807,-7.324,-6.836,-18.066,-141.113,0.000
1737551788.811,15.625,1.465,-18.555,60.547,0.000
1737551788.815,0.977,-25.391,-5.371,97.656,0.000
1737551788.819,-35.645,-34.668,-19.043,-60.547,0.000
1737551788.823,-20.996,-8.301,-14.648,-122.070,0.000
1737551788.827,-8.789,-11.719,-7.812,-160.156,0.000
1737551788.831,-60.547,-22.461,-19.531,-9.277,0.000
1737551788.835,-82.031,-20.996,-24.414,83.496,0.000
1737551788.839,-31.738,-4.395,-25.391,4.883,0.000
1737551788.843,7.324,-6.836,-16.602,-47.363,0.000
1737551788.846,3.418,-20.020,-12.207,-171.387,0.000
1737551788.850,-2.441,-8.301,-15.625,-32.227,0.000
1737551788.854,9.766,-23.438,-18.066,93.750,0.000
1737551788.858,12.695,-33.691,-5.859,0.977,0.000
1737551788.862,6.836,-8.301,5.859,-36.133,0.000
1737551788.866,-11.719,-1.465,-2.930,-162.109,0.000
1737551788.870,7.324,-10.254,-13.672,5.371,0.000
1737551788.874,23.438,-15.625,-18.555,226.074,0.000
1737551788.878,2.441,-13.184,-8.789,72.266,0.000
1737551788.882,6.836,-20.020,-1.465,-12.695,0.000
1737551788.885,19.043,-18.066,-7.812,-53.223,0.000
1737551788.889,-2.930,-10.742,-14.160,11.230,0.000
1737551788.893,-30.273,-24.902,-21.484,186.035,0.000
1737551788.897,-2.441,-8.789,-24.902,195.801,0.000
1737551788.901,11.719,-0.977,-14.160,111.816,0.000
1737551788.905,4.395,-20.996,-6.348,-14.648,0.000
1737551788.909,-6.836,-6.348,1.465,55.176,0.000
1737551788.913,-24.902,0.488,-5.371,268.066,0.000
1737551788.917,5.859,-9.277,-36.621,257.324,0.000
1737551788.921,2.441,-23.926,-32.715,176.758,0.000
1737551788.925,-50.781,-36.621,-8.301,59.570,0.000
1737551788.928,-56.641,-19.531,-2.930,115.234,0.000
1737551788.932,-19.531,-8.301,-15.137,339.355,0.000
1737551788.936,-11.230,-6.836,-13.672,296.387,0.000
1737551788.940,-14.648,-12.695,-8.301,247.070,0.000
1737551788.944,-41.016,-26.855,-25.879,151.367,0.000
1737551788.948,-67.383,-22.949,-21.484,106.934,0.000
1737551788.952,-42.480,-15.625,-3.418,389.160,0.000
1737551788.956,1.465,-20.508,-21.973,453.613,0.000
1737551788.960,0.977,-17.090,-31.738,322.266,0.000
1737551788.964,-62.500,-21.973,-20.020,208.496,0.000
1737551788.967,-78.125,-29.785,-16.602,158.203,0.000
1737551788.971,-61.035,-18.555,-15.625,327.637,0.000
1737551788.975,-56.152,-14.648,-23.926,407.715,0.000
1737551788.979,-52.734,-13.672,-20.020,339.844,0.000
1737551788.983,-67.871,-22.461,-24.902,191.406,0.000
1737551788.987,-56.641,-40.039,-32.715,67.383,0.000
1737551788.991,-42.480,-37.598,-24.902,279.297,0.000
1737551788.995,-69.336,-29.785,-26.855,388.672,0.000
1737551788.999,-70.801,-31.738,-9.277,312.012,0.000
1737551789.003,-30.762,-28.320,-1.465,265.137,0.000
1737551789.007,-14.648,-24.902,-15.137,148.926,0.000
1737551789.010,-27.344,-10.742,-17.578,283.691,0.000
1737551789.014,-24.414,1.953,-25.879,389.648,0.000
1737551789.018,-38.574,-7.324,-32.227,278.809,0.000
1737551789.022,-74.707,-30.762,-28.809,243.652,0.000
1737551789.026,-71.777,-32.715,-28.320,168.945,0.000
1737551789.030,-41.016,-7.812,-15.137,259.766,0.000
1737551789.034,-35.645,0.000,4.883,354.492,0.000
1737551789.038,-40.527,-9.766,5.371,262.207,0.000
1737551789.042,-35.156,-19.531,-15.625,217.773,0.000
1737551789.046,-33.203,-23.926,-14.648,129.395,0.000
1737551789.050,-11.719,-20.996,-6.348,206.543,0.000
1737551789.053,0.488,-12.695,-17.090,339.844,0.000
1737551789.057,-19.043,-10.254,-18.555,239.746,0.000
1737551789.061,-67.871,-18.555,-21.973,131.348,0.000
1737551789.065,-50.293,-26.855,-25.879,-3.906,0.000
1737551789.069,17.090,-15.137,-22.949,11.230,0.000
1737551789.073,8.789,-13.672,-17.578,204.590,0.000
1737551789.077,-12.207,-14.160,-5.371,135.254,0.000
1737551789.081,11.230,-7.812,-7.812,36.133,0.000
1737551789.085,0.977,-15.137,-12.207,-90.332,0.000
1737551789.089,-17.578,-32.227,-17.578,-95.703,0.000
1737551789.092,0.977,-33.203,-14.648,142.090,0.000
1737551789.096,-8.301,-18.555,-12.695,133.789,0.000
1737551789.100,-32.227,-10.742,-16.113,15.137,0.000
1737551789.104,-37.598,-15.625,-12.695,-74.219,0.000
1737551789.108,-13.672,-10.742,-20.508,-43.945,0.000
1737551789.112,-23.438,-11.719,-26.367,146.973,0.000
1737551789.116,-43.945,-18.066,-22.461,79.590,0.000
1737551789.120,-40.039,-15.625,-24.902,-3.418,0.000
1737551789.124,-28.320,-18.066,-14.648,-82.520,0.000
1737551789.128,-48.828,-27.344,-11.719,-185.059,0.000
1737551789.132,-62.012,-23.926,-21.973,-3.418,0.000
1737551789.135,-52.246,-16.113,-15.625,82.520,0.000
1737551789.139,-27.832,-20.508,-10.254,15.625,0.000
1737551789.143,-62.988,-29.297,-20.020,-94.238,0.000
1737551789.147,-88.867,-20.996,-25.879,-161.133,0.000
1737551789.151,-82.520,-11.719,-2.441,-9.277,0.000
1737551789.155,-64.453,-20.996,19.531,-82.031,0.000
1737551789.159,-27.344,-24.902,-20.020,-46.387,0.000
1737551789.163,-32.715,-28.809,-40.527,88.867,0.000
1737551789.167,-40.527,-26.367,-26.855,-58.594,0.000
1737551789.171,-17.578,-27.832,-41.016,-13.672,0.000
1737551789.175,14.648,-31.738,-22.949,48.828,0.000
1737551789.178,-20.508,-26.855,8.301,-89.355,0.000
1737551789.182,-39.062,-13.184,2.441,-162.109,0.000
1737551789.186,4.883,-7.812,-9.766,-245.117,0.000
1737551789.190,2.441,-9.277,-7.324,-117.676,0.000
1737551789.194,-65.918,-15.625,-2.930,54.199,0.000
1737551789.198,-83.984,-23.438,-0.977,-39.062,0.000
1737551789.202,-45.410,-15.625,-10.254,-126.953,0.000
1737551789.206,-12.695,-18.066,-41.016,-241.211,0.000
1737551789.210,-9.277,-22.949,-35.645,-148.926,0.000
1737551789.214,-34.668,0.488,-6.348,59.570,0.000
1737551789.217,-53.711,7.324,-2.441,-107.422,0.000
1737551789.221,-48.340,-6.348,-4.883,-286.621,0.000
1737551789.225,-28.809,-8.301,2.930,-412.598,0.000
1737551789.229,-23.438,-16.602,-7.324,-318.359,0.000
1737551789.233,-17.090,-33.691,-18.066,-99.609,0.000
1737551789.237,0.488,-33.203,-7.324,-237.793,0.000
1737551789.241,17.578,-13.184,-1.953,-331.055,0.000
1737551789.245,-27.344,-16.113,-5.371,-419.922,0.000
1737551789.249,-26.855,-17.578,-8.789,-437.012,0.000
1737551789.253,-9.766,-12.207,-7.812,-229.004,0.000
1737551789.257,-1.465,-20.996,-22.461,-293.457,0.000
1737551789.260,0.977,-25.391,-37.598,-352.051,0.000
1737551789.264,-92.773,-32.715,-22.949,-430.664,0.000
1737551789.268,-100.098,-21.973,-15.625,-500.977,0.000
1737551789.272,-52.734,-10.742,-23.438,-258.301,0.000
1737551789.276,-52.734,-24.414,-9.277,-259.766,0.000
1737551789.280,-40.527,-21.973,1.953,-402.344,0.000
1737551789.284,-35.645,-20.020,-17.578,-510.254,0.000
1737551789.288,-60.059,-22.949,-28.809,-565.918,0.000
1737551789.292,-64.453,-16.602,-24.414,-373.047,0.000
1737551789.296,-60.547,-19.043,-25.879,-416.504,0.000
1737551789.300,-80.566,-15.137,-23.926,-551.758,0.000
1737551789.303,-73.730,-10.742,-13.672,-494.629,0.000
1737551789.307,-33.691,-13.672,-23.438,-553.711,0.000
1737551789.311,1.465,-11.230,-38.086,-421.387,0.000
1737551789.315,-1.953,-12.207,-30.762,-364.746,0.000
1737551789.319,-35.645,-17.578,-16.602,-494.629,0.000
1737551789.323,-62.012,-27.344,-18.066,-565.918,0.000
1737551789.327,-38.574,-23.438,-26.367,-669.434,0.000
1737551789.331,-16.113,-14.648,-13.184,-527.832,0.000
1737551789.335,-25.391,-8.301,-15.625,-442.871,0.000
1737551789.339,-61.523,-5.371,-29.297,-527.832,0.000
1737551789.342,-54.199,-23.438,-20.996,-566.406,0.000
1737551789.346,-40.039,-26.855,-28.320,-676.758,0.000
1737551789.350,-29.785,-5.859,-26.855,-546.875,0.000
1737551789.354,-14.648,-2.930,-10.254,-363.281,0.000
1737551789.358,-10.742,-16.113,-8.789,-467.285,0.000
1737551789.362,9.766,-16.113,-20.996,-557.129,0.000
1737551789.366,15.137,-13.672,-26.855,-640.625,0.000
1737551789.370,1.465,-1.465,-15.137,-557.129,0.000
1737551789.374,10.742,-1.953,-13.184,-406.250,0.000
1737551789.378,40.527,-9.766,-20.020,-441.895,0.000
1737551789.382,62.012,-11.230,-21.484,-497.559,0.000
1737551789.385,6.836,-8.789,-18.555,-622.559,0.000
1737551789.389,-39.551,-2.441,-12.207,-556.152,0.000
1737551789.393,0.488,-13.672,-9.766,-335.938,0.000
1737551789.397,0.488,-25.391,0.000,-342.285,0.000
1737551789.401,-3.418,-5.859,-7.324,-429.199,0.000
1737551789.405,12.207,7.324,-25.391,-575.195,0.000
1737551789.409,-33.691,-7.324,-20.020,-577.148,0.000
1737551789.413,-70.801,-17.578,-19.043,-319.824,0.000
1737551789.417,-49.805,-18.555,-23.926,-317.383,0.000
1737551789.421,-20.020,-27.832,-23.438,-463.379,0.000
1737551789.424,-40.039,-21.973,-21.484,-549.805,0.000
1737551789.428,-54.688,-17.090,-20.020,-581.055,0.000
1737551789.432,-28.320,-13.184,-19.531,-344.727,0.000
1737551789.436,-23.926,-1.465,-27.344,-349.609,0.000
1737551789.440,-39.062,-11.719,-26.855,-514.160,0.000
1737551789.444,-41.504,-24.414,-9.766,-559.082,0.000
1737551789.448,-63.477,-23.926,-9.766,-549.316,0.000
1737551789.452,-77.637,-17.090,-18.555,-331.055,0.000
1737551789.456,-64.941,-20.508,-25.391,-330.566,0.000
1737551789.460,-50.781,-30.273,-26.855,-434.082,0.000
1737551789.464,-43.457,-27.344,-18.066,-446.777,0.000
1737551789.467,-41.504,-19.531,-20.508,-541.504,0.000
1737551789.471,13.672,-12.695,-37.598,-373.047,0.000
1737551789.475,42.969,-7.812,-41.504,-291.992,0.000
1737551789.479,-24.902,-15.137,-25.879,-417.480,0.000
1737551789.483,-22.949,-28.320,-19.531,-461.426,0.000
1737551789.487,-37.109,-48.828,-11.719,-520.020,0.000
1737551789.491,-84.473,-22.949,-13.672,-405.273,0.000
1737551789.495,-51.758,7.812,-17.578,-282.715,0.000
1737551789.499,-47.363,-6.836,-9.766,-392.090,0.000
1737551789.503,-75.195,-17.578,-14.648,-485.840,0.000
1737551789.507,-38.086,-21.484,-14.160,-535.156,0.000
1737551789.510,1.465,-30.273,-3.418,-359.863,0.000
1737551789.514,-3.418,-30.273,-4.395,-236.328,0.000
1737551789.518,-20.996,-30.273,-15.625,-355.957,0.000
1737551789.522,-34.180,-26.367,-27.344,-421.387,0.000
1737551789.526,-48.828,-21.484,-28.809,-554.688,0.000
1737551789.530,-41.992,-22.461,-14.160,-433.594,0.000
1737551789.534,-19.043,-21.484,-0.488,-197.754,0.000
1737551789.538,-18.555,-9.277,-1.465,-318.359,0.000
1737551789.542,-38.086,-16.113,-4.395,-404.297,0.000
1737551789.546,-32.715,-24.902,-10.254,-473.145,0.000
1737551789.549,-53.711,-22.949,-7.812,-446.289,0.000
1737551789.553,-47.363,-29.297,-16.602,-273.438,0.000
1737551789.557,3.906,-35.156,-31.738,-312.988,0.000
1737551789.561,52.246,-32.715,-26.367,-392.578,0.000
1737551789.565,75.684,-28.809,-15.625,-506.836,0.000
1737551789.569,12.695,-20.996,-12.695,-484.863,0.000
1737551789.573,-74.219,-14.160,-3.906,-287.598,0.000
1737551789.577,-98.633,-15.137,-6.348,-271.973,0.000
1737551789.581,-80.566,-8.789,-17.578,-370.605,0.000
1737551789.585,-35.156,-12.207,-19.043,-515.625,0.000
1737551789.589,-14.648,-29.297,-20.996,-485.352,0.000
1737551789.592,-11.230,-23.438,-23.926,-270.996,0.000
1737551789.596,-3.418,-25.391,-12.207,-325.684,0.000
1737551789.600,12.207,-37.598,-9.766,-430.176,0.000
1737551789.604,-15.137,-25.391,-17.578,-494.141,0.000
1737551789.608,-45.898,-18.555,-8.301,-521.973,0.000
1737551789.612,-10.254,-14.648,-5.371,-307.617,0.000
1737551789.616,-21.484,-14.160,-9.766,-296.387,0.000
1737551789.620,-41.016,-17.578,-9.766,-456.543,0.000
1737551789.624,-35.156,-25.391,-7.812,-526.367,0.000
1737551789.628,-28.320,-27.344,-16.602,-561.523,0.000
1737551789.632,-26.367,-18.555,-26.367,-379.395,0.000
1737551789.635,-11.230,-13.672,-20.020,-261.230,0.000
1737551789.639,14.160,-16.113,-19.531,-357.910,0.000
1737551789.643,21.484,-30.762,-30.273,-485.840,0.000
1737551789.647,2.930,-33.691,-28.320,-577.637,0.000
1737551789.651,5.371,-29.297,-18.555,-414.062,0.000
1737551789.655,18.066,-10.742,-10.742,-294.434,0.000
1737551789.659,-11.719,-7.812,-17.090,-428.711,0.000
1737551789.663,-27.832,-22.461,-35.645,-483.887,0.000
1737551789.667,-16.602,-22.461,-31.738,-579.590,0.000
1737551789.671,-25.879,-32.227,-20.020,-472.656,0.000
1737551789.674,2.441,-26.367,-21.484,-295.898,0.000
1737551789.678,-65.430,-19.531,-22.949,-393.066,0.000
1737551789.682,-111.816,-22.461,-8.789,-434.082,0.000
1737551789.686,-54.688,-12.695,-7.812,-538.086,0.000
1737551789.690,-54.199,-15.137,-17.578,-491.699,0.000
1737551789.694,-64.941,-27.832,-16.113,-351.562,0.000
1737551789.698,-40.527,-18.555,-25.391,-414.062,0.000
1737551789.702,-41.016,-10.254,-27.832,-448.242,0.000
1737551789.706,-60.547,-17.578,-28.320,-669.922,0.000
1737551789.710,-44.434,-12.695,-20.508,-579.590,0.000
1737551789.714,-63.477,-15.137,-20.020,-315.430,0.000
1737551789.717,-66.406,-26.367,-30.273,-416.504,0.000
1737551789.721,-46.875,-23.926,-24.902,-430.664,0.000
1737551789.725,-28.809,-20.508,-16.602,-599.121,0.000
1737551789.729,-71.289,-17.090,-24.902,-559.082,0.000
1737551789.733,-88.867,-10.742,-39.551,-262.695,0.000
1737551789.737,37.598,-4.395,-45.410,-335.938,0.000
1737551789.741,28.809,-13.672,-36.133,-524.414,0.000
1737551789.745,13.672,-30.273,-25.879,-650.879,0.000
1737551789.749,-13.184,-21.973,-17.090,-481.934,0.000
1737551789.753,-81.055,-20.508,-10.742,-287.109,0.000
1737551789.757,-115.234,-26.367,-12.695,-331.543,0.000
1737551789.760,-124.023,-10.742,-15.625,-363.281,0.000
1737551789.764,-49.316,-8.301,-14.648,-471.191,0.000
1737551789.768,-2.930,-17.090,-19.043,-543.945,0.000
1737551789.772,-9.277,-12.207,-14.648,-312.500,0.000
1737551789.776,-18.555,-18.066,-11.230,-233.887,0.000
1737551789.780,-12.207,-15.625,-18.555,-363.770,0.000
1737551789.784,4.883,-6.836,-24.902,-467.285,0.000
1737551789.788,0.488,-23.926,-27.832,-506.348,0.000
1737551789.792,-16.113,-26.367,-24.414,-324.219,0.000
1737551789.796,-6.836,-9.766,-13.184,-299.805,0.000
1737551789.799,21.484,0.000,-18.066,-395.996,0.000
1737551789.803,12.695,2.930,-29.785,-494.629,0.000
1737551789.807,-128.906,-21.973,-20.508,-805.176,0.000
1737551789.811,-92.773,-29.785,-10.254,-608.398,0.000
1737551789.815,-24.902,-6.348,-11.719,-257.324,0.000
1737551789.819,-114.746,-4.395,-27.344,-312.500,0.000
1737551789.823,-15.625,-2.930,-23.926,-407.227,0.000
1737551789.827,41.992,-2.441,-41.016,-634.277,0.000
1737551789.831,-2.930,-7.324,-32.227,-607.422,0.000
1737551789.835,-3.418,-11.230,3.418,-447.266,0.000
1737551789.839,-18.066,-17.578,-4.395,-483.887,0.000
1737551789.842,-61.035,-17.090,-8.789,-635.254,0.000
1737551789.846,-54.688,-13.184,-4.883,-805.664,0.000
1737551789.850,-27.344,-3.906,-14.160,-676.270,0.000
1737551789.854,-53.711,-5.859,-13.672,-493.652,0.000
1737551789.858,-50.293,-14.160,-11.230,-581.543,0.000
1737551789.862,-16.113,-13.672,-25.879,-630.371,0.000
1737551789.866,5.371,-14.160,-31.738,-715.820,0.000
1737551789.870,-9.277,-10.742,-22.949,-651.367,0.000
1737551789.874,-38.574,-23.438,-17.090,-499.512,0.000
1737551789.878,-30.273,-37.109,-23.926,-589.844,0.000
1737551789.881,-5.859,-19.531,-20.508,-601.562,0.000
1737551789.885,-0.488,-11.230,-15.137,-707.520,0.000
1737551789.889,-63.477,-23.926,-17.090,-856.934,0.000
1737551789.893,-83.984,-23.438,-13.184,-746.094,0.000
1737551789.897,-46.387,-22.461,-11.719,-698.730,0.000
1737551789.901,-87.891,-25.391,-1.953,-876.465,0.000
1737551789.905,-176.270,-12.695,-7.812,-1000.000,0.000
1737551789.909,-124.512,-19.043,-9.766,-958.496,0.000
1737551789.913,-15.137,-24.414,-8.301,-758.789,0.000
1737551789.917,36.133,2.441,-17.578,-744.629,0.000
1737551789.921,21.484,7.812,-11.719,-890.625,0.000
1737551789.924,-17.578,-10.742,-9.766,-992.676,0.000
1737551789.928,8.789,-14.648,-26.855,-1000.000,0.000
1737551789.932,-1.465,-9.277,-33.203,-892.090,0.000
1737551789.936,-30.273,-12.695,-20.508,-842.773,0.000
1737551789.940,-20.020,-22.949,-9.766,-915.527,0.000
1737551789.944,-31.250,-29.785,-12.695,-977.539,0.000
1737551789.948,-44.434,-23.926,-30.273,-1000.000,0.000
1737551789.952,-44.922,-10.254,-34.180,-958.496,0.000
1737551789.956,-16.113,-6.836,-12.695,-890.137,0.000
1737551789.960,-11.719,-21.973,0.977,-972.656,0.000
1737551789.964,-24.414,-30.762,-18.555,-937.012,0.000
1737551789.967,-12.695,-23.926,-40.039,-954.590,0.000
1737551789.971,-3.418,-18.555,-34.668,-873.047,0.000
1737551789.975,-6.348,-16.602,-10.254,-750.488,0.000
1737551789.979,-4.395,-7.812,-5.859,-773.926,0.000
1737551789.983,-10.254,-4.883,-20.508,-840.332,0.000
1737551789.987,-34.668,-24.414,-15.137,-975.098,0.000
1737551789.991,-27.344,-29.785,-6.348,-836.914,0.000
1737551789.995,-46.387,-13.184,-26.367,-691.406,0.000
1737551789.999,-55.176,-17.090,-43.945,-678.711,0.000
1737551790.003,-15.625,-18.066,-13.672,-697.266,0.000
1737551790.006,2.930,-2.930,-0.488,-866.211,0.000
1737551790.010,17.090,4.395,-3.418,-733.398,0.000
1737551790.014,24.414,-8.789,-9.766,-530.273,0.000
1737551790.018,38.574,-20.020,-30.273,-661.133,0.000
1737551790.022,31.250,-20.996,-29.297,-750.488,0.000
1737551790.026,-28.809,-23.438,-19.531,-784.180,0.000
1737551790.030,-46.875,-19.043,-20.020,-711.914,0.000
1737551790.034,-19.531,-13.672,-21.973,-528.809,0.000
1737551790.038,-29.297,-17.090,-17.090,-561.523,0.000
1737551790.042,-32.715,-19.531,-6.836,-587.891,0.000
1737551790.046,-41.992,-35.156,-15.625,-675.293,0.000
1737551790.049,-69.824,-42.969,-27.832,-606.934,0.000
1737551790.053,-51.758,-16.602,-19.043,-393.066,0.000
1737551790.057,4.883,-8.301,-18.555,-455.566,0.000
1737551790.061,-25.879,-26.367,-19.043,-564.941,0.000
1737551790.065,-35.645,-21.484,-22.461,-649.902,0.000
1737551790.069,21.973,-4.395,-38.086,-645.996,0.000
1737551790.073,-2.930,-18.066,-33.691,-416.016,0.000
1737551790.077,-56.152,-25.391,-19.043,-460.938,0.000
1737551790.081,-78.613,-6.836,-13.184,-554.688,0.000
1737551790.085,-66.895,-11.230,-8.789,-636.719,0.000
1737551790.089,-26.855,-27.344,-16.113,-631.836,0.000
1737551790.092,16.602,-18.066,-28.320,-407.715,0.000
1737551790.096,22.461,-17.090,-16.602,-353.516,0.000
1737551790.100,-0.488,-14.160,-11.230,-429.688,0.000
1737551790.104,-39.062,-3.418,-24.414,-505.859,0.000
1737551790.108,-56.641,4.395,-37.598,-528.809,0.000
1737551790.112,-27.832,-3.418,-30.762,-375.488,0.000
1737551790.116,15.625,-12.207,-25.879,-336.914,0.000
1737551790.120,25.391,-21.484,-25.391,-450.195,0.000
1737551790.124,-0.977,-27.832,-9.277,-483.398,0.000
1737551790.128,-19.531,-20.996,-11.719,-513.672,0.000
1737551790.131,-32.227,-23.926,-20.020,-374.023,0.000
1737551790.135,-30.762,-27.832,-18.555,-287.598,0.000
1737551790.139,-45.898,-26.367,-26.367,-377.441,0.000
1737551790.143,-69.824,-15.625,-25.391,-407.715,0.000
1737551790.147,-26.367,-23.438,-8.789,-498.535,0.000
1737551790.151,20.508,-12.207,-25.391,-373.535,0.000
1737551790.155,9.277,-6.836,-31.738,-251.953,0.000
1737551790.159,-25.391,-9.277,-10.742,-282.227,0.000
1737551790.163,-16.602,-2.441,-15.137,-349.121,0.000
1737551790.167,-23.926,-12.695,-20.996,-517.578,0.000
1737551790.171,-42.480,-19.531,-16.113,-368.164,0.000
1737551790.174,-38.086,-11.719,-21.484,-179.688,0.000
1737551790.178,-50.293,-9.766,-36.621,-245.117,0.000
1737551790.182,-11.719,-21.484,-24.414,-274.902,0.000
1737551790.186,22.949,-14.648,-13.672,-403.809,0.000
1737551790.190,3.418,-6.836,-10.742,-320.801,0.000
1737551790.194,-4.395,-8.789,-0.488,-100.098,0.000
1737551790.198,-17.578,-17.090,-4.395,-168.945,0.000
1737551790.202,-6.836,-16.602,-23.926,-291.016,0.000
1737551790.206,5.371,-15.625,-15.625,-357.910,0.000
1737551790.210,9.766,-16.602,3.906,-281.738,0.000
1737551790.214,40.039,-26.367,-14.160,-126.465,0.000
1737551790.217,38.086,-21.973,-32.227,-176.758,0.000
1737551790.221,-0.488,-2.441,-11.230,-265.625,0.000
1737551790.225,26.367,-10.254,3.418,-295.410,0.000
1737551790.229,38.086,-2.930,-0.977,-271.973,0.000
1737551790.233,0.977,6.348,-0.488,-96.191,0.000
1737551790.237,-1.465,-5.371,-8.301,-88.379,0.000
1737551790.241,-3.906,-18.555,-16.113,-250.977,0.000
1737551790.245,-16.602,-30.762,-20.020,-362.793,0.000
1737551790.249,-18.555,-20.020,-23.438,-352.051,0.000
1737551790.253,5.371,-10.742,-18.555,-146.973,0.000
1737551790.256,29.297,-22.949,-24.414,-114.746,0.000
1737551790.260,5.859,-10.742,-34.180,-174.805,0.000
1737551790.264,-3.418,2.441,-21.484,-265.625,0.000
1737551790.268,-4.395,-11.719,-10.742,-357.910,0.000
1737551790.272,-18.555,-19.531,-8.301,-113.281,0.000
1737551790.276,-9.277,-19.531,-16.113,-36.133,0.000
1737551790.280,37.598,-7.324,-15.137,-145.508,0.000
1737551790.284,13.184,1.953,-11.719,-207.520,0.000
1737551790.288,-6.836,-7.324,-12.207,-313.477,0.000
1737551790.292,11.230,-15.625,-15.137,-118.164,0.000
1737551790.296,-8.789,-22.461,-20.996,-26.367,0.000
1737551790.299,1.953,-23.926,-17.578,-140.625,0.000
1737551790.303,-5.371,-21.484,-20.996,-163.086,0.000
1737551790.307,19.043,-26.367,-16.602,-264.648,0.000
1737551790.311,65.430,-36.621,-15.625,-139.160,0.000
1737551790.315,-1.953,-23.926,-12.207,-13.672,0.000
1737551790.319,-40.527,-13.184,-1.953,-117.188,0.000
1737551790.323,-22.949,-15.625,-10.742,-208.008,0.000
1737551790.327,-62.500,-17.090,-18.066,-354.004,0.000
1737551790.331,-75.684,-18.555,-17.090,-237.305,0.000
1737551790.335,-65.430,-20.020,-16.113,-62.988,0.000
1737551790.338,-28.320,-17.578,-11.719,-84.961,0.000
1737551790.342,-20.508,-24.902,-15.137,-143.066,0.000
1737551790.346,-70.801,-36.621,-23.926,-366.211,0.000
1737551790.350,-86.426,-37.598,-16.113,-321.777,0.000
1737551790.354,-69.824,-35.645,-11.230,-121.094,0.000
1737551790.358,-51.758,-36.621,-17.090,-168.457,0.000
1737551790.362,-24.902,-27.832,-13.184,-185.547,0.000
1737551790.366,-35.156,-19.531,-15.625,-293.945,0.000
1737551790.370,-52.734,-19.531,-20.020,-258.301,0.000
1737551790.374,-76.172,-10.742,-17.090,-4.883,0.000
1737551790.378,-112.305,-18.066,-16.602,-72.266,0.000
1737551790.381,-100.586,-23.438,-21.973,-160.156,0.000
1737551790.385,-53.223,-14.648,-12.207,-236.328,0.000
1737551790.389,-45.898,-25.391,-4.395,-265.137,0.000
1737551790.393,-65.918,-47.852,-17.578,-32.715,0.000
1737551790.397,-43.945,-42.969,-21.484,-24.902,0.000
1737551790.401,-0.977,-33.691,-20.508,-114.258,0.000
1737551790.405,-4.395,-20.020,-36.133,-186.523,0.000
1737551790.409,-45.898,-5.859,-31.250,-210.938,0.000
1737551790.413,-65.918,-11.719,-11.230,14.648,0.000
1737551790.417,-34.668,-18.555,-11.230,101.074,0.000
1737551790.421,-21.484,-10.254,-26.855,3.418,0.000
1737551790.424,-20.996,-18.555,-29.297,-147.461,0.000
1737551790.428,0.488,-24.414,-33.203,-223.145,0.000
1737551790.432,15.137,-24.414,-22.949,74.219,0.000
1737551790.436,22.461,-32.227,-0.488,104.980,0.000
1737551790.440,-1.465,-28.809,-1.465,-86.426,0.000
1737551790.444,-36.621,-5.859,-8.301,-90.820,0.000
1737551790.448,-55.664,-4.395,-19.043,-132.812,0.000
1737551790.452,-28.809,-6.836,-23.926,49.316,0.000
1737551790.456,0.977,-4.395,-15.625,163.574,0.000
1737551790.460,15.137,-11.230,-28.809,1.953,0.000
1737551790.463,38.086,-10.254,-35.156,-90.820,0.000
1737551790.467,1.465,-13.672,-18.066,-172.363,0.000
1737551790.471,-11.719,-15.137,-9.277,-21.973,0.000
1737551790.475,-0.488,-13.672,-23.438,120.117,0.000
1737551790.479,2.441,-11.230,-47.363,96.680,0.000
1737551790.483,-8.789,-13.184,-30.273,-9.766,0.000
1737551790.487,-15.137,-13.672,-19.531,-186.523,0.000
1737551790.491,-4.883,-8.789,-32.227,-3.418,0.000
1737551790.495,0.488,-12.207,-32.227,187.012,0.000
1737551790.499,21.973,-13.672,-36.133,78.613,0.000
1737551790.503,51.270,3.418,-39.551,-18.066,0.000
1737551790.506,34.668,4.883,-37.109,-112.305,0.000
1737551790.510,0.977,-8.789,-28.809,-31.738,0.000
1737551790.514,-13.184,-4.883,-22.949,132.324,0.000
1737551790.518,2.441,-9.766,-39.062,78.125,0.000
1737551790.522,10.254,-26.855,-49.805,-1.953,0.000
1737551790.526,9.766,-12.207,-39.551,-100.098,0.000
1737551790.530,-0.977,-9.277,-18.555,-21.484,0.000
1737551790.534,-11.719,-21.973,-4.395,165.527,0.000
1737551790.538,-8.301,-13.184,-7.324,109.375,0.000
1737551790.542,-8.789,-12.207,-6.836,2.930,0.000
1737551790.546,-13.672,-28.809,-17.090,-113.281,0.000
1737551790.549,-14.648,-29.297,-25.879,-64.453,0.000
1737551790.553,-10.254,-11.719,-9.277,160.645,0.000
1737551790.557,-8.789,-14.160,-13.184,123.535,0.000
1737551790.561,-5.371,-18.555,-23.926,24.902,0.000
1737551790.565,0.000,-7.324,-24.414,-68.359,0.000
1737551790.569,-9.277,-7.812,-20.996,-66.406,0.000
1737551790.573,-11.719,-18.555,-11.230,175.781,0.000
1737551790.577,-14.160,-12.695,-11.230,164.062,0.000
1737551790.581,-20.996,-10.742,-6.836,18.066,0.000
1737551790.585,-15.625,-24.414,-17.578,-54.688,0.000
1737551790.588,-17.090,-29.297,-33.691,-79.590,0.000
1737551790.592,-3.418,-11.719,-22.461,129.883,0.000
1737551790.596,-4.395,-5.371,-13.672,127.930,0.000
1737551790.600,-11.719,-22.949,-12.207,44.434,0.000
1737551790.604,33.691,-20.020,-29.785,26.367,0.000
1737551790.608,22.949,-18.066,-38.086,-101.074,0.000
1737551790.612,-20.020,-25.879,-9.277,79.102,0.000
1737551790.616,-11.230,-14.160,3.906,170.410,0.000
1737551790.620,41.016,-13.672,-5.371,78.613,0.000
1737551790.624,23.926,-23.926,-6.348,22.461,0.000
1737551790.628,-23.926,-17.090,-25.391,-82.031,0.000
1737551790.631,1.465,-0.488,-34.668,72.266,0.000
1737551790.635,7.324,-11.719,-12.695,196.777,0.000
1737551790.639,-20.996,-17.578,-11.719,101.074,0.000
1737551790.643,-33.203,-8.301,-23.926,65.430,0.000
1737551790.647,-45.410,-21.484,-16.113,17.090,0.000
1737551790.651,-23.926,-16.113,-4.395,126.953,0.000
1737551790.655,-18.555,-14.648,-19.043,220.703,0.000
1737551790.659,6.348,-17.090,-32.715,107.910,0.000
1737551790.663,26.367,-9.766,-20.020,49.316,0.000
1737551790.667,-30.762,-21.484,-14.648,-83.496,0.000
1737551790.671,-13.672,-27.344,-25.391,-3.906,0.000
1737551790.674,39.551,-16.602,-27.832,199.707,0.000
1737551790.678,38.574,-12.207,-20.020,141.113,0.000
1737551790.682,48.828,-2.930,-18.066,73.730,0.000
1737551790.686,17.090,3.906,-13.184,-35.645,0.000
1737551790.690,-7.324,-16.113,-9.277,-13.184,0.000
1737551790.694,-12.207,-36.621,-0.977,210.938,0.000
1737551790.698,-32.715,-30.762,10.254,166.016,0.000
1737551790.702,-0.977,-14.160,4.883,36.133,0.000
1737551790.706,14.160,-13.672,-7.812,-89.844,0.000
1737551790.710,-3.906,-26.855,-17.090,-54.199,0.000
1737551790.713,9.277,-23.438,-16.113,191.895,0.000
1737551790.717,27.344,-0.977,-20.508,166.504,0.000
1737551790.721,16.602,3.418,-19.043,51.270,0.000
1737551790.725,-7.812,-4.395,-18.066,-81.055,0.000
1737551790.729,-2.930,-9.277,-35.156,-94.727,0.000
1737551790.733,37.598,-15.625,-34.668,147.461,0.000
1737551790.737,13.672,-15.625,-12.695,127.441,0.000
1737551790.741,-16.602,-4.395,-7.812,68.359,0.000
1737551790.745,-31.250,-13.672,-9.766,-33.691,0.000
1737551790.749,-37.109,-30.762,-21.973,-130.859,0.000
1737551790.753,-69.336,-18.555,-36.621,98.145,0.000
1737551790.756,-69.824,-9.277,-8.301,131.836,0.000
1737551790.760,-35.645,-14.648,5.859,22.949,0.000
1737551790.764,-45.898,-9.277,-26.855,-71.289,0.000
1737551790.768,-30.273,-0.977,-33.203,-177.246,0.000
1737551790.772,5.859,-11.230,-14.160,-4.395,0.000
1737551790.776,-20.996,-17.090,-21.484,118.652,0.000
1737551790.780,-51.270,-15.137,-11.719,35.156,0.000
1737551790.784,-30.273,-11.719,-4.395,-41.504,0.000
1737551790.788,-46.387,-10.254,-14.648,-104.980,0.000
1737551790.792,-57.617,-8.789,-20.996,45.898,0.000
1737551790.795,-26.367,-9.766,-27.832,133.301,0.000
1737551790.799,1.465,-2.930,-22.461,64.941,0.000
1737551790.803,6.836,-15.625,-18.555,-27.832,0.000
1737551790.807,1.465,-32.715,-21.484,-103.516,0.000
1737551790.811,-28.320,-40.527,-23.926,5.859,0.000
1737551790.815,-55.664,-38.574,-22.461,121.094,0.000
1737551790.819,-48.828,-24.414,-8.789,62.988,0.000
1737551790.823,-29.785,-8.789,-19.043,-14.648,0.000
1737551790.827,-35.645,-19.531,-25.879,-158.203,0.000
1737551790.831,-23.438,-18.555,-8.301,-79.590,0.000
1737551790.835,5.859,-6.348,-4.395,119.629,0.000
1737551790.838,-42.480,-21.484,-4.883,70.801,0.000
1737551790.842,-72.266,-25.879,-12.695,-21.973,0.000
1737551790.846,-56.152,-27.344,-27.832,-117.676,0.000
1737551790.850,-65.918,-39.062,-29.297,-42.480,0.000
1737551790.854,-68.359,-27.832,-6.348,159.668,0.000
1737551790.858,-38.574,-10.742,4.883,93.750,0.000
1737551790.862,-20.020,-11.719,-20.020,-49.316,0.000
1737551790.866,-26.855,-30.762,-31.738,-141.602,0.000
1737551790.870,-25.391,-31.250,-24.414,-61.523,0.000
1737551790.874,-25.391,-15.137,-19.043,82.031,0.000
1737551790.878,-53.711,-33.203,-8.301,23.438,0.000
1737551790.881,-66.895,-37.598,-13.672,-12.695,0.000
1737551790.885,-69.824,-13.184,-28.320,-122.070,0.000
1737551790.889,-50.781,-23.438,-21.484,-137.207,0.000
1737551790.893,-23.438,-32.227,-11.719,104.980,0.000
1737551790.897,-45.410,-20.508,-18.555,63.477,0.000
1737551790.901,-77.148,-18.066,-16.602,-40.039,0.000
1737551790.905,-71.777,-21.484,-15.625,-143.555,0.000
1737551790.909,-70.312,-33.203,-25.391,-212.402,0.000
1737551790.913,-66.895,-45.410,-24.902,42.969,0.000
1737551790.917,-37.598,-33.203,-13.672,63.965,0.000
1737551790.920,-43.457,-25.879,-11.230,-108.398,0.000
1737551790.924,-48.340,-20.508,-27.344,-179.199,0.000
1737551790.928,-20.020,-13.672,-16.602,-205.566,0.000
1737551790.932,-3.418,-12.207,1.465,4.883,0.000
1737551790.936,12.695,-13.184,-11.719,72.754,0.000
1737551790.940,22.949,-20.508,-22.461,-67.871,0.000
1737551790.944,23.438,-24.414,-17.090,-151.367,0.000
1737551790.948,-1.953,-15.625,-14.648,-206.543,0.000
1737551790.952,-29.785,-0.488,-20.020,-29.297,0.000
1737551790.956,-0.488,-6.836,-16.602,52.246,0.000
1737551790.960,21.484,-18.555,-11.230,-56.152,0.000
1737551790.963,0.977,-18.555,-8.789,-125.488,0.000
1737551790.967,-14.648,-18.555,-7.324,-205.078,0.000
1737551790.971,-35.645,-15.137,-3.418,-60.059,0.000
1737551790.975,-40.527,-6.348,-8.789,51.270,0.000
1737551790.979,-49.805,-20.508,-23.926,-43.945,0.000
1737551790.983,-60.059,-35.645,-24.414,-93.262,0.000
1737551790.987,-77.637,-27.344,-23.438,-197.266,0.000
1737551790.991,-43.457,-14.648,-18.555,-89.355,0.000
1737551790.995,-2.930,-20.996,-5.859,103.516,0.000
1737551790.999,-28.809,-14.160,-18.555,-25.391,0.000
1737551791.003,-49.316,-9.766,-23.438,-133.301,0.000
1737551791.006,-56.152,-24.902,-13.672,-219.238,0.000
1737551791.010,-47.852,-21.973,-21.484,-122.559,0.000
1737551791.014,-14.648,-17.578,-24.902,69.336,0.000
1737551791.018,-29.785,-24.414,-15.625,-11.230,0.000
1737551791.022,-62.012,-17.090,-7.324,-98.145,0.000
1737551791.026,-60.547,-17.090,-17.578,-194.336,0.000
1737551791.030,-50.781,-23.926,-24.902,-146.973,0.000
1737551791.034,-49.316,-20.996,-20.020,34.180,0.000
1737551791.038,-43.457,-23.926,-20.996,-20.020,0.000
1737551791.042,-32.227,-16.113,-28.809,-86.426,0.000
1737551791.045,-23.926,-11.719,-40.527,-188.965,0.000
1737551791.049,9.766,-18.555,-45.410,-205.566,0.000
1737551791.053,9.277,-29.297,-25.879,43.457,0.000
1737551791.057,-8.301,-30.762,-10.254,29.297,0.000
1737551791.061,-30.762,-28.809,-16.602,-103.027,0.000
1737551791.065,-59.082,-21.973,-20.020,-179.199,0.000
1737551791.069,-47.363,-15.625,-14.160,-190.918,0.000
1737551791.073,-25.879,-21.484,-15.137,-1.465,0.000
1737551791.077,-30.273,-20.508,-25.879,21.484,0.000
1737551791.081,-59.570,-8.301,-24.414,-98.145,0.000
1737551791.085,-39.062,-3.906,-19.043,-175.293,0.000
1737551791.088,-22.461,-18.555,-19.531,-183.105,0.000
1737551791.092,-32.227,-44.922,-15.137,8.301,0.000
1737551791.096,-38.086,-31.250,-10.254,35.645,0.000
1737551791.100,-48.828,7.812,-9.277,-84.961,0.000
1737551791.104,-54.199,7.812,-5.371,-134.766,0.000
1737551791.108,-42.969,-7.812,-4.395,-206.543,0.000
1737551791.112,-26.855,-24.414,-6.348,-27.344,0.000
1737551791.116,-3.906,-27.832,1.953,97.168,0.000
1737551791.120,22.949,-25.879,-3.418,-25.879,0.000
1737551791.124,-25.879,-36.133,-21.973,-103.516,0.000
1737551791.128,-56.641,-34.668,-27.832,-197.266,0.000
1737551791.131,-34.180,-14.160,-25.391,-67.383,0.000
1737551791.135,-20.508,-8.789,-12.695,135.254,0.000
1737551791.139,-22.461,-19.043,-15.137,26.367,0.000
1737551791.143,-17.090,-16.602,-14.648,-108.398,0.000
1737551791.147,-29.785,-22.461,-0.977,-198.242,0.000
1737551791.151,-39.062,-26.855,-5.859,-78.125,0.000
1737551791.155,-20.508,-18.066,-2.441,94.238,0.000
1737551791.159,-17.090,-9.277,-8.301,-7.324,0.000
1737551791.163,-13.672,-18.555,-28.320,-120.605,0.000
1737551791.167,-3.906,-21.973,-32.227,-215.820,0.000
1737551791.170,0.000,-12.695,-33.691,-119.141,0.000
1737551791.174,-1.465,-22.949,-33.691,73.730,0.000
1737551791.178,28.320,-37.109,-27.344,15.625,0.000
1737551791.182,-12.207,-30.762,-18.066,-55.176,0.000
1737551791.186,-60.547,-14.160,-6.348,-166.016,0.000
1737551791.190,-42.480,-19.531,2.441,-120.117,0.000
1737551791.194,-36.133,-17.090,-4.883,90.332,0.000
1737551791.198,-52.246,-3.418,-12.695,39.062,0.000
1737551791.202,-36.133,1.953,-13.672,-49.316,0.000
1737551791.206,-22.461,-26.855,-19.531,-182.617,0.000
1737551791.210,-22.949,-36.621,-32.715,-145.508,0.000
1737551791.213,-9.277,-21.484,-25.391,97.168,0.000
1737551791.217,-20.996,-17.090,-7.812,57.129,0.000
1737551791.221,-24.902,-18.555,-9.277,-33.691,0.000
1737551791.225,-17.578,-13.672,-15.625,-145.996,0.000
1737551791.229,-25.879,-10.254,-11.230,-154.785,0.000
1737551791.233,-13.184,-16.113,-13.184,94.727,0.000
1737551791.237,-9.277,-15.625,-23.438,61.035,0.000
1737551791.241,-19.531,-14.160,-23.926,-101.562,0.000
1737551791.245,-30.762,-29.297,-32.715,-163.086,0.000
1737551791.249,-18.066,-19.043,-26.367,-155.273,0.000
1737551791.252,5.371,-8.789,-9.766,41.992,0.000
1737551791.256,-2.441,-20.996,-8.301,80.566,0.000
1737551791.260,-30.762,-7.812,-8.301,-41.016,0.000
1737551791.264,-33.691,8.301,-14.160,-150.879,0.000
1737551791.268,-9.766,-0.488,-23.926,-208.496,0.000
1737551791.272,0.000,-8.789,-17.578,-0.488,0.000
1737551791.276,-8.789,-11.719,-7.812,114.746,0.000
1737551791.280,-12.207,-17.578,-16.113,-19.531,0.000
1737551791.284,-9.766,-1.953,-21.973,-110.352,0.000
1737551791.288,-19.531,5.371,-7.324,-202.148,0.000
1737551791.292,-27.832,-2.441,-0.977,-52.246,0.000
1737551791.295,-47.852,-9.277,-13.184,90.820,0.000
1737551791.299,0.488,-13.184,-13.184,-46.875,0.000
1737551791.303,5.371,-12.207,-8.301,-135.742,0.000
1737551791.307,-49.316,-13.672,-25.879,-232.422,0.000
1737551791.311,-29.785,-15.137,-37.109,-119.141,0.000
1737551791.315,-8.789,-10.254,-25.391,83.984,0.000
1737551791.319,-44.922,-7.812,-10.742,-18.066,0.000
1737551791.323,-63.965,-2.441,-11.719,-94.238,0.000
1737551791.327,-56.152,-8.789,-12.207,-202.148,0.000
1737551791.331,-40.527,-13.672,-1.953,-131.836,0.000
1737551791.335,-1.953,-12.695,-1.465,66.406,0.000
1737551791.338,39.062,-18.555,-12.207,-7.812,0.000
1737551791.342,26.367,-30.762,-21.484,-106.934,0.000
1737551791.346,-62.012,-41.504,-27.832,-218.750,0.000
1737551791.350,-98.633,-29.785,-26.855,-126.953,0.000
1737551791.354,-59.570,-19.043,-25.879,90.332,0.000
1737551791.358,-40.527,-22.949,-25.879,-6.348,0.000
1737551791.362,-52.734,-20.020,-18.066,-102.539,0.000
1737551791.366,-35.645,-3.906,-17.090,-195.312,0.000
1737551791.370,-12.207,-4.395,-12.695,-174.805,0.000
1737551791.374,-28.809,-20.508,-9.277,5.859,0.000
1737551791.377,-43.457,-20.508,-11.719,-30.273,0.000
1737551791.381,-33.691,-34.668,-25.391,-115.723,0.000
1737551791.385,-9.277,-47.852,-39.062,-192.383,0.000
1737551791.389,-24.902,-30.273,-42.480,-195.801,0.000
1737551791.393,-38.086,-9.766,-28.809,23.926,0.000
1737551791.397,-8.789,-8.789,-14.648,36.133,0.000
1737551791.401,7.324,-18.066,-11.230,-83.984,0.000
1737551791.405,-9.766,-18.066,-12.695,-183.594,0.000
1737551791.409,-21.973,-12.207,-12.695,-200.684,0.000
1737551791.413,-6.348,-13.672,-16.113,8.301,0.000
1737551791.417,-10.742,-13.672,-14.648,54.199,0.000
1737551791.420,-21.973,-19.531,-14.648,-79.102,0.000
1737551791.424,-6.836,-42.969,-31.738,-174.316,0.000
1737551791.428,-32.715,-40.039,-48.340,-223.633,0.000
1737551791.432,-15.625,-16.113,-26.855,-17.090,0.000
1737551791.436,-23.926,2.930,8.301,45.898,0.000
1737551791.440,-39.062,-1.465,7.812,-79.102,0.000
1737551791.444,-21.484,-7.812,-4.395,-139.160,0.000
1737551791.448,-28.809,-6.836,-2.930,-241.699,0.000
1737551791.452,-23.926,-10.742,-13.672,-90.820,0.000
1737551791.456,-27.832,-18.066,-26.855,21.973,0.000
1737551791.460,-25.391,-21.973,-27.344,-60.059,0.000
1737551791.463,-18.066,-37.598,-29.785,-111.816,0.000
1737551791.467,-31.250,-50.781,-23.438,-240.234,0.000
1737551791.471,-16.113,-35.156,-28.320,-111.816,0.000
1737551791.475,-7.812,-13.672,-25.391,57.617,0.000
1737551791.479,-16.602,-2.930,-11.230,-52.246,0.000
1737551791.483,-20.996,-6.348,-14.648,-126.465,0.000
1737551791.487,-30.762,-12.207,-19.043,-171.875,0.000
1737551791.491,-31.738,-11.719,-10.742,-118.652,0.000
1737551791.495,-0.488,-15.625,-22.461,-2.930,0.000
1737551791.499,26.855,-22.461,-27.832,-27.344,0.000
1737551791.502,-6.348,-38.086,-24.414,-107.910,0.000
1737551791.506,-49.316,-39.062,-23.438,-232.910,0.000
1737551791.510,-63.965,-24.414,-8.789,-96.191,0.000
1737551791.514,-52.734,-17.090,-7.324,76.660,0.000
1737551791.518,-37.598,-27.832,-17.578,-61.523,0.000
1737551791.522,-27.344,-18.066,-20.508,-114.258,0.000
1737551791.526,-11.719,-4.883,-15.137,-178.223,0.000
1737551791.530,-26.855,-14.648,-10.742,-181.152,0.000
1737551791.534,-45.898,-17.578,-13.184,41.016,0.000
1737551791.538,-37.598,-16.602,-13.184,43.945,0.000
1737551791.542,-21.973,-30.273,-14.160,-68.359,0.000
1737551791.545,-11.719,-41.504,-27.344,-153.809,0.000
1737551791.549,-2.441,-28.809,-28.320,-143.555,0.000
1737551791.553,4.395,-13.672,-14.648,89.355,0.000
1737551791.557,-17.578,-9.766,-7.812,54.688,0.000
1737551791.561,-53.711,-8.789,-12.207,-94.727,0.000
1737551791.565,-72.266,-14.648,-18.555,-209.961,0.000
1737551791.569,-35.156,-12.695,-18.555,-240.234,0.000
1737551791.573,17.090,-9.766,-14.160,13.184,0.000
1737551791.577,-1.465,-18.555,-15.625,43.457,0.000
1737551791.581,-34.180,-29.297,-36.621,-84.473,0.000
1737551791.585,-25.879,-23.926,-40.039,-123.535,0.000
1737551791.588,-11.230,-10.742,-21.973,-177.246,0.000
1737551791.592,-1.465,-20.996,-27.344,-11.719,0.000
1737551791.596,-5.859,-26.855,-25.879,58.594,0.000
1737551791.600,-47.852,-1.953,-23.926,-41.992,0.000
1737551791.604,-66.895,-1.953,-25.391,-112.305,0.000
1737551791.608,-62.500,-27.344,-28.320,-204.590,0.000
1737551791.612,-35.645,-34.668,-30.273,-61.035,0.000
1737551791.616,-19.043,-30.762,-32.715,53.223,0.000
1737551791.620,-23.926,-31.738,-30.273,9.277,0.000
1737551791.624,-30.762,-24.902,-18.555,-51.758,0.000
1737551791.627,-44.922,-23.926,-20.508,-191.895,0.000
1737551791.631,-38.574,-27.832,-29.297,-27.832,0.000
1737551791.635,-23.438,-20.508,-21.973,140.137,0.000
1737551791.639,-21.973,-10.742,-16.113,51.270,0.000
1737551791.643,-20.020,-11.719,-16.602,-39.062,0.000
1737551791.647,-17.090,-18.555,-17.578,-176.270,0.000
1737551791.651,-4.883,-23.438,-20.020,-40.527,0.000
1737551791.655,6.836,-34.668,-30.762,110.840,0.000
1737551791.659,-11.230,-30.273,-24.414,-30.273,0.000
1737551791.663,-43.457,-20.508,-18.066,-109.863,0.000
1737551791.667,-33.203,-25.391,-41.016,-226.074,0.000
1737551791.670,-3.418,-13.184,-25.391,-134.766,0.000
1737551791.674,-15.625,-9.277,5.859,90.332,0.000
1737551791.678,-28.320,-14.160,2.930,20.020,0.000
1737551791.682,-30.273,-4.395,-3.906,-40.527,0.000
1737551791.686,-19.043,-16.602,-12.695,-158.691,0.000
1737551791.690,-14.160,-37.598,-23.438,-170.898,0.000
1737551791.694,-32.715,-20.020,-20.508,66.895,0.000
1737551791.698,-33.691,-8.789,-14.160,76.172,0.000
1737551791.702,-9.766,-12.695,-11.719,-46.387,0.000
1737551791.706,27.832,-15.625,-20.508,-205.566,0.000
1737551791.709,9.766,-15.137,-48.340,-189.453,0.000
1737551791.713,-48.340,-10.254,-38.574,81.543,0.000
1737551791.717,-37.598,-10.742,-0.977,82.031,0.000
1737551791.721,-21.484,-7.812,-2.441,-60.547,0.000
1737551791.725,-24.414,-15.137,-4.883,-139.160,0.000
1737551791.729,-38.086,-22.461,-3.906,-172.852,0.000
1737551791.733,-49.316,-14.160,-11.230,23.438,0.000
1737551791.737,-39.062,-15.137,-18.555,78.125,0.000
1737551791.741,-25.879,-14.648,-20.508,-13.184,0.000
1737551791.745,-17.090,-24.414,-20.996,-84.473,0.000
1737551791.749,-4.883,-30.762,-28.320,-150.391,0.000
1737551791.752,8.301,-18.555,-43.945,19.531,0.000
1737551791.756,9.277,-20.020,-32.715,127.930,0.000
1737551791.760,11.230,-15.625,-11.719,-36.133,0.000
1737551791.764,9.277,-12.207,-4.395,-136.230,0.000
1737551791.768,-14.160,-15.625,-6.836,-188.965,0.000
1737551791.772,-34.180,-18.555,-1.465,-16.113,0.000
1737551791.776,-14.160,-13.672,-9.766,110.352,0.000
1737551791.780,8.789,-15.625,-15.137,-6.348,0.000
1737551791.784,-8.789,-26.855,-0.977,-72.754,0.000
1737551791.788,-13.184,-34.180,-3.906,-186.035,0.000
1737551791.792,-11.230,-36.133,-16.113,-58.105,0.000
1737551791.795,-8.301,-4.395,-26.367,93.262,0.000
1737551791.799,-19.043,3.418,-27.832,-40.039,0.000
1737551791.803,-33.203,-6.348,-13.184,-101.074,0.000
1737551791.807,-26.855,-4.395,-4.883,-203.613,0.000
1737551791.811,-5.859,-8.301,-6.836,-94.727,0.000
1737551791.815,-1.465,-7.812,-8.301,120.605,0.000
1737551791.819,-12.695,-12.695,-21.973,40.039,0.000
1737551791.823,-4.395,-32.227,-34.668,-81.543,0.000
1737551791.827,-2.441,-38.086,-20.020,-200.195,0.000
1737551791.831,0.488,-27.344,-5.859,-87.402,0.000
1737551791.834,0.000,-16.113,0.000,56.152,0.000
1737551791.838,-13.184,-10.742,-4.883,-7.324,0.000
1737551791.842,-6.836,-3.906,-21.973,-76.660,0.000
1737551791.846,-18.555,-10.742,-22.949,-168.457,0.000
1737551791.850,-32.715,-15.625,-16.113,-94.238,0.000
1737551791.854,-29.785,-15.625,-8.789,99.121,0.000
1737551791.858,-17.578,-27.832,-14.160,66.406,0.000
1737551791.862,-9.277,-24.414,-17.578,-70.312,0.000
1737551791.866,-23.926,-21.484,-7.324,-214.844,0.000
1737551791.870,-27.832,-13.672,-10.742,-184.082,0.000
1737551791.874,-19.043,-8.301,-12.695,81.055,0.000
1737551791.877,-21.973,-13.672,-14.160,76.660,0.000
1737551791.881,-13.184,-9.766,-22.949,-28.320,0.000
1737551791.885,3.418,3.906,-11.719,-71.289,0.000
1737551791.889,8.301,-2.930,-7.324,-61.035,0.000
1737551791.893,4.395,-27.832,-11.230,115.723,0.000
1737551791.897,-16.602,-17.090,-6.836,100.586,0.000
1737551791.901,-42.969,-5.859,-7.812,-41.504,0.000
1737551791.905,-53.711,-2.930,-12.695,-120.605,0.000
1737551791.909,-21.973,2.930,-1.953,-175.293,0.000
1737551791.913,-1.953,-1.953,1.953,16.602,0.000
1737551791.917,-29.297,-12.207,-11.719,71.777,0.000
1737551791.920,-20.020,-21.484,-19.043,-16.113,0.000
1737551791.924,10.254,-12.207,-20.020,-75.195,0.000
1737551791.928,2.441,-3.418,-38.086,-185.059,0.000
1737551791.932,-38.574,-10.254,-33.203,43.457,0.000
1737551791.936,-56.152,-17.090,-12.207,141.113,0.000
1737551791.940,-38.574,-18.555,-10.742,-3.418,0.000
1737551791.944,-19.043,-20.020,-9.277,-70.312,0.000
1737551791.948,-30.273,-20.020,-3.418,-175.781,0.000
1737551791.952,-24.902,-13.184,-4.883,-12.695,0.000
1737551791.956,-15.625,-18.555,-9.766,143.555,0.000
1737551791.959,-29.297,-14.160,-18.555,66.406,0.000
1737551791.963,-18.555,-13.184,-24.414,8.301,0.000
1737551791.967,-18.555,-19.043,-20.996,-99.609,0.000
1737551791.971,-41.992,-13.672,-19.531,3.906,0.000
1737551791.975,-15.137,-8.301,-10.254,225.098,0.000
1737551791.979,23.438,-0.488,-7.812,178.711,0.000
1737551791.983,9.766,-3.906,-10.254,46.875,0.000
1737551791.987,-36.621,-16.113,-5.371,-94.727,0.000
1737551791.991,-58.105,-17.578,-11.230,-12.695,0.000
1737551791.995,-24.902,-12.207,-18.066,175.293,0.000
1737551791.999,1.953,-13.184,-4.395,87.891,0.000
1737551792.002,-4.883,-3.418,-9.766,-6.836,0.000
1737551792.006,-21.973,1.953,-28.809,-111.816,0.000
1737551792.010,-1.953,-10.254,-16.113,-79.590,0.000
1737551792.014,13.184,-11.230,-5.859,125.488,0.000
1737551792.018,-12.695,-11.230,-10.742,85.449,0.000
1737551792.022,-27.832,-21.973,-16.602,9.766,0.000
1737551792.026,-9.277,-18.555,-14.648,-34.180,0.000
1737551792.030,-16.113,-12.695,-21.484,-136.230,0.000
1737551792.034,-26.855,-9.766,-17.090,34.180,0.000
1737551792.038,-16.602,-16.602,-17.090,65.430,0.000
1737551792.041,-7.812,-19.531,-38.086,-71.289,0.000
1737551792.045,-45.410,-8.789,-35.156,-187.988,0.000
1737551792.049,-53.711,-13.672,-23.926,-207.031,0.000
1737551792.053,-24.902,-18.066,-16.602,10.742,0.000
1737551792.057,-20.996,-15.137,-16.602,39.062,0.000
1737551792.061,4.883,-25.879,-23.438,-41.504,0.000
1737551792.065,15.137,-37.109,-27.344,-172.852,0.000
1737551792.069,-12.207,-28.320,-20.996,-231.445,0.000
1737551792.073,-31.250,-18.066,-12.207,12.207,0.000
1737551792.077,-29.297,-7.324,-26.855,7.324,0.000
1737551792.081,-21.973,0.488,-29.785,-125.488,0.000
1737551792.084,-19.531,-15.137,-18.066,-164.551,0.000
1737551792.088,-29.297,-15.625,-14.648,-249.023,0.000
1737551792.092,-25.391,-19.531,-14.160,-101.562,0.000
1737551792.096,-17.578,-21.973,-27.344,25.879,0.000
1737551792.100,-13.672,-11.230,-24.902,-65.918,0.000
1737551792.104,3.418,-13.672,-2.930,-157.715,0.000
1737551792.108,-0.488,-26.855,-15.137,-264.648,0.000
1737551792.112,-20.508,-31.738,-31.738,-114.746,0.000
1737551792.116,-45.410,-15.625,-14.160,39.551,0.000
1737551792.120,-44.434,-13.672,-16.113,-54.199,0.000
1737551792.124,-23.438,-18.066,-22.949,-140.625,0.000
1737551792.127,-40.527,-10.742,-19.531,-262.695,0.000
1737551792.131,-42.969,-22.949,-28.320,-148.926,0.000
1737551792.135,-28.809,-19.043,-17.578,41.504,0.000
1737551792.139,-11.719,-0.488,-10.742,-32.227,0.000
1737551792.143,10.742,-6.348,-10.742,-113.770,0.000
1737551792.147,-4.883,-16.602,-9.766,-238.281,0.000
1737551792.151,-21.973,-15.137,-4.395,-143.555,0.000
1737551792.155,5.859,-33.691,-0.488,56.152,0.000
1737551792.159,16.113,-54.199,-17.578,-19.043,0.000
1737551792.163,-12.695,-28.320,-23.438,-110.352,0.000
1737551792.166,-26.367,3.418,-10.254,-189.453,0.000
1737551792.170,-10.254,3.906,-16.113,-177.734,0.000
1737551792.174,-1.953,-8.789,-25.391,15.625,0.000
1737551792.178,-25.879,-16.602,-15.137,-15.137,0.000
1737551792.182,-28.320,-13.672,-10.254,-105.957,0.000
1737551792.186,-31.738,-9.277,-22.949,-218.262,0.000
1737551792.190,-30.762,-8.789,-26.367,-211.914,0.000
1737551792.194,-7.324,-9.766,-18.555,19.043,0.000
1737551792.198,-4.395,-21.484,-20.020,-27.344,0.000
1737551792.202,-26.367,-23.438,-23.926,-146.484,0.000
1737551792.206,-53.711,-13.184,-32.227,-241.699,0.000
1737551792.209,-43.457,-2.930,-44.922,-255.859,0.000
1737551792.213,-21.973,-1.953,-39.062,-3.906,0.000
1737551792.217,-20.020,-6.836,-21.973,20.996,0.000
1737551792.221,-33.203,-13.184,-24.414,-123.047,0.000
1737551792.225,-28.320,-11.230,-41.016,-213.379,0.000
1737551792.229,-23.438,-11.719,-46.387,-227.051,0.000
1737551792.233,-35.645,-32.227,-31.250,-27.344,0.000
1737551792.237,-39.551,-46.875,-16.602,-1.953,0.000
1737551792.241,-40.527,-18.555,-15.625,-127.930,0.000
1737551792.245,-46.875,-0.977,-16.602,-184.570,0.000
1737551792.249,-33.691,-11.719,-14.648,-233.398,0.000
1737551792.252,-27.344,-1.953,-25.879,-70.801,0.000
1737551792.256,-37.109,0.000,-24.902,19.043,0.000
1737551792.260,-44.434,-15.625,-15.625,-52.734,0.000
1737551792.264,-39.551,-14.648,-28.320,-124.023,0.000
1737551792.268,-29.785,-13.672,-24.902,-282.227,0.000
1737551792.272,-28.809,-24.414,-24.414,-113.770,0.000
1737551792.276,-36.621,-34.180,-32.227,27.832,0.000
1737551792.280,-20.996,-25.391,-12.207,-64.941,0.000
1737551792.284,-5.859,-30.273,-4.395,-121.094,0.000
1737551792.288,-38.574,-22.949,-11.230,-229.492,0.000
1737551792.291,-56.641,-5.371,-16.113,-153.320,0.000
1737551792.295,-32.227,-12.207,-24.414,43.457,0.000
1737551792.299,-19.043,-20.996,-23.926,-39.062,0.000
1737551792.303,-28.320,-17.090,-24.414,-113.281,0.000
1737551792.307,-23.438,-12.207,-29.297,-171.387,0.000
1737551792.311,-13.672,-18.555,-33.203,-105.469,0.000
1737551792.315,-9.277,-30.762,-28.809,76.172,0.000
1737551792.319,10.254,-26.855,-20.508,-6.348,0.000
1737551792.323,13.672,-12.695,-10.742,-95.215,0.000
1737551792.327,-2.441,-19.043,-1.953,-213.867,0.000
1737551792.331,-6.836,-23.926,-4.395,-174.316,0.000
1737551792.334,-32.715,-18.066,-11.230,103.027,0.000
1737551792.338,-62.500,-12.207,-5.371,48.828,0.000
1737551792.342,-41.504,-18.066,-1.953,-60.059,0.000
1737551792.346,-11.719,-26.855,-7.324,-172.363,0.000
1737551792.350,-23.926,-19.531,-17.090,-208.496,0.000
1737551792.354,-33.203,-15.625,-17.578,29.785,0.000
1737551792.358,-30.762,-27.832,-13.672,44.434,0.000
1737551792.362,-9.277,-29.297,-28.320,-79.102,0.000
1737551792.366,9.277,-20.508,-27.832,-179.688,0.000
1737551792.370,-9.766,-19.043,-17.578,-175.293,0.000
1737551792.374,-32.227,-14.160,-20.996,52.734,0.000
1737551792.377,-29.785,-18.555,-9.277,27.344,0.000
1737551792.381,-3.906,-30.273,-0.488,-83.008,0.000
1737551792.385,-11.230,-22.949,-12.695,-162.109,0.000
1737551792.389,-3.418,-13.184,-20.020,-231.934,0.000
1737551792.393,-7.812,-12.207,-22.461,-40.527,0.000
1737551792.397,-28.809,-17.578,-21.973,5.859,0.000
1737551792.401,-23.926,-33.691,-20.020,-78.613,0.000
1737551792.405,-26.367,-27.832,-15.137,-141.113,0.000
1737551792.409,-28.809,-7.812,-17.090,-243.652,0.000
1737551792.413,-7.324,-12.695,-20.020,-58.594,0.000
1737551792.416,3.418,-11.230,-17.578,55.664,0.000
1737551792.420,1.953,-3.418,-20.996,-63.477,0.000
1737551792.424,16.602,-15.625,-16.113,-150.879,0.000
1737551792.428,11.719,-21.484,-12.207,-257.324,0.000
1737551792.432,-10.742,-8.301,-13.672,-101.074,0.000
1737551792.436,-24.902,-20.020,-19.043,15.137,0.000
1737551792.440,-41.504,-31.250,-18.066,-109.863,0.000
1737551792.444,-48.828,-7.812,-14.648,-182.129,0.000
1737551792.448,-39.062,-3.906,-13.184,-227.051,0.000
1737551792.452,-48.828,-20.020,-8.301,-109.863,0.000
1737551792.456,-33.203,-21.484,-18.555,-11.719,0.000
1737551792.459,15.137,-22.949,-26.855,-85.449,0.000
1737551792.463,5.371,-18.555,-22.461,-148.926,0.000
1737551792.467,-37.598,-9.277,-25.391,-265.625,0.000
1737551792.471,-27.832,-18.555,-14.160,-170.410,0.000
1737551792.475,-11.230,-21.973,-12.207,36.621,0.000
1737551792.479,35.645,-8.789,-17.090,-29.297,0.000
1737551792.483,38.574,3.418,-10.742,-100.586,0.000
1737551792.487,10.254,-3.418,-10.254,-226.562,0.000
1737551792.491,14.160,-0.977,-9.766,-199.707,0.000
1737551792.495,-10.742,-1.953,-15.625,37.109,0.000
1737551792.498,-46.387,-28.809,-28.809,-15.137,0.000
1737551792.502,-39.062,-21.484,-22.949,-151.855,0.000
1737551792.506,3.418,-7.812,-6.836,-252.441,0.000
1737551792.510,10.742,-1.953,-3.418,-203.125,0.000
1737551792.514,8.301,-2.441,-23.438,22.949,0.000
1737551792.518,23.926,-10.742,-14.648,23.438,0.000
1737551792.522,33.203,-5.859,7.324,-77.148,0.000
1737551792.526,22.949,-5.859,-6.836,-212.891,0.000
1737551792.530,16.113,-14.648,-15.625,-226.562,0.000
1737551792.534,37.109,-11.719,-3.418,-1.953,0.000
1737551792.538,44.922,-0.977,-4.395,-22.949,0.000
1737551792.541,29.297,-2.441,-26.855,-111.816,0.000
1737551792.545,21.484,-12.695,-21.973,-188.477,0.000
1737551792.549,12.695,-14.648,1.465,-266.602,0.000
1737551792.553,-0.488,-16.113,0.000,-39.062,0.000
1737551792.557,12.695,-23.926,-22.461,-25.879,0.000
1737551792.561,8.301,-9.277,-24.902,-144.531,0.000
1737551792.565,-11.719,2.441,-19.043,-191.895,0.000
1737551792.569,-31.738,-11.719,-20.996,-278.809,0.000
1737551792.573,-38.086,-21.973,-12.207,-97.168,0.000
1737551792.577,-42.480,-22.461,-9.766,43.457,0.000
1737551792.581,-27.832,-22.949,-16.113,-78.125,0.000
1737551792.584,-14.648,-18.066,-31.250,-209.473,0.000
1737551792.588,-20.020,-7.324,-38.086,-269.531,0.000
1737551792.592,-22.949,-10.254,-20.020,-65.918,0.000
1737551792.596,-30.762,-40.039,-11.230,32.715,0.000
1737551792.600,-49.805,-44.922,-30.762,-124.512,0.000
1737551792.604,-68.848,-19.531,-31.250,-229.004,0.000
1737551792.608,-61.523,-21.973,-17.578,-297.852,0.000
1737551792.612,-70.312,-18.066,-23.926,-181.641,0.000
1737551792.616,-83.008,-5.371,-32.227,-55.664,0.000
1737551792.620,-89.355,-20.020,-36.133,-148.438,0.000
1737551792.623,-104.004,-12.207,-32.227,-221.680,0.000
1737551792.627,-76.660,-6.836,-27.344,-328.613,0.000
1737551792.631,-31.738,-12.207,-28.809,-210.449,0.000
1737551792.635,-41.992,-24.902,-21.973,6.836,0.000
1737551792.639,-59.082,-26.855,-26.855,-106.445,0.000
1737551792.643,-57.129,-19.043,-34.180,-202.148,0.000
1737551792.647,-68.359,-15.137,-11.719,-252.930,0.000
1737551792.651,-100.586,-24.414,1.465,-199.707,0.000
1737551792.655,-27.832,-34.668,-8.301,67.383,0.000
1737551792.659,15.137,-34.668,-13.672,-45.410,0.000
1737551792.663,-20.020,-17.578,-21.484,-166.016,0.000
1737551792.666,-31.250,-8.301,-23.438,-237.305,0.000
1737551792.670,-17.578,-9.277,-15.137,-189.453,0.000
1737551792.674,5.859,-5.859,-3.906,103.516,0.000
1737551792.678,16.113,-3.418,-14.648,19.531,0.000
1737551792.682,34.668,-8.301,-17.090,-104.980,0.000
1737551792.686,23.926,-22.949,-9.766,-185.059,0.000
1737551792.690,-17.578,-20.020,-11.719,-187.012,0.000
1737551792.694,-0.977,-20.508,-1.953,37.109,0.000
1737551792.698,44.434,-25.391,-4.395,41.504,0.000
1737551792.702,14.160,-9.766,-0.977,-72.754,0.000
1737551792.706,-30.762,-6.836,9.277,-134.277,0.000
1737551792.709,-30.762,-20.508,-3.418,-178.711,0.000
1737551792.713,-5.371,-19.531,-12.695,-2.930,0.000
1737551792.717,19.531,-3.418,-6.836,59.570,0.000
1737551792.721,16.113,-2.930,-6.348,-37.598,0.000
1737551792.725,5.371,-18.066,-0.488,-124.512,0.000
1737551792.729,15.137,-17.090,-6.836,-149.902,0.000
1737551792.733,28.809,-18.555,-19.531,11.719,0.000
1737551792.737,29.785,-22.949,-13.672,101.074,0.000
1737551792.741,-3.906,-18.066,-1.465,-23.926,0.000
1737551792.745,-32.227,-13.184,4.883,-166.504,0.000
1737551792.748,-30.762,-11.230,-3.418,-232.422,0.000
1737551792.752,-1.953,-4.395,-20.996,-71.289,0.000
1737551792.756,16.602,1.465,-25.879,48.340,0.000
1737551792.760,-4.395,-8.789,-27.344,-51.270,0.000
1737551792.764,-26.367,-12.207,-28.809,-126.465,0.000
1737551792.768,-26.855,-16.113,-21.484,-231.445,0.000
1737551792.772,-15.625,-16.602,-20.996,-68.848,0.000
1737551792.776,-12.695,-21.973,-22.461,71.289,0.000
1737551792.780,-10.742,-22.949,-24.414,-49.316,0.000
1737551792.784,-4.395,-14.160,-14.160,-141.113,0.000
1737551792.788,-26.367,-33.203,-3.418,-257.812,0.000
1737551792.791,-38.086,-38.086,-18.066,-148.438,0.000
1737551792.795,-42.969,-18.555,-27.344,55.664,0.000
1737551792.799,-64.453,-6.836,-26.855,-41.016,0.000
1737551792.803,-72.266,-7.324,-34.180,-106.934,0.000
1737551792.807,-44.922,-19.043,-41.016,-227.051,0.000
1737551792.811,-10.742,-30.762,-27.832,-191.895,0.000
1737551792.815,-59.082,-26.367,-9.277,21.484,0.000
1737551792.819,-134.277,-31.250,-6.836,-48.340,0.000
1737551792.823,-128.418,-34.668,-3.418,-123.047,0.000
1737551792.827,-94.238,-34.180,-11.230,-243.164,0.000
1737551792.831,-95.703,-34.668,-10.254,-211.914,0.000
1737551792.834,-85.449,-36.621,4.395,37.109,0.000
1737551792.838,-75.195,-45.898,11.719,-33.203,0.000
1737551792.842,-77.148,-49.805,15.625,-101.074,0.000
1737551792.846,-71.289,-58.105,11.230,-160.645,0.000
1737551792.850,-65.918,-64.453,6.348,-232.422,0.000
1737551792.854,-88.867,-55.664,12.207,-25.391,0.000
1737551792.858,-107.422,-40.039,2.441,0.000,0.000
1737551792.862,-76.660,-41.016,-13.672,-82.520,0.000
1737551792.866,-59.570,-45.410,-6.348,-165.527,0.000
1737551792.870,-55.176,-39.551,4.395,-191.895,0.000
1737551792.873,-63.965,-27.344,3.906,19.043,0.000
1737551792.877,-88.379,-25.879,1.953,31.738,0.000
1737551792.881,-79.102,-26.367,0.488,-73.242,0.000
1737551792.885,-44.434,-25.879,0.977,-152.832,0.000
1737551792.889,-5.371,-35.645,-7.324,-220.215,0.000
1737551792.893,-26.367,-35.156,-9.277,-35.645,0.000
1737551792.897,-36.621,-26.855,12.207,48.828,0.000
1737551792.901,-24.902,-21.484,10.254,-50.293,0.000
1737551792.905,-19.531,-22.949,0.488,-135.254,0.000
1737551792.909,-13.184,-27.344,-2.930,-242.188,0.000
1737551792.913,-1.465,-32.227,-3.906,-83.496,0.000
1737551792.916,17.578,-28.809,-10.254,58.594,0.000
1737551792.920,-2.441,-19.531,-20.996,-33.691,0.000
1737551792.924,-68.848,-31.738,-3.906,-116.699,0.000
1737551792.928,-95.703,-39.551,0.488,-240.723,0.000
1737551792.932,-37.109,-16.602,-12.695,-104.004,0.000
1737551792.936,-26.367,-9.766,-21.973,55.176,0.000
1737551792.940,-35.645,-10.742,-8.301,-9.766,0.000
1737551792.944,-29.785,-11.719,-3.906,-98.145,0.000
1737551792.948,-34.668,-30.273,-17.090,-274.902,0.000
1737551792.952,-25.879,-43.945,-14.160,-166.016,0.000
1737551792.955,-22.461,-36.133,-12.207,49.805,0.000
1737551792.959,-16.602,-20.508,-14.648,-23.438,0.000
1737551792.963,-6.348,-20.996,-10.254,-71.777,0.000
1737551792.967,-7.812,-36.621,-20.508,-173.828,0.000
1737551792.971,1.465,-37.598,-40.527,-160.645,0.000
1737551792.975,6.836,-19.531,-37.598,43.945,0.000
1737551792.979,16.113,-14.648,-24.414,15.625,0.000
1737551792.983,31.250,-20.508,-10.742,-111.328,0.000
1737551792.987,3.418,-24.902,0.000,-213.379,0.000
1737551792.991,-17.578,-20.508,-2.441,-127.930,0.000
1737551792.995,-8.789,-10.742,0.000,90.332,0.000
1737551792.998,-9.277,-13.184,1.953,42.969,0.000
1737551793.002,-21.973,-18.555,-9.277,-117.676,0.000
1737551793.006,-13.672,-15.625,-12.695,-201.660,0.000
1737551793.010,-7.812,-15.625,-16.602,-123.047,0.000
1737551793.014,-11.719,-26.855,-27.832,1.953,0.000
1737551793.018,-21.484,-35.156,-29.297,-46.875,0.000
1737551793.022,-49.805,-31.250,-33.203,-89.844,0.000
1737551793.026,-55.664,-30.273,-39.062,-210.938,0.000
1737551793.030,-42.969,-24.414,-25.391,-267.090,0.000
1737551793.034,-47.363,-8.789,-9.277,18.555,0.000
1737551793.038,-34.668,-16.602,-6.348,44.922,0.000
1737551793.041,-35.156,-33.691,-10.254,-94.727,0.000
1737551793.045,-23.926,-36.133,-15.625,-189.941,0.000
1737551793.049,-13.184,-18.555,-16.602,-236.328,0.000
1737551793.053,-31.250,-1.465,-24.414,28.320,0.000
1737551793.057,-8.789,-7.812,-31.738,93.750,0.000
1737551793.061,20.020,-13.184,-20.996,-70.801,0.000
1737551793.065,-4.883,-16.602,-23.438,-160.156,0.000
1737551793.069,-31.250,-25.391,-36.133,-207.520,0.000
1737551793.073,-21.484,-22.461,-20.508,-26.367,0.000
1737551793.077,-15.137,-10.742,-10.742,69.336,0.000
1737551793.080,-10.742,-6.348,-11.719,11.719,0.000
1737551793.084,23.926,-6.836,-14.648,-59.082,0.000
1737551793.088,39.062,-12.695,-19.043,-174.805,0.000
1737551793.092,12.695,-26.367,-9.277,14.648,0.000
1737551793.096,6.348,-27.344,-4.395,162.109,0.000
1737551793.100,13.184,-20.508,-12.207,26.855,0.000
1737551793.104,14.160,-12.207,-17.090,-42.969,0.000
1737551793.108,14.648,-12.207,-13.184,-200.684,0.000
1737551793.112,27.344,-10.742,-3.906,-125.000,0.000
1737551793.116,75.684,-19.531,2.930,69.824,0.000
1737551793.120,87.891,-32.227,-6.348,0.000,0.000
1737551793.123,68.359,-22.949,-12.695,-81.055,0.000
1737551793.127,28.320,-6.348,-7.812,-219.727,0.000
1737551793.131,15.137,-8.301,-8.789,-129.395,0.000
1737551793.135,-13.184,-24.902,-10.254,83.496,0.000
1737551793.139,-41.016,-20.020,-12.695,15.625,0.000
1737551793.143,-29.297,-15.625,-17.090,-59.570,0.000
1737551793.147,11.230,-12.695,-11.719,-160.645,0.000
1737551793.151,-1.953,-17.090,-9.277,-120.117,0.000
1737551793.155,-18.555,-20.508,-19.043,65.918,0.000
1737551793.159,2.930,-13.672,-16.602,19.043,0.000
1737551793.163,9.766,-17.578,-3.906,-107.910,0.000
1737551793.166,14.160,-22.461,1.953,-196.289,0.000
1737551793.170,8.301,-17.090,-9.277,-157.715,0.000
1737551793.174,-16.113,-14.160,-27.344,29.785,0.000
1737551793.178,-20.508,-20.996,-21.484,55.176,0.000
1737551793.182,-15.625,-16.602,-18.555,-60.059,0.000
1737551793.186,-39.551,-5.371,-25.391,-198.730,0.000
1737551793.190,-67.871,-12.695,-24.902,-202.148,0.000
1737551793.194,-50.781,-13.672,-23.926,39.551,0.000
1737551793.198,-4.395,-2.441,-21.484,52.734,0.000
1737551793.202,-13.672,-7.812,-21.973,-114.258,0.000
1737551793.205,-28.809,-16.602,-20.508,-158.203,0.000
1737551793.209,-23.926,-20.996,-25.879,-229.004,0.000
1737551793.213,-19.531,-29.785,-32.715,-73.242,0.000
1737551793.217,-14.160,-28.809,-21.973,32.715,0.000
1737551793.221,-6.836,-19.043,-24.414,-75.195,0.000
1737551793.225,-23.438,-14.160,-23.926,-151.367,0.000
1737551793.229,-44.434,-15.625,-18.555,-191.406,0.000
1737551793.233,-48.340,-21.484,-22.949,7.812,0.000
1737551793.237,-47.363,-24.902,-18.555,124.023,0.000
1737551793.241,-33.203,-14.648,-5.859,36.133,0.000
1737551793.245,-6.836,-7.324,-1.465,-27.344,0.000
1737551793.248,6.348,3.906,-6.348,-97.168,0.000
1737551793.252,-26.367,2.930,-12.695,30.762,0.000
1737551793.256,-77.148,-11.719,-25.391,117.676,0.000
1737551793.260,-75.684,-4.395,-29.297,34.180,0.000
1737551793.264,-55.176,10.742,-32.715,-55.664,0.000
1737551793.268,-76.660,14.648,-36.621,-218.750,0.000
1737551793.272,-91.309,22.461,-42.969,-137.207,0.000
1737551793.276,-98.145,24.902,-50.781,-10.742,0.000
1737551793.280,-98.633,24.414,-59.570,-129.395,0.000
1737551793.284,-90.332,29.785,-68.359,-199.707,0.000
1737551793.288,-103.516,32.227,-61.035,-325.684,0.000
1737551793.291,-125.000,33.203,-51.758,-245.605,0.000
1737551793.295,-90.332,18.555,-36.133,-43.457,0.000
1737551793.299,-68.359,13.672,-28.320,-145.020,0.000
1737551793.303,-100.586,27.344,-30.273,-218.262,0.000
1737551793.307,-100.098,30.273,-35.156,-309.082,0.000
1737551793.311,-93.750,28.320,-30.762,-260.742,0.000
1737551793.315,-89.844,20.020,-13.184,-25.391,0.000
1737551793.319,-51.758,0.488,-19.043,-22.461,0.000
1737551793.323,-46.387,-10.742,-36.621,-114.746,0.000
1737551793.327,-42.969,-13.184,-38.086,-247.070,0.000
1737551793.330,-35.156,-25.879,-28.320,-243.652,0.000
1737551793.334,-24.902,-20.508,-14.648,-1.953,0.000
1737551793.338,-27.344,4.883,-10.742,42.969,0.000
1737551793.342,-1.953,10.254,-13.672,-58.105,0.000
1737551793.346,19.531,-2.930,-20.508,-208.008,0.000
1737551793.350,21.484,-5.371,-24.414,-245.605,0.000
1737551793.354,18.555,-1.953,-28.809,-8.789,0.000
1737551793.358,6.836,-9.277,-24.902,-2.930,0.000
1737551793.362,6.836,-18.066,-15.625,-87.891,0.000
1737551793.366,14.160,-18.555,-16.602,-161.621,0.000
1737551793.370,20.996,-17.090,-32.715,-270.020,0.000
1737551793.373,18.066,-22.461,-39.551,-66.895,0.000
1737551793.377,33.203,-28.320,-30.273,38.574,0.000
1737551793.381,35.645,-17.578,-39.551,-107.910,0.000
1737551793.385,29.297,-2.930,-36.621,-167.480,0.000
1737551793.389,20.996,-9.277,-11.719,-210.938,0.000
1737551793.393,34.668,-12.207,-7.324,-83.008,0.000
1737551793.397,17.090,-14.648,-19.531,-1.465,0.000
1737551793.401,-9.766,-26.367,-24.902,-81.543,0.000
1737551793.405,42.969,-24.414,-24.414,-148.926,0.000
1737551793.409,66.895,-25.879,-27.344,-253.418,0.000
1737551793.412,20.996,-26.367,-34.180,-73.242,0.000
1737551793.416,-10.254,-26.367,-35.156,67.871,0.000
1737551793.420,10.254,-34.668,-28.320,-19.531,0.000
1737551793.424,25.879,-25.391,-27.832,-85.938,0.000
1737551793.428,6.348,-6.836,-40.039,-236.816,0.000
1737551793.432,-18.066,-9.277,-41.992,-95.215,0.000
1737551793.436,-5.859,-13.184,-25.391,182.617,0.000
1737551793.440,4.883,-17.578,-17.090,33.691,0.000
1737551793.444,14.160,-21.973,-15.137,-175.781,0.000
1737551793.448,4.883,-18.066,-15.625,-230.957,0.000
1737551793.452,-11.230,-21.973,-20.020,-105.469,0.000
1737551793.455,16.113,-14.160,-18.555,55.664,0.000
1737551793.459,51.758,-11.719,-17.578,8.301,0.000
1737551793.463,49.316,-23.926,-35.156,-62.500,0.000
1737551793.467,16.113,-15.625,-38.574,-185.547,0.000
1737551793.471,-10.742,-7.324,-20.020,-112.793,0.000
1737551793.475,-20.996,-9.766,-9.766,71.777,0.000
1737551793.479,-2.441,-13.184,-12.695,23.438,0.000
1737551793.483,20.020,-16.113,-18.066,-55.664,0.000
1737551793.487,-4.883,-21.973,-22.461,-239.258,0.000
1737551793.491,-27.832,-28.809,-23.926,-198.242,0.000
1737551793.495,-29.297,-26.855,-17.090,70.312,0.000
1737551793.498,-16.602,-16.602,-13.184,50.293,0.000
1737551793.502,9.277,-19.043,-10.254,-44.922,0.000
1737551793.506,-20.020,-20.508,-4.883,-130.371,0.000
1737551793.510,-4.883,-20.996,-12.207,-149.902,0.000
1737551793.514,48.340,-24.902,-22.461,97.168,0.000
1737551793.518,22.949,-15.625,-17.090,112.793,0.000
1737551793.522,20.020,-10.742,-7.324,6.348,0.000
1737551793.526,21.484,-16.113,-7.812,-40.039,0.000
1737551793.530,-27.832,-22.949,-22.949,-144.043,0.000
1737551793.534,-29.297,-30.273,-21.973,40.527,0.000
1737551793.537,-12.695,-32.227,-18.555,160.156,0.000
1737551793.541,0.488,-27.832,-22.461,47.852,0.000
1737551793.545,20.508,-26.367,-18.066,-47.363,0.000
1737551793.549,-0.977,-24.902,-14.160,-70.312,0.000
1737551793.553,-20.020,-25.879,-18.066,46.387,0.000
1737551793.557,-14.160,-16.602,-10.254,100.098,0.000
1737551793.561,-9.277,-22.461,-9.277,-10.254,0.000
1737551793.565,-15.625,-32.227,-17.090,-75.195,0.000
1737551793.569,-14.160,-26.855,-8.789,-117.676,0.000
1737551793.573,-23.926,-19.043,-4.395,4.395,0.000
1737551793.577,-23.926,-23.438,-2.930,54.199,0.000
1737551793.580,9.277,-42.480,-9.766,-85.449,0.000
1737551793.584,31.738,-20.508,-21.484,-113.770,0.000
1737551793.588,4.395,-10.254,-17.578,-225.098,0.000
1737551793.592,-33.203,-16.113,-20.508,-149.414,0.000
1737551793.596,-10.742,-5.371,-16.113,40.039,0.000
1737551793.600,2.441,-4.883,-8.789,-11.719,0.000
1737551793.604,-8.301,-18.066,-20.020,-132.812,0.000
1737551793.608,4.883,-18.555,-17.578,-264.648,0.000
1737551793.612,4.395,-12.207,-11.719,-189.941,0.000
1737551793.616,-6.836,-19.531,-26.855,37.598,0.000
1737551793.620,-7.324,-14.160,-20.996,13.184,0.000
1737551793.623,-10.254,-16.602,-6.348,-141.602,0.000
1737551793.627,-3.906,-26.855,-18.555,-264.160,0.000
1737551793.631,4.395,-14.648,-28.320,-181.152,0.000
1737551793.635,-6.348,0.488,-26.855,13.184,0.000
1737551793.639,-10.254,-8.301,-23.438,-72.754,0.000
1737551793.643,-9.766,-11.230,-13.672,-153.809,0.000
1737551793.647,-25.391,-11.230,-12.695,-221.680,0.000
1737551793.651,-10.742,-5.859,-7.812,-189.453,0.000
1737551793.655,22.949,-3.906,-8.301,29.297,0.000
1737551793.659,-3.906,-17.090,-11.230,13.672,0.000
1737551793.662,-21.484,-20.996,-17.578,-53.711,0.000
1737551793.666,-10.254,-22.949,-14.648,-161.621,0.000
1737551793.670,-11.230,-30.273,-9.277,-247.070,0.000
1737551793.674,-20.508,-19.043,-20.020,-20.020,0.000
1737551793.678,-27.344,-11.230,-19.043,62.012,0.000
1737551793.682,-40.527,-20.996,-15.137,-34.180,0.000
1737551793.686,-53.223,-30.273,-18.555,-84.961,0.000
1737551793.690,-32.715,-21.973,-31.250,-116.211,0.000
1737551793.694,-9.277,-4.395,-55.664,63.477,0.000
1737551793.698,-25.879,-13.672,-43.457,121.094,0.000
1737551793.702,-28.809,-27.832,-12.207,20.996,0.000
1737551793.705,-6.836,-20.020,-0.977,-100.586,0.000
1737551793.709,-0.488,-14.160,-2.930,-172.852,0.000
1737551793.713,16.113,-20.020,-14.648,23.926,0.000
1737551793.717,31.250,-25.391,-14.648,76.172,0.000
1737551793.721,5.371,-24.414,-10.254,-2.441,0.000
1737551793.725,-22.949,-23.926,-18.555,-123.047,0.000
1737551793.729,-24.414,-23.926,-20.020,-266.113,0.000
1737551793.733,-30.762,-18.555,-16.602,-99.609,0.000
1737551793.737,-43.457,-15.625,-20.020,33.203,0.000
1737551793.741,-3.906,-13.184,-14.648,-23.438,0.000
1737551793.745,4.395,-13.184,-8.301,-79.102,0.000
1737551793.748,-16.602,-16.113,-13.184,-213.867,0.000
1737551793.752,-27.832,-20.020,-14.160,-104.004,0.000
1737551793.756,-24.414,-20.996,-8.301,26.367,0.000
1737551793.760,-8.789,-12.695,-9.766,-31.250,0.000
1737551793.764,-1.465,-11.719,-24.902,-80.566,0.000
1737551793.768,-16.113,-19.531,-22.949,-236.816,0.000
1737551793.772,-10.254,-32.227,-13.184,-187.988,0.000
1737551793.776,12.207,-29.297,-26.367,31.250,0.000
1737551793.780,-12.695,-18.555,-23.926,-16.602,0.000
1737551793.784,-32.227,-15.625,-17.090,-118.164,0.000
1737551793.787,-24.902,-11.230,-19.531,-214.844,0.000
1737551793.791,-44.922,-10.742,-19.531,-178.711,0.000
1737551793.795,-48.340,-13.184,-22.949,28.320,0.000
1737551793.799,9.277,-21.973,-16.113,-11.719,0.000
1737551793.803,0.488,-24.902,-12.207,-81.543,0.000
1737551793.807,-40.527,-19.531,-15.625,-119.629,0.000
1737551793.811,-26.367,-18.066,-21.484,-88.867,0.000
1737551793.815,-2.441,-18.555,-32.227,59.082,0.000
1737551793.819,-11.230,-29.297,-28.320,-0.977,0.000
1737551793.823,-21.973,-29.785,-7.812,-77.148,0.000
1737551793.827,-14.160,-12.695,-0.977,-175.781,0.000
1737551793.830,-9.277,-6.348,-12.207,-195.312,0.000
1737551793.834,-27.344,-8.789,-11.719,58.105,0.000
1737551793.838,-28.320,-13.184,-5.371,50.293,0.000
1737551793.842,-10.254,-10.254,-13.184,-70.312,0.000
1737551793.846,-43.457,-16.113,-17.578,-166.504,0.000
1737551793.850,-68.848,-26.855,-22.949,-203.613,0.000
1737551793.854,-32.227,-22.949,-31.250,60.547,0.000
1737551793.858,-18.066,-21.484,-25.391,73.242,0.000
1737551793.862,-29.297,-34.180,-3.906,-90.332,0.000
1737551793.866,-10.742,-46.875,-2.930,-218.750,0.000
1737551793.869,-25.391,-32.715,-20.020,-297.363,0.000
1737551793.873,-51.758,-12.695,-8.789,-70.312,0.000
1737551793.877,-48.828,-15.625,-7.812,5.371,0.000
1737551793.881,-20.020,-16.113,-16.113,-94.238,0.000
1737551793.885,-3.906,-7.324,-13.672,-149.902,0.000
1737551793.889,-16.113,-8.301,-21.484,-222.656,0.000
1737551793.893,-21.973,-19.531,-20.020,-66.406,0.000
1737551793.897,-57.617,-18.066,-9.277,26.367,0.000
1737551793.901,-62.500,-9.277,-12.695,-75.684,0.000
1737551793.905,-26.855,-12.695,-20.020,-163.574,0.000
1737551793.909,-17.578,-16.113,-23.438,-286.133,0.000
1737551793.912,-10.254,-30.762,-16.113,-122.559,0.000
1737551793.916,0.488,-34.668,-10.742,65.430,0.000
1737551793.920,11.719,-19.043,-17.578,-26.367,0.000
1737551793.924,39.551,-11.230,-18.066,-104.004,0.000
1737551793.928,27.344,-7.324,-12.207,-220.703,0.000
1737551793.932,-8.301,-4.883,-14.648,-112.793,0.000
1737551793.936,-3.418,-0.977,-23.926,82.520,0.000
1737551793.940,6.348,-3.906,-12.695,18.066,0.000
1737551793.944,8.789,-25.879,2.441,-53.223,0.000
1737551793.948,-28.809,-20.508,-12.695,-164.551,0.000
1737551793.952,-39.551,-13.672,-12.207,-107.422,0.000
1737551793.955,-8.789,-24.902,-7.812,41.992,0.000
1737551793.959,-8.301,-22.949,-17.090,-26.367,0.000
1737551793.963,-27.344,-23.926,-17.090,-47.363,0.000
1737551793.967,-29.785,-9.277,-29.785,-148.926,0.000
1737551793.971,-32.715,1.953,-32.715,-184.570,0.000
1737551793.975,-23.438,0.977,-14.160,55.664,0.000
1737551793.979,0.977,-3.906,4.395,69.824,0.000
1737551793.983,7.812,-23.926,3.906,-44.922,0.000
1737551793.987,-5.859,-32.227,-13.184,-152.832,0.000
1737551793.991,-2.930,-11.719,-17.578,-104.004,0.000
1737551793.994,1.465,-1.953,1.953,114.258,0.000
1737551793.998,-13.184,-10.742,7.812,51.758,0.000
1737551794.002,-16.113,-19.043,-1.953,-47.363,0.000
1737551794.006,-4.395,-15.625,-14.160,-129.883,0.000
1737551794.010,5.371,-18.555,-22.461,-199.707,0.000
1737551794.014,24.414,-17.090,-15.625,30.273,0.000
1737551794.018,40.527,-4.395,-12.695,85.938,0.000
1737551794.022,18.555,-7.812,-4.395,-38.574,0.000
1737551794.026,-3.906,-13.672,-10.254,-133.789,0.000
1737551794.030,4.395,-5.859,-13.184,-225.098,0.000
1737551794.034,8.301,-14.160,-4.395,-54.688,0.000
1737551794.037,-5.371,-18.555,-2.441,18.555,0.000
1737551794.041,-17.578,-14.648,-16.113,-48.828,0.000
1737551794.045,-1.465,-14.160,-22.949,-128.418,0.000
1737551794.049,-15.137,-2.930,-12.695,-278.809,0.000
1737551794.053,-60.547,-6.348,-13.672,-111.328,0.000
1737551794.057,-90.332,-17.578,-14.648,64.941,0.000
1737551794.061,-100.586,-22.461,-24.414,-30.273,0.000
1737551794.065,-46.387,-26.367,-33.691,-119.629,0.000
1737551794.069,-19.531,-32.227,-28.809,-256.836,0.000
1737551794.073,-15.625,-40.039,-18.555,-157.227,0.000
1737551794.077,-21.973,-30.273,-16.113,29.785,0.000
1737551794.080,-29.785,-8.789,-16.602,-41.992,0.000
1737551794.084,-45.410,-11.230,-20.020,-146.973,0.000
1737551794.088,-104.980,-27.344,-28.320,-251.465,0.000
1737551794.092,-79.590,-29.785,-27.344,-105.469,0.000
1737551794.096,-61.035,-17.578,-19.043,46.875,0.000
1737551794.100,-70.312,-15.625,-17.090,-64.453,0.000
1737551794.104,-28.809,-14.160,-20.508,-139.160,0.000
1737551794.108,5.859,-17.578,-24.902,-251.465,0.000
1737551794.112,-4.883,-18.555,-26.367,-139.648,0.000
1737551794.116,-20.020,-23.438,-17.578,92.285,0.000
1737551794.119,-32.715,-35.645,-21.484,22.949,0.000
1737551794.123,-19.043,-22.949,-41.504,-108.887,0.000
1737551794.127,-50.293,-13.672,-25.879,-269.531,0.000
1737551794.131,-85.938,-10.742,-9.766,-229.492,0.000
1737551794.135,-27.832,-15.625,-5.371,50.293,0.000
1737551794.139,-24.414,-18.555,-5.859,-8.789,0.000
1737551794.143,-0.977,-11.230,-12.695,-106.445,0.000
1737551794.147,38.574,-14.160,-20.508,-192.871,0.000
1737551794.151,12.695,-18.555,-22.461,-205.078,0.000
1737551794.155,14.648,-12.695,-11.719,48.340,0.000
1737551794.159,33.691,-9.277,-19.531,61.035,0.000
1737551794.162,31.738,-14.160,-24.414,-32.715,0.000
1737551794.166,32.227,-25.879,-15.625,-121.094,0.000
1737551794.170,4.395,-17.578,-11.230,-175.781,0.000
1737551794.174,-18.066,-5.371,-9.277,20.020,0.000
1737551794.178,-13.184,-16.113,3.418,69.336,0.000
1737551794.182,-19.043,-24.414,9.277,4.883,0.000
1737551794.186,-17.578,-8.301,-10.742,-99.609,0.000
1737551794.190,-22.949,-4.395,-11.719,-230.469,0.000
1737551794.194,-24.414,-17.090,-6.836,-24.902,0.000
1737551794.198,6.836,-14.648,-18.555,95.703,0.000
1737551794.202,1.465,-18.555,-34.668,-28.809,0.000
1737551794.205,-32.227,-23.438,-31.738,-95.703,0.000
1737551794.209,-6.836,-16.113,-8.789,-179.688,0.000
1737551794.213,6.348,-6.836,5.371,-32.715,0.000
1737551794.217,-14.160,-22.949,-3.418,64.941,0.000
1737551794.221,-22.949,-20.508,-10.742,-46.875,0.000
1737551794.225,-19.531,-1.465,-4.883,-118.652,0.000
1737551794.229,-16.113,-12.695,-12.207,-203.125,0.000
1737551794.233,-17.090,-23.438,-20.996,-45.410,0.000
1737551794.237,0.000,-17.090,-25.879,85.938,0.000
1737551794.241,-8.789,-17.578,-33.691,-47.363,0.000
1737551794.244,-40.527,-17.578,-22.949,-115.723,0.000
1737551794.248,-50.293,-17.578,-17.578,-199.707,0.000
1737551794.252,-32.227,-15.137,-16.602,-88.379,0.000
1737551794.256,-25.391,-20.508,-8.301,77.637,0.000
1737551794.260,-21.973,-29.297,-9.277,-10.742,0.000
1737551794.264,-41.016,-27.344,-27.344,-106.445,0.000
1737551794.268,-24.902,-13.184,-18.066,-204.590,0.000
1737551794.272,11.230,0.000,-3.418,-120.605,0.000
1737551794.276,1.465,3.906,-8.301,94.727,0.000
1737551794.280,-8.789,-0.977,-10.742,28.809,0.000
1737551794.284,-9.277,-16.113,-20.508,-99.609,0.000
1737551794.287,-24.902,-11.719,-29.785,-217.773,0.000
1737551794.291,-23.438,-0.977,-19.531,-145.020,0.000
1737551794.295,14.160,-19.531,-18.555,75.684,0.000
1737551794.299,21.484,-35.156,-31.738,39.551,0.000
1737551794.303,-47.852,-29.785,-43.945,-89.355,0.000
1737551794.307,-74.219,-18.066,-25.391,-176.758,0.000
1737551794.311,-35.645,-4.883,1.465,-115.723,0.000
1737551794.315,-27.344,-7.324,-12.207,58.105,0.000
1737551794.319,-36.621,-27.344,-23.438,-17.090,0.000
1737551794.323,-60.547,-19.531,-7.812,-41.992,0.000
1737551794.326,-80.078,-1.953,-20.508,-154.785,0.000
1737551794.330,-77.637,-1.953,-38.086,-249.512,0.000
1737551794.334,-75.684,-18.066,-24.902,-21.484,0.000
1737551794.338,-55.664,-35.156,-15.137,38.086,0.000
1737551794.342,-21.973,-26.367,-14.160,-96.680,0.000
1737551794.346,-44.922,-20.508,-17.090,-177.246,0.000
1737551794.350,-61.035,-20.996,-21.973,-183.594,0.000
1737551794.354,-68.359,-16.113,-19.043,-19.043,0.000
1737551794.358,-60.059,-16.113,-19.531,43.457,0.000
1737551794.362,-44.922,-13.672,-32.715,-16.113,0.000
1737551794.366,-55.664,-19.531,-33.203,-116.211,0.000
1737551794.369,-35.156,-26.367,-25.879,-195.312,0.000
1737551794.373,4.395,-18.066,-18.066,-12.207,0.000
1737551794.377,-6.348,-14.648,-29.785,14.648,0.000
1737551794.381,-24.414,-27.832,-36.133,-85.449,0.000
1737551794.385,-15.625,-28.809,-18.555,-107.910,0.000
1737551794.389,-24.902,-16.113,-19.043,-201.172,0.000
1737551794.393,-33.691,-7.812,-29.297,-64.941,0.000
1737551794.397,-21.973,-12.695,-20.996,73.730,0.000
1737551794.401,-46.387,-29.297,-9.277,-46.875,0.000
1737551794.405,-61.523,-30.273,-15.137,-121.582,0.000
1737551794.409,-41.992,-20.508,-26.855,-191.406,0.000
1737551794.412,-47.363,-25.879,-24.414,-93.750,0.000
1737551794.416,-45.898,-27.832,-28.320,63.965,0.000
1737551794.420,-38.574,-20.508,-15.625,-5.371,0.000
1737551794.424,-34.668,-25.391,-15.625,-118.652,0.000
1737551794.428,-61.035,-37.598,-26.367,-262.207,0.000
1737551794.432,-67.871,-30.273,-21.973,-141.602,0.000
1737551794.436,-48.828,-14.648,-18.066,56.152,0.000
1737551794.440,-29.297,-10.254,-21.973,23.926,0.000
1737551794.444,-3.906,-4.883,-35.156,-44.434,0.000
1737551794.448,0.000,-22.461,-40.527,-218.750,0.000
1737551794.451,-26.855,-47.852,-35.645,-154.297,0.000
1737551794.455,-52.246,-30.762,-20.996,64.453,0.000
1737551794.459,-54.688,-16.602,-9.766,-21.973,0.000
1737551794.463,-42.969,-15.137,-22.461,-100.098,0.000
1737551794.467,-45.898,-15.137,-29.785,-188.477,0.000
1737551794.471,-60.059,-23.926,-23.438,-193.848,0.000
1737551794.475,-60.059,-21.484,-18.555,11.719,0.000
1737551794.479,-66.406,-14.648,-14.160,-3.906,0.000
1737551794.483,-65.430,-14.648,-17.578,-78.613,0.000
1737551794.487,-48.340,-23.438,-31.738,-170.410,0.000
1737551794.491,-35.645,-42.969,-33.691,-196.289,0.000
1737551794.494,-38.086,-33.691,-18.066,20.020,0.000
1737551794.498,-28.809,-10.742,-14.160,34.668,0.000
1737551794.502,-27.344,-10.254,-16.113,-83.984,0.000
1737551794.506,-53.223,-20.508,-18.555,-180.176,0.000
1737551794.510,-45.898,-19.043,-24.902,-198.730,0.000
1737551794.514,0.977,-12.695,-26.367,-24.902,0.000
1737551794.518,7.324,-16.113,-29.785,17.578,0.000
1737551794.522,-32.227,-32.227,-27.832,-50.781,0.000
1737551794.526,-52.734,-35.156,-20.020,-158.691,0.000
1737551794.530,-45.898,-20.020,-23.438,-233.887,0.000
1737551794.534,-41.016,-15.625,-12.207,-34.180,0.000
1737551794.537,-48.828,-16.113,-8.789,44.922,0.000
1737551794.541,-35.156,-12.207,-20.996,-29.297,0.000
1737551794.545,-28.809,-8.301,-20.508,-106.934,0.000
1737551794.549,-24.414,-8.301,-13.672,-222.168,0.000
1737551794.553,-25.879,-11.719,-16.113,-72.266,0.000
1737551794.557,-31.738,-12.695,-17.090,74.219,0.000
1737551794.561,-51.270,-20.020,-23.438,-42.969,0.000
1737551794.565,-58.594,-30.273,-34.180,-156.250,0.000
1737551794.569,-49.805,-12.207,-36.133,-258.301,0.000
1737551794.573,-49.316,5.371,-25.879,-126.465,0.000
1737551794.576,-49.805,-2.441,-9.766,55.176,0.000
1737551794.580,-46.875,-14.160,-6.348,-28.320,0.000
1737551794.584,-30.273,-20.508,-10.742,-124.023,0.000
1737551794.588,-43.457,-20.508,-21.484,-239.258,0.000
1737551794.592,-46.875,-21.973,-28.320,-161.133,0.000
1737551794.596,-8.789,-19.531,-22.461,38.086,0.000
1737551794.600,3.418,-16.602,-22.461,-20.996,0.000
1737551794.604,-28.809,-17.090,-26.855,-108.887,0.000
1737551794.608,-50.293,0.000,-29.785,-237.305,0.000
1737551794.612,-62.500,-4.395,-14.648,-190.918,0.000
1737551794.616,-69.824,-17.090,-8.301,65.430,0.000
1737551794.619,-57.617,-14.160,-12.207,4.883,0.000
1737551794.623,-43.457,-27.344,-13.184,-124.023,0.000
1737551794.627,-60.547,-24.414,-15.137,-217.285,0.000
1737551794.631,-36.621,-21.973,-26.367,-203.613,0.000
1737551794.635,0.977,-27.832,-30.273,3.418,0.000
1737551794.639,-27.344,-12.695,-26.367,-1.953,0.000
1737551794.643,-33.203,2.930,-43.457,-87.891,0.000
1737551794.647,-19.531,-3.906,-37.598,-193.848,0.000
1737551794.651,-16.602,-14.160,-12.695,-180.664,0.000
1737551794.655,-10.742,-14.160,-2.930,80.566,0.000
1737551794.659,-26.367,-7.324,2.441,41.016,0.000
1737551794.662,-25.391,-13.184,-1.953,-87.402,0.000
1737551794.666,-1.953,-15.625,-8.789,-179.688,0.000
1737551794.670,7.812,-3.906,-17.578,-233.398,0.000
1737551794.674,11.230,-18.066,-23.926,-21.973,0.000
1737551794.678,25.391,-24.414,-30.762,32.227,0.000
1737551794.682,24.414,-16.113,-29.297,-67.871,0.000
1737551794.686,-5.859,-7.812,-20.508,-147.949,0.000
1737551794.690,-38.086,-9.766,-10.254,-236.816,0.000
1737551794.694,-17.578,-10.742,0.488,-15.137,0.000
1737551794.698,-0.488,0.977,-5.859,94.238,0.000
1737551794.701,-12.207,-2.441,-9.277,-45.410,0.000
1737551794.705,-15.625,-9.766,-9.277,-154.785,0.000
1737551794.709,-21.484,-26.367,-15.625,-235.352,0.000
1737551794.713,-18.066,-26.367,-20.996,-65.918,0.000
1737551794.717,7.324,-21.973,-23.926,39.551,0.000
1737551794.721,20.508,-35.645,-24.414,-44.434,0.000
1737551794.725,-1.953,-13.184,-18.066,-98.145,0.000
1737551794.729,-13.672,2.441,-12.207,-220.215,0.000
1737551794.733,-5.859,-9.277,-15.137,-111.328,0.000
1737551794.737,-22.461,-12.207,-19.043,42.480,0.000
1737551794.741,-41.504,-17.090,-11.230,-34.180,0.000
1737551794.744,-33.691,-23.438,-3.418,-83.008,0.000
1737551794.748,-30.762,-12.207,-9.766,-228.027,0.000
1737551794.752,-20.508,-3.906,-11.719,-86.914,0.000
1737551794.756,-11.719,-17.090,-18.066,89.844,0.000
1737551794.760,-6.348,-16.113,-23.926,-45.410,0.000
1737551794.764,-3.906,0.977,-16.113,-87.402,0.000
1737551794.768,-5.371,-7.812,-13.184,-212.891,0.000
1737551794.772,22.461,-30.762,-34.668,-147.461,0.000
1737551794.776,28.809,-21.484,-39.062,83.984,0.000
1737551794.780,16.602,-5.859,-24.902,28.320,0.000
1737551794.783,-21.484,-3.906,-22.461,-34.668,0.000
1737551794.787,-45.410,-8.301,-21.973,-145.020,0.000
1737551794.791,-32.227,-5.371,-22.461,-149.414,0.000
1737551794.795,-36.133,-12.695,-12.207,42.480,0.000
1737551794.799,-43.457,-34.668,-18.066,31.738,0.000
1737551794.803,-25.391,-27.832,-20.020,-61.035,0.000
1737551794.807,-20.020,-8.789,-12.695,-225.098,0.000
1737551794.811,-18.066,-2.930,-17.578,-214.355,0.000
1737551794.815,-24.414,-6.348,-18.555,28.320,0.000
1737551794.819,-23.926,-15.137,-18.066,57.129,0.000
1737551794.823,1.465,-20.020,-18.555,-46.387,0.000
1737551794.826,-20.020,-16.602,-19.043,-172.363,0.000
1737551794.830,-41.016,-21.484,-12.207,-211.914,0.000
1737551794.834,-14.648,-15.625,-8.301,33.203,0.000
1737551794.838,15.625,-6.348,-0.977,112.305,0.000
1737551794.842,1.953,-23.438,-5.371,-40.039,0.000
1737551794.846,-6.836,-5.371,-27.344,-166.992,0.000
1737551794.850,15.625,4.395,-25.879,-210.938,0.000
1737551794.854,41.504,-6.836,-8.789,49.316,0.000
1737551794.858,15.137,6.348,-9.766,104.980,0.000
1737551794.862,-28.809,0.977,-14.648,-50.781,0.000
1737551794.866,-37.109,-14.160,-11.719,-122.559,0.000
1737551794.869,-38.086,-20.020,-10.254,-236.328,0.000
1737551794.873,-36.621,-34.180,-14.648,-39.062,0.000
1737551794.877,-23.438,-35.156,-19.043,108.887,0.000
1737551794.881,-23.926,-14.160,-21.973,-26.367,0.000
1737551794.885,-32.227,-3.906,-15.625,-73.242,0.000
1737551794.889,-46.875,-8.301,-17.090,-181.641,0.000
1737551794.893,-60.059,-19.043,-26.855,-63.477,0.000
1737551794.897,-19.531,-20.996,-10.742,74.219,0.000
1737551794.901,3.418,-17.090,-4.395,-10.742,0.000
1737551794.905,-11.719,-19.531,-19.531,-51.270,0.000
1737551794.908,-26.367,-20.508,-22.949,-212.891,0.000
1737551794.912,-27.832,-38.574,-22.461,-97.656,0.000
1737551794.916,-8.301,-41.992,-25.391,99.121,0.000
1737551794.920,-18.066,-16.113,-20.020,-40.039,0.000
1737551794.924,-38.086,0.000,-20.996,-142.090,0.000
1737551794.928,-58.594,-7.324,-20.508,-213.867,0.000
1737551794.932,-57.617,-17.090,-11.719,-87.891,0.000
1737551794.936,-49.316,-16.602,-9.277,37.109,0.000
1737551794.940,-45.898,-25.391,-14.648,-63.477,0.000
1737551794.944,-43.457,-24.902,-21.484,-96.680,0.000
1737551794.948,-25.879,-33.203,-35.645,-237.793,0.000
1737551794.951,1.465,-43.945,-28.809,-193.359,0.000
1737551794.955,-23.438,-32.227,-7.812,22.461,0.000
1737551794.959,-37.109,-12.207,-8.301,-37.109,0.000
1737551794.963,-9.766,-1.465,-13.672,-111.816,0.000
1737551794.967,-20.508,-1.953,-10.254,-220.703,0.000
1737551794.971,-38.574,-3.418,-12.695,-221.191,0.000
1737551794.975,-8.301,-15.137,-14.648,24.902,0.000
1737551794.979,27.344,-13.184,-7.324,31.738,0.000
1737551794.983,27.344,-1.953,-19.531,-47.363,0.000
1737551794.987,3.418,-8.301,-18.555,-173.340,0.000
1737551794.991,-25.391,-12.695,-9.766,-237.793,0.000
1737551794.994,-31.738,-10.742,-20.996,6.836,0.000
1737551794.998,-32.715,-9.766,-26.367,43.945,0.000
1737551795.002,-39.551,-24.902,-18.066,-47.852,0.000
1737551795.006,-29.297,-23.438,-20.020,-125.488,0.000
1737551795.010,-33.203,-15.137,-21.484,-224.609,0.000
1737551795.014,-45.410,-20.996,-17.090,-26.367,0.000
1737551795.018,-31.250,-9.766,-24.902,34.180,0.000
1737551795.022,-20.508,-1.465,-27.344,-85.938,0.000
1737551795.026,-27.832,-3.418,-18.066,-113.281,0.000
1737551795.030,-28.809,-16.602,-27.832,-218.262,0.000
1737551795.033,-21.484,-42.480,-38.574,-80.078,0.000
1737551795.037,-5.859,-30.273,-25.391,70.801,0.000
1737551795.041,-20.020,-24.902,-19.531,-2.930,0.000
1737551795.045,-12.695,-28.320,-22.949,-88.867,0.000
1737551795.049,-9.766,-19.531,-14.160,-243.652,0.000
1737551795.053,-44.434,-10.742,-20.996,-111.816,0.000
1737551795.057,-27.344,-6.348,-26.855,46.875,0.000
1737551795.061,5.859,-4.883,-22.949,-30.762,0.000
1737551795.065,35.645,-20.508,-27.832,-111.816,0.000
1737551795.069,46.875,-53.223,-20.996,-234.863,0.000
1737551795.073,-15.625,-34.180,-14.160,-73.730,0.000
1737551795.076,-60.059,-5.371,-10.254,87.891,0.000
1737551795.080,-61.035,-15.137,-1.953,-23.926,0.000
1737551795.084,-34.668,-13.184,-0.488,-69.824,0.000
1737551795.088,-35.156,-3.418,-8.301,-209.961,0.000
1737551795.092,-50.781,-12.207,-15.625,-149.414,0.000
1737551795.096,-44.922,-15.137,-16.113,93.750,0.000
1737551795.100,-26.367,-18.555,-17.578,4.883,0.000
1737551795.104,-2.441,-23.926,-20.996,-119.141,0.000
1737551795.108,-5.371,-24.902,-23.438,-221.191,0.000
1737551795.112,-23.438,-27.832,-20.020,-177.246,0.000
1737551795.116,-16.602,-22.461,-13.184,86.914,0.000
1737551795.119,0.977,-13.184,-13.672,75.684,0.000
1737551795.123,7.324,-3.418,-14.648,-70.801,0.000
1737551795.127,-12.207,-7.324,-10.254,-218.262,0.000
1737551795.131,-9.277,-17.578,-18.555,-217.285,0.000
1737551795.135,26.855,-21.973,-33.203,33.691,0.000
1737551795.139,41.016,-21.484,-27.344,33.691,0.000
1737551795.143,12.207,-14.648,-8.301,-91.797,0.000
1737551795.147,-25.391,-14.160,-4.883,-193.359,0.000
1737551795.151,-49.316,-12.695,-15.625,-216.797,0.000
1737551795.155,-60.059,-14.648,-17.090,31.738,0.000
1737551795.158,-46.387,-30.273,-11.230,51.270,0.000
1737551795.162,-32.227,-38.574,-15.625,-71.777,0.000
1737551795.166,-16.113,-17.090,-25.879,-107.422,0.000
1737551795.170,2.441,-4.883,-36.621,-160.645,0.000
1737551795.174,-14.160,-14.160,-28.320,-33.203,0.000
1737551795.178,-54.688,-11.719,-12.207,10.254,0.000
1737551795.182,-29.785,-7.812,-12.695,-77.148,0.000
1737551795.186,-20.020,-19.043,-14.160,-151.855,0.000
1737551795.190,-51.270,-33.691,-12.695,-223.633,0.000
1737551795.194,-60.059,-31.250,-12.207,-70.312,0.000
1737551795.198,-54.688,-36.133,-14.160,41.016,0.000
1737551795.201,-72.266,-37.598,-21.973,-28.320,0.000
1737551795.205,-67.383,-20.996,-33.203,-121.582,0.000
1737551795.209,-49.316,-8.301,-51.270,-210.938,0.000
1737551795.213,-34.668,-11.719,-30.762,-53.223,0.000
1737551795.217,-30.762,-20.020,-4.395,39.551,0.000
1737551795.221,-30.273,-24.414,-10.742,-66.895,0.000
1737551795.225,-43.945,-34.668,-6.348,-132.812,0.000
1737551795.229,-68.848,-29.785,-6.836,-262.207,0.000
1737551795.233,-59.570,-27.344,-5.371,-113.770,0.000
1737551795.237,-21.973,-36.133,-6.348,104.004,0.000
1737551795.240,-16.602,-33.203,-14.160,14.648,0.000
1737551795.244,-22.461,-39.551,-20.508,-106.934,0.000
1737551795.248,-5.859,-27.832,-22.461,-237.305,0.000
1737551795.252,1.465,-16.602,-14.160,-146.973,0.000
1737551795.256,-49.316,-29.785,-6.348,60.059,0.000
1737551795.260,-113.281,-40.039,-1.953,1.465,0.000
1737551795.264,-92.773,-30.762,6.836,-93.750,0.000
1737551795.268,-75.684,-19.043,-3.906,-235.840,0.000
1737551795.272,-68.848,-27.344,-20.508,-169.434,0.000
1737551795.276,-27.344,-40.039,-15.137,70.312,0.000
1737551795.280,1.465,-29.297,-12.207,40.039,0.000
1737551795.283,12.695,-15.137,-16.113,-38.574,0.000
1737551795.287,8.789,-14.160,-14.160,-148.926,0.000
1737551795.291,-18.066,-9.277,-1.465,-148.438,0.000
1737551795.295,-51.758,-17.090,16.113,71.777,0.000
1737551795.299,-43.457,-35.645,6.348,73.730,0.000
1737551795.303,-34.668,-27.832,-15.625,-17.090,0.000
1737551795.307,-5.859,-13.184,-11.230,-113.770,0.000
1737551795.311,13.184,-23.926,-8.789,-173.828,0.000
1737551795.315,-8.301,-33.203,-7.812,10.254,0.000
1737551795.319,-6.836,-23.926,-0.488,71.289,0.000
1737551795.323,-17.578,-16.113,-6.836,-32.227,0.000
1737551795.326,-25.879,-17.578,-20.020,-157.227,0.000
1737551795.330,-17.578,-31.738,-25.391,-243.652,0.000
1737551795.334,-8.301,-22.949,-15.137,-34.180,0.000
1737551795.338,-0.488,-12.207,-10.742,71.777,0.000
1737551795.342,-7.324,-22.949,-11.230,-14.648,0.000
1737551795.346,-26.855,-16.602,-0.488,-114.258,0.000
1737551795.350,-15.137,-8.789,1.953,-207.520,0.000
1737551795.354,-19.531,-16.113,-8.301,-10.742,0.000
1737551795.358,-37.598,-20.020,-6.836,62.500,0.000
1737551795.362,-33.203,-16.113,-9.766,-67.383,0.000
1737551795.365,-23.438,-16.113,-20.508,-113.281,0.000
1737551795.369,-36.133,-12.207,-20.996,-206.543,0.000
1737551795.373,-22.461,-18.555,-28.809,-71.289,0.000
1737551795.377,2.441,-21.973,-31.738,51.758,0.000
1737551795.381,2.930,-6.836,-20.020,-21.973,0.000
1737551795.385,-3.906,-10.254,-6.836,-95.215,0.000
1737551795.389,4.883,-32.227,-11.230,-233.887,0.000
1737551795.393,-4.395,-22.461,-17.090,-126.465,0.000
1737551795.397,3.906,5.859,-6.348,58.105,0.000
1737551795.401,-8.789,6.348,-0.977,39.062,0.000
1737551795.405,-23.926,-11.230,-12.207,-80.078,0.000
1737551795.408,-11.230,-20.996,-35.156,-254.395,0.000
1737551795.412,-27.344,-13.672,-30.762,-117.676,0.000
1737551795.416,-27.344,-9.277,-6.836,83.984,0.000
1737551795.420,-11.230,-4.883,-3.418,9.277,0.000
1737551795.424,-3.418,-8.301,-0.488,-81.543,0.000
1737551795.428,13.672,-10.254,0.000,-185.059,0.000
1737551795.432,7.324,-16.602,-18.555,-150.391,0.000
1737551795.436,-33.203,-20.996,-26.367,63.477,0.000
1737551795.440,-51.758,-11.719,-19.531,47.363,0.000
1737551795.444,-28.809,-24.414,-20.020,-86.426,0.000
1737551795.448,-12.695,-46.387,-25.879,-160.156,0.000
1737551795.451,-11.719,-37.109,-42.480,-172.852,0.000
1737551795.455,-22.949,-7.324,-25.879,17.578,0.000
1737551795.459,-40.527,-20.508,-0.977,31.250,0.000
1737551795.463,-30.273,-43.945,-17.090,-92.285,0.000
1737551795.467,-32.227,-26.367,-25.879,-202.637,0.000
1737551795.471,-48.828,-7.324,-12.695,-212.402,0.000
1737551795.475,-44.434,-14.160,-8.789,40.527,0.000
1737551795.479,-38.086,-27.344,-13.672,44.434,0.000
1737551795.483,-41.016,-23.926,-24.414,-94.727,0.000
1737551795.487,-35.645,-25.879,-37.109,-168.457,0.000
1737551795.490,-39.551,-24.414,-22.949,-222.656,0.000
1737551795.494,-10.742,-9.766,1.953,27.344,0.000
1737551795.498,23.438,-18.066,-9.766,55.664,0.000
1737551795.502,3.906,-35.645,-16.602,-93.750,0.000
1737551795.506,-6.348,-30.762,-15.625,-162.598,0.000
1737551795.510,10.742,-14.648,-12.207,-215.332,0.000
1737551795.514,-18.555,0.488,-6.348,17.090,0.000
1737551795.518,-55.664,-11.230,-15.625,83.008,0.000
1737551795.522,-41.016,-27.344,-20.020,-97.168,0.000
1737551795.526,-53.711,-13.184,-17.578,-174.316,0.000
1737551795.530,-86.426,-5.371,-13.184,-260.254,0.000
1737551795.533,-79.590,-3.906,-14.648,-99.121,0.000
1737551795.537,-71.289,-10.742,-22.949,7.812,0.000
1737551795.541,-76.172,-39.551,-31.738,-90.332,0.000
1737551795.545,-95.703,-26.367,-27.344,-198.242,0.000
1737551795.549,-83.984,-8.301,-19.043,-337.402,0.000
1737551795.553,-56.641,-5.371,-25.391,-125.488,0.000
1737551795.557,-45.410,-6.348,-23.926,44.922,0.000
1737551795.561,-42.969,-13.184,-16.113,-43.457,0.000
1737551795.565,-50.781,-2.930,-20.508,-104.004,0.000
1737551795.569,-61.523,4.883,-18.555,-244.141,0.000
1737551795.573,-51.270,-5.371,-6.836,-142.578,0.000
1737551795.576,-20.020,-24.414,-8.301,25.879,0.000
1737551795.580,-3.906,-32.715,-15.625,-60.547,0.000
1737551795.584,4.883,-33.203,-20.508,-107.422,0.000
1737551795.588,-3.418,-18.066,-24.414,-205.078,0.000
1737551795.592,-34.668,-8.301,-17.578,-170.898,0.000
1737551795.596,-45.898,-12.207,-15.625,35.156,0.000
1737551795.600,-42.480,-5.859,-23.438,-35.645,0.000
1737551795.604,-48.828,-14.160,-27.832,-93.750,0.000
1737551795.608,-41.992,-21.484,-17.578,-172.852,0.000
1737551795.612,-28.809,-14.648,-14.648,-136.230,0.000
1737551795.615,-28.320,-16.602,0.977,68.848,0.000
1737551795.619,-31.738,-4.883,9.277,31.738,0.000
1737551795.623,-34.668,-6.836,-7.812,-74.219,0.000
1737551795.627,-5.371,-16.602,-20.508,-182.129,0.000
1737551795.631,15.137,-11.719,-21.973,-212.402,0.000
1737551795.635,-25.879,-15.137,-16.113,83.984,0.000
1737551795.639,-34.668,-13.672,-12.695,114.258,0.000
1737551795.643,0.000,-3.906,-25.879,-97.656,0.000
1737551795.647,-11.230,-14.160,-43.457,-187.012,0.000
1737551795.651,-24.902,-12.695,-25.391,-227.051,0.000
1737551795.655,8.789,-11.230,-2.930,16.602,0.000
1737551795.658,33.203,-17.578,-8.301,96.680,0.000
1737551795.662,-10.742,-12.695,-19.043,-57.617,0.000
1737551795.666,-32.715,-22.949,-28.320,-171.875,0.000
1737551795.670,-27.832,-21.973,-31.738,-216.309,0.000
1737551795.674,-35.645,-9.766,-16.602,-21.484,0.000
1737551795.678,-46.875,-8.301,-7.324,65.918,0.000
1737551795.682,-34.668,-10.254,-2.930,-35.645,0.000
1737551795.686,-23.438,-29.297,-5.859,-124.023,0.000
1737551795.690,-37.109,-36.133,-20.508,-215.820,0.000
1737551795.694,-20.996,-7.324,-15.625,-43.457,0.000
1737551795.697,-5.371,-8.301,-9.766,41.504,0.000
1737551795.701,-16.602,-20.020,-20.020,-63.965,0.000
1737551795.705,-22.949,-7.324,-29.297,-110.840,0.000
1737551795.709,-10.742,-13.672,-20.020,-222.168,0.000
1737551795.713,-1.953,-32.227,-20.996,-95.703,0.000
1737551795.717,6.348,-27.344,-35.645,83.984,0.000
1737551795.721,11.719,-15.137,-19.531,-28.809,0.000
1737551795.725,5.371,-28.320,-1.953,-91.797,0.000
1737551795.729,-5.859,-42.969,-5.371,-191.406,0.000
1737551795.733,-27.344,-20.996,-14.648,-124.512,0.000
1737551795.737,-26.855,2.441,-32.227,52.734,0.000
1737551795.740,-12.207,-2.930,-37.109,-12.695,0.000
1737551795.744,-34.668,-19.043,-24.902,-123.047,0.000
1737551795.748,-38.086,-26.367,-7.812,-230.469,0.000
1737551795.752,-14.160,-37.109,-6.836,-129.395,0.000
1737551795.756,-15.625,-32.715,-19.043,83.984,0.000
1737551795.760,-33.691,-20.508,-19.043,8.301,0.000
1737551795.764,-35.645,-28.320,-18.066,-88.379,0.000
1737551795.768,-20.996,-39.062,-18.066,-208.496,0.000
1737551795.772,-8.789,-20.996,-11.719,-184.570,0.000
1737551795.776,-41.992,-5.859,-27.344,68.359,0.000
1737551795.780,-72.266,-16.602,-21.484,-4.883,0.000
1737551795.783,-55.176,-28.320,-3.906,-115.723,0.000
1737551795.787,-55.176,-23.926,-14.160,-224.121,0.000
1737551795.791,-56.641,-19.043,-17.578,-252.930,0.000
1737551795.795,-28.320,-19.043,-26.367,46.387,0.000
1737551795.799,-29.785,-9.277,-40.039,31.250,0.000
1737551795.803,-53.711,-7.812,-32.715,-112.793,0.000
1737551795.807,-49.316,-17.090,-19.531,-171.387,0.000
1737551795.811,-52.246,-29.785,-33.203,-219.238,0.000
1737551795.815,-39.551,-33.203,-26.367,4.395,0.000
1737551795.819,-12.695,-36.621,-10.742,26.855,0.000
1737551795.822,-18.555,-31.738,-23.926,-101.074,0.000
1737551795.826,-44.434,-5.859,-33.203,-195.801,0.000
1737551795.830,-72.266,5.859,-18.066,-272.949,0.000
1737551795.834,-47.852,-2.441,-12.695,-68.359,0.000
1737551795.838,-32.715,-6.348,-22.949,41.992,0.000
1737551795.842,-21.484,-12.695,-20.020,10.742,0.000
1737551795.846,6.348,-24.902,-12.695,-126.465,0.000
1737551795.850,-2.930,-22.461,-12.695,-275.879,0.000
1737551795.854,-23.438,-8.789,-10.742,-59.082,0.000
1737551795.858,-8.301,6.348,-14.160,83.008,0.000
1737551795.862,-7.812,10.254,-20.020,-58.594,0.000
1737551795.865,-17.090,-4.883,-22.949,-130.371,0.000
1737551795.869,-23.926,-20.996,-26.855,-213.379,0.000
