timestamps,TP9,AF7,AF8,TP10,Right AUX
1737558516.588,306.641,67.383,179.688,884.766,0.000
1737558516.592,-605.957,46.387,145.996,162.598,0.000
1737558516.596,-1000.000,41.016,125.977,-1000.000,0.000
1737558516.600,-796.387,58.105,130.859,-967.285,0.000
1737558516.604,-215.820,49.316,129.395,-977.051,0.000
1737558516.608,-318.848,47.852,92.285,-998.047,0.000
1737558516.612,-950.195,42.969,35.645,-999.023,0.000
1737558516.616,-1000.000,44.434,-3.418,-1000.000,0.000
1737558516.620,-291.992,68.848,-30.273,-999.512,0.000
1737558516.624,590.820,83.984,-44.922,-1000.000,0.000
1737558516.628,181.152,73.730,-44.434,-1000.000,0.000
1737558516.631,-714.355,60.547,-39.551,-1000.000,0.000
1737558516.635,-1000.000,58.594,-37.598,-1000.000,0.000
1737558516.639,-354.492,67.871,-23.438,-1000.000,0.000
1737558516.643,514.160,70.801,13.184,-1000.000,0.000
1737558516.647,163.574,69.824,40.039,-1000.000,0.000
1737558516.651,-658.203,69.824,41.016,-1000.000,0.000
1737558516.655,-1000.000,50.293,16.113,-1000.000,0.000
1737558516.659,-484.375,53.223,21.973,-1000.000,0.000
1737558516.663,493.652,61.523,40.527,-1000.000,0.000
1737558516.667,410.645,73.242,52.246,-1000.000,0.000
1737558516.670,-479.980,74.707,25.391,-1000.000,0.000
1737558516.674,-1000.000,51.758,-32.227,-1000.000,0.000
1737558516.678,-575.684,60.547,-53.711,-1000.000,0.000
1737558516.682,396.484,78.125,-38.574,-1000.000,0.000
1737558516.686,443.848,66.895,-17.578,-1000.000,0.000
1737558516.690,-379.883,70.801,-15.137,-1000.000,0.000
1737558516.694,-1000.000,63.965,-36.621,-1000.000,0.000
1737558516.698,-591.797,39.062,-45.410,-1000.000,0.000
1737558516.702,464.844,51.758,-23.926,-1000.000,0.000
1737558516.706,636.230,66.406,-15.625,-1000.000,0.000
1737558516.710,-135.254,54.688,-19.043,-1000.000,0.000
1737558516.713,-1000.000,44.434,-4.883,-1000.000,0.000
1737558516.717,-683.105,64.453,7.324,-989.258,0.000
1737558516.721,364.746,82.520,27.344,-1000.000,0.000
1737558516.725,675.293,69.824,40.527,-939.941,0.000
1737558516.729,-24.414,48.340,27.344,-837.891,0.000
1737558516.733,-980.957,48.828,-18.555,-994.629,0.000
1737558516.737,-886.719,68.359,-50.293,-981.934,0.000
1737558516.741,80.078,71.777,-32.715,-1000.000,0.000
1737558516.745,678.223,65.430,1.465,-894.043,0.000
1737558516.749,525.391,56.641,19.531,-284.668,0.000
1737558516.753,-540.527,18.066,5.371,-681.152,0.000
1737558516.756,-1000.000,11.719,-23.926,-1000.000,0.000
1737558516.760,-217.773,42.480,-16.602,-967.773,0.000
1737558516.764,568.359,64.453,25.879,-1000.000,0.000
1737558516.768,135.254,56.641,42.969,-982.910,0.000
1737558516.772,-804.199,29.297,12.207,-996.582,0.000
1737558516.776,-1000.000,27.344,-25.879,-1000.000,0.000
1737558516.780,-185.059,45.410,-17.090,-999.023,0.000
1737558516.784,610.352,51.758,2.441,-1000.000,0.000
1737558516.788,138.672,50.293,-8.301,-1000.000,0.000
1737558516.792,-729.980,27.344,-22.949,-1000.000,0.000
1737558516.796,-1000.000,13.184,-37.109,-1000.000,0.000
1737558516.799,-310.059,46.875,-27.344,-1000.000,0.000
1737558516.803,534.668,59.082,-0.488,-1000.000,0.000
1737558516.807,115.234,44.434,20.020,-1000.000,0.000
1737558516.811,-707.520,38.574,22.461,-1000.000,0.000
1737558516.815,-1000.000,33.691,-5.859,-1000.000,0.000
1737558516.819,-591.309,38.574,-20.508,-1000.000,0.000
1737558516.823,0.000,49.316,15.137,-1000.000,0.000
1737558516.827,0.000,47.852,35.156,-1000.000,0.000
1737558516.831,0.000,42.969,15.137,-1000.000,0.000
1737558516.835,0.000,35.156,3.418,-1000.000,0.000
1737558516.838,0.000,43.457,17.578,-1000.000,0.000
1737558516.842,0.000,56.152,35.645,-1000.000,0.000
1737558516.846,0.000,39.551,44.434,-1000.000,0.000
1737558516.850,0.000,38.086,24.414,-1000.000,0.000
1737558516.854,0.000,46.387,-21.973,-1000.000,0.000
1737558516.858,0.000,42.969,-26.367,-1000.000,0.000
1737558516.862,0.000,44.434,0.488,-1000.000,0.000
1737558516.866,0.000,46.387,19.043,-1000.000,0.000
1737558516.870,258.301,47.852,13.184,-1000.000,0.000
1737558516.874,76.660,34.180,-33.691,-1000.000,0.000
1737558516.878,-715.820,28.809,-69.336,-1000.000,0.000
1737558516.881,-1000.000,50.293,-40.039,-1000.000,0.000
1737558516.885,-731.445,58.594,-3.906,-1000.000,0.000
1737558516.889,-59.082,47.363,-13.672,-1000.000,0.000
1737558516.893,-179.199,35.156,-47.363,-1000.000,0.000
1737558516.897,-796.387,43.457,-75.195,-1000.000,0.000
1737558516.901,-1000.000,56.641,-90.332,-1000.000,0.000
1737558516.905,-886.230,61.035,-62.500,-1000.000,0.000
1737558516.909,-338.379,49.805,-16.602,-1000.000,0.000
1737558516.913,-185.059,29.785,-23.438,-1000.000,0.000
1737558516.917,-654.785,34.668,-28.809,-1000.000,0.000
1737558516.920,296.387,54.199,-8.789,-1000.000,0.000
1737558516.924,958.496,63.965,5.371,-1000.000,0.000
1737558516.928,482.422,45.898,14.160,-1000.000,0.000
1737558516.932,-504.395,22.461,3.418,-1000.000,0.000
1737558516.936,-658.691,25.879,-21.973,-997.070,0.000
1737558516.940,333.984,44.922,-53.223,-996.582,0.000
1737558516.944,929.199,50.781,-51.270,-1000.000,0.000
1737558516.948,630.371,44.922,-18.555,-796.387,0.000
1737558516.952,-345.703,27.344,-16.602,-826.172,0.000
1737558516.956,-1000.000,33.203,-69.336,-993.164,0.000
1737558516.960,-135.254,57.617,-103.027,-1000.000,0.000
1737558516.963,779.785,60.059,-61.523,-874.023,0.000
1737558516.967,999.512,48.828,-6.836,526.367,0.000
1737558516.971,424.805,26.367,-28.320,641.602,0.000
1737558516.975,-972.656,5.371,-61.035,-781.250,0.000
1737558516.979,-513.672,20.020,-42.480,-1000.000,0.000
1737558516.983,716.797,35.645,-23.926,-794.434,0.000
1737558516.987,999.512,41.016,-17.090,496.582,0.000
1737558516.991,602.539,40.527,-48.828,775.879,0.000
1737558516.995,-763.672,36.133,-114.258,-644.531,0.000
1737558516.999,-681.641,40.527,-101.562,-1000.000,0.000
1737558517.003,408.203,34.668,-27.832,-1000.000,0.000
1737558517.006,932.617,33.691,0.488,-49.316,0.000
1737558517.010,637.695,22.461,1.465,889.160,0.000
1737558517.014,-691.895,-3.906,-22.461,-425.293,0.000
1737558517.018,-951.172,-0.977,-34.180,-1000.000,0.000
1737558517.022,-202.148,15.625,0.000,-866.699,0.000
1737558517.026,755.859,33.691,26.367,239.746,0.000
1737558517.030,540.039,38.574,32.227,999.512,0.000
1737558517.034,-773.438,15.625,-3.906,-45.898,0.000
1737558517.038,-1000.000,6.836,-47.363,-1000.000,0.000
1737558517.042,-788.574,20.996,-60.059,-1000.000,0.000
1737558517.045,-84.961,37.598,-71.289,-570.801,0.000
1737558517.049,71.289,23.926,-55.176,250.000,0.000
1737558517.053,-879.883,-9.277,-41.016,-623.047,0.000
1737558517.057,0.000,0.977,-50.293,-1000.000,0.000
1737558517.061,0.000,17.090,-40.039,-982.910,0.000
1737558517.065,0.000,14.160,-20.020,-926.270,0.000
1737558517.069,0.000,11.230,-11.719,-709.473,0.000
1737558517.073,0.000,6.836,-25.391,-943.848,0.000
1737558517.077,0.000,6.348,-36.621,-1000.000,0.000
1737558517.081,0.000,6.836,-31.738,-984.375,0.000
1737558517.085,0.000,18.066,-4.883,-1000.000,0.000
1737558517.088,0.000,11.719,-14.648,-1000.000,0.000
1737558517.092,0.000,0.488,-75.195,-1000.000,0.000
1737558517.096,0.000,2.441,-83.008,-1000.000,0.000
1737558517.100,0.000,-4.395,-31.250,-1000.000,0.000
1737558517.104,-1000.000,-9.277,-1.465,-1000.000,0.000
1737558517.108,-1000.000,-7.324,-15.137,-1000.000,0.000
1737558517.112,-1000.000,-10.254,-58.105,-1000.000,0.000
1737558517.116,-1000.000,-15.625,-81.055,-1000.000,0.000
1737558517.120,-1000.000,-13.672,-70.312,-1000.000,0.000
1737558517.124,-1000.000,-9.766,-51.758,-1000.000,0.000
1737558517.128,-1000.000,-10.254,-45.410,-1000.000,0.000
1737558517.131,-1000.000,-7.324,-74.219,-1000.000,0.000
1737558517.135,-1000.000,-6.348,-111.328,-1000.000,0.000
1737558517.139,-1000.000,-4.395,-98.145,-1000.000,0.000
1737558517.143,-1000.000,0.977,-70.801,-1000.000,0.000
1737558517.147,-1000.000,10.742,-69.336,-1000.000,0.000
1737558517.151,0.000,1.953,0.000,-1000.000,0.000
1737558517.155,0.000,-22.461,0.000,-1000.000,0.000
1737558517.159,0.000,-17.090,0.000,-1000.000,0.000
1737558517.163,0.000,-9.766,0.000,-1000.000,0.000
1737558517.167,0.000,-14.160,0.000,-1000.000,0.000
1737558517.170,0.000,-18.555,0.000,-1000.000,0.000
1737558517.174,0.000,-30.273,0.000,-1000.000,0.000
1737558517.178,0.000,-22.461,0.000,-1000.000,0.000
1737558517.182,0.000,-18.555,0.000,-1000.000,0.000
1737558517.186,0.000,-17.090,0.000,-1000.000,0.000
1737558517.190,0.000,-13.672,0.000,-1000.000,0.000
1737558517.194,0.000,-26.855,0.000,-1000.000,0.000
1737558517.198,-1000.000,-23.926,-122.559,-1000.000,0.000
1737558517.202,-1000.000,-12.695,-105.469,-1000.000,0.000
1737558517.206,-1000.000,-13.672,-93.750,-1000.000,0.000
1737558517.210,-1000.000,-3.906,-100.098,-1000.000,0.000
1737558517.213,-1000.000,-3.906,-122.559,-1000.000,0.000
1737558517.217,-1000.000,-5.859,-140.625,-1000.000,0.000
1737558517.221,-1000.000,-6.348,-144.531,-1000.000,0.000
1737558517.225,-1000.000,-19.531,-134.766,-1000.000,0.000
1737558517.229,-1000.000,-32.227,-116.699,-1000.000,0.000
1737558517.233,-1000.000,-42.969,-110.352,-1000.000,0.000
1737558517.237,-1000.000,-45.410,-86.426,-1000.000,0.000
1737558517.241,-1000.000,-54.199,-46.875,-1000.000,0.000
1737558517.245,-1000.000,-59.570,-13.672,-1000.000,0.000
1737558517.249,-1000.000,-62.500,-3.906,-1000.000,0.000
1737558517.253,-1000.000,-76.660,28.320,-1000.000,0.000
1737558517.256,-1000.000,-90.332,93.262,-1000.000,0.000
1737558517.260,-1000.000,-99.609,129.395,-1000.000,0.000
1737558517.264,-1000.000,-103.516,147.949,-1000.000,0.000
1737558517.268,-1000.000,-111.328,160.645,-1000.000,0.000
1737558517.272,-1000.000,-112.793,152.832,-1000.000,0.000
1737558517.276,-1000.000,-111.816,143.066,-1000.000,0.000
1737558517.280,-1000.000,-110.840,170.898,-1000.000,0.000
1737558517.284,-1000.000,-98.633,205.566,-1000.000,0.000
1737558517.288,-1000.000,-88.379,227.539,-1000.000,0.000
1737558517.292,-1000.000,-74.219,213.379,-1000.000,0.000
1737558517.295,-1000.000,-57.617,168.457,-1000.000,0.000
1737558517.299,-1000.000,-53.711,145.996,-984.375,0.000
1737558517.303,-1000.000,-58.105,117.188,-1000.000,0.000
1737558517.307,-1000.000,-54.199,70.312,-915.527,0.000
1737558517.311,-1000.000,-60.059,-6.348,-731.934,0.000
1737558517.315,-1000.000,-75.684,-132.812,-958.496,0.000
1737558517.319,-1000.000,-53.223,-180.664,-1000.000,0.000
1737558517.323,-1000.000,-16.113,-183.105,-985.840,0.000
1737558517.327,-1000.000,-5.859,-241.211,-1000.000,0.000
1737558517.331,-1000.000,-4.395,-295.898,-1000.000,0.000
1737558517.335,-1000.000,3.906,-309.082,-1000.000,0.000
1737558517.338,-1000.000,1.953,-275.391,-1000.000,0.000
1737558517.342,-1000.000,2.930,-241.699,-1000.000,0.000
1737558517.346,-1000.000,13.184,-250.488,-1000.000,0.000
1737558517.350,-1000.000,12.207,-287.598,-1000.000,0.000
1737558517.354,-1000.000,7.812,-344.727,-1000.000,0.000
1737558517.358,-1000.000,6.348,-343.750,-1000.000,0.000
1737558517.362,-1000.000,-0.488,-253.906,-1000.000,0.000
1737558517.366,-1000.000,-11.230,-145.020,-1000.000,0.000
1737558517.370,-1000.000,-3.906,-73.730,-1000.000,0.000
1737558517.374,-1000.000,5.371,-47.852,-1000.000,0.000
1737558517.378,-1000.000,4.395,-24.902,-1000.000,0.000
1737558517.381,-1000.000,5.371,8.789,-1000.000,0.000
1737558517.385,-1000.000,2.930,38.574,-1000.000,0.000
1737558517.389,-1000.000,-0.488,46.875,-1000.000,0.000
1737558517.393,-1000.000,3.906,10.742,-1000.000,0.000
1737558517.397,-1000.000,4.395,-33.691,-1000.000,0.000
1737558517.401,-1000.000,7.324,-26.855,-1000.000,0.000
1737558517.405,-1000.000,11.719,-10.742,-1000.000,0.000
1737558517.409,-1000.000,13.672,-26.855,-1000.000,0.000
1737558517.413,-1000.000,18.066,-53.711,-1000.000,0.000
1737558517.417,-1000.000,16.113,-72.266,-1000.000,0.000
1737558517.420,-1000.000,14.648,-76.660,-988.281,0.000
1737558517.424,-1000.000,20.020,-63.965,-1000.000,0.000
1737558517.428,-1000.000,18.555,-47.852,-825.684,0.000
1737558517.432,-1000.000,16.602,-68.848,-773.926,0.000
1737558517.436,-985.840,22.461,-92.285,-972.656,0.000
1737558517.440,-983.398,24.414,-55.176,-1000.000,0.000
1737558517.444,-1000.000,31.250,-2.441,-762.695,0.000
1737558517.448,-142.578,40.527,23.926,474.121,0.000
1737558517.452,-129.395,37.109,20.020,999.512,0.000
1737558517.456,-1000.000,15.625,-22.949,136.719,0.000
1737558517.460,-918.945,6.348,-55.176,-1000.000,0.000
1737558517.463,-1000.000,13.184,-43.945,-962.402,0.000
1737558517.467,-140.625,38.086,-41.504,252.441,0.000
1737558517.471,790.527,44.434,-57.129,983.887,0.000
1737558517.475,-583.496,14.160,-82.520,-332.031,0.000
1737558517.479,-1000.000,16.113,-108.398,-1000.000,0.000
1737558517.483,-717.285,31.250,-116.211,-1000.000,0.000
1737558517.487,459.473,42.480,-114.258,-20.508,0.000
1737558517.491,999.512,44.434,-114.746,999.512,0.000
1737558517.495,923.340,32.715,-122.559,853.516,0.000
1737558517.499,971.191,24.414,-125.488,755.859,0.000
1737558517.503,970.703,23.438,-100.586,963.867,0.000
1737558517.506,969.727,20.020,-62.500,983.398,0.000
1737558517.510,969.727,16.113,-58.105,960.938,0.000
1737558517.514,970.215,24.414,-77.148,972.656,0.000
1737558517.518,973.145,25.391,-44.922,970.703,0.000
1737558517.522,953.613,16.113,1.465,970.703,0.000
1737558517.526,963.379,16.113,15.625,970.703,0.000
1737558517.530,907.715,9.277,11.719,970.703,0.000
1737558517.534,131.836,-1.465,-11.719,970.703,0.000
1737558517.538,-808.105,-5.859,-31.250,970.703,0.000
1737558517.542,-655.762,-2.441,-18.066,970.703,0.000
1737558517.546,-414.551,-2.930,-6.836,970.703,0.000
1737558517.549,-833.984,-3.418,-25.879,970.703,0.000
1737558517.553,-1000.000,4.395,-50.781,970.703,0.000
1737558517.557,-984.375,11.230,-62.988,970.703,0.000
1737558517.561,-1000.000,5.371,-62.500,970.703,0.000
1737558517.565,-1000.000,0.488,-32.715,970.703,0.000
1737558517.569,-1000.000,2.441,9.766,970.703,0.000
1737558517.573,-1000.000,3.906,27.344,970.703,0.000
1737558517.577,-1000.000,-3.906,21.484,970.703,0.000
1737558517.581,-1000.000,-8.789,46.875,970.703,0.000
1737558517.585,-1000.000,3.418,84.961,970.703,0.000
1737558517.588,-1000.000,11.719,83.496,970.703,0.000
1737558517.592,-1000.000,5.371,77.637,970.703,0.000
1737558517.596,-1000.000,-9.277,69.336,970.703,0.000
1737558517.600,-1000.000,-10.742,58.105,970.703,0.000
1737558517.604,-1000.000,-5.859,55.176,970.703,0.000
1737558517.608,-1000.000,-6.836,43.457,971.191,0.000
1737558517.612,-1000.000,-4.395,19.531,966.309,0.000
1737558517.616,-1000.000,-1.465,-23.926,971.680,0.000
1737558517.620,-1000.000,-10.742,-62.988,981.934,0.000
1737558517.624,-1000.000,-33.203,-56.152,735.352,0.000
1737558517.628,-1000.000,-63.477,-56.152,950.195,0.000
1737558517.631,-1000.000,-89.355,-113.281,186.523,0.000
1737558517.635,-1000.000,-117.188,-198.242,-1000.000,0.000
1737558517.639,-1000.000,-135.742,-261.719,-983.887,0.000
1737558517.643,-1000.000,-163.574,-285.156,-974.121,0.000
1737558517.647,-1000.000,-197.754,-286.621,-1000.000,0.000
1737558517.651,-1000.000,-216.309,-299.316,-1000.000,0.000
1737558517.655,-1000.000,-229.980,-339.844,-1000.000,0.000
1737558517.659,-1000.000,-243.652,-384.766,-1000.000,0.000
1737558517.663,-1000.000,-252.930,-404.297,-1000.000,0.000
1737558517.667,-1000.000,-243.652,-375.000,-1000.000,0.000
1737558517.671,-973.145,-207.031,-324.219,-1000.000,0.000
1737558517.674,-1000.000,-177.246,-317.871,-1000.000,0.000
1737558517.678,-870.605,-126.465,-293.945,-1000.000,0.000
1737558517.682,-239.746,-60.547,-234.375,-1000.000,0.000
1737558517.686,-544.922,-27.832,-187.012,-1000.000,0.000
1737558517.690,-1000.000,-18.066,-178.223,-1000.000,0.000
1737558517.694,-983.887,-0.488,-192.871,-1000.000,0.000
1737558517.698,-993.164,37.598,-132.812,-1000.000,0.000
1737558517.702,-1000.000,70.801,-15.137,-1000.000,0.000
1737558517.706,-1000.000,102.051,107.910,-1000.000,0.000
1737558517.710,-1000.000,139.160,211.914,-1000.000,0.000
1737558517.713,0.000,170.410,279.297,-1000.000,0.000
1737558517.717,0.000,187.988,309.082,-1000.000,0.000
1737558517.721,0.000,203.125,279.297,-1000.000,0.000
1737558517.725,0.000,213.867,194.336,-1000.000,0.000
1737558517.729,0.000,215.820,72.754,-1000.000,0.000
1737558517.733,0.000,217.773,-65.430,-1000.000,0.000
1737558517.737,0.000,200.684,-220.703,-1000.000,0.000
1737558517.741,0.000,184.082,-302.734,-1000.000,0.000
1737558517.745,0.000,207.520,-287.598,-1000.000,0.000
1737558517.749,0.000,224.609,-273.926,-1000.000,0.000
1737558517.753,0.000,213.379,-315.918,-1000.000,0.000
1737558517.756,0.000,232.910,-417.480,-1000.000,0.000
1737558517.760,-1000.000,260.254,-495.117,-1000.000,0.000
1737558517.764,-1000.000,247.070,-532.715,-1000.000,0.000
1737558517.768,-1000.000,189.453,-591.309,-1000.000,0.000
1737558517.772,-1000.000,155.273,-677.734,-1000.000,0.000
1737558517.776,-1000.000,164.062,-737.305,-1000.000,0.000
1737558517.780,-1000.000,201.172,-731.445,-1000.000,0.000
1737558517.784,-1000.000,243.652,-712.402,-1000.000,0.000
1737558517.788,-1000.000,252.930,-711.426,-1000.000,0.000
1737558517.792,-1000.000,279.785,-729.492,-1000.000,0.000
1737558517.796,-1000.000,314.453,-765.137,-1000.000,0.000
1737558517.799,-1000.000,346.680,-783.691,-1000.000,0.000
1737558517.803,-1000.000,372.559,-778.809,-1000.000,0.000
1737558517.807,-1000.000,388.184,-785.156,-1000.000,0.000
1737558517.811,-1000.000,436.523,-763.184,-1000.000,0.000
1737558517.815,-1000.000,530.762,-695.801,-1000.000,0.000
1737558517.819,-1000.000,619.141,-629.395,-1000.000,0.000
1737558517.823,-1000.000,663.086,-596.191,-1000.000,0.000
1737558517.827,-1000.000,678.223,-593.750,-1000.000,0.000
1737558517.831,-1000.000,658.691,-613.281,-1000.000,0.000
1737558517.835,-1000.000,638.672,-650.879,-1000.000,0.000
1737558517.838,-1000.000,628.906,-652.832,-1000.000,0.000
1737558517.842,-1000.000,634.766,-618.164,-1000.000,0.000
1737558517.846,-1000.000,657.227,-565.430,-1000.000,0.000
1737558517.850,-1000.000,638.184,-539.062,-1000.000,0.000
1737558517.854,-1000.000,579.102,-556.641,-1000.000,0.000
1737558517.858,-1000.000,528.320,-551.758,-1000.000,0.000
1737558517.862,-1000.000,498.535,-528.320,-1000.000,0.000
1737558517.866,-1000.000,472.168,-492.188,-1000.000,0.000
1737558517.870,-1000.000,444.824,-479.492,-1000.000,0.000
1737558517.874,-1000.000,428.223,-502.930,-1000.000,0.000
1737558517.878,-960.938,379.883,-528.320,-1000.000,0.000
1737558517.881,-1000.000,334.473,-541.504,-1000.000,0.000
1737558517.885,-810.059,298.340,-537.598,-1000.000,0.000
1737558517.889,428.223,264.160,-530.762,-1000.000,0.000
1737558517.893,753.418,256.836,-541.016,-1000.000,0.000
1737558517.897,-35.645,231.445,-571.777,-1000.000,0.000
1737558517.901,439.941,181.641,-585.938,-1000.000,0.000
1737558517.905,999.512,152.344,-567.383,-1000.000,0.000
1737558517.909,944.824,158.691,-533.691,-1000.000,0.000
1737558517.913,963.867,136.230,-551.270,-1000.000,0.000
1737558517.917,972.168,76.172,-619.141,-1000.000,0.000
1737558517.921,970.215,32.715,-644.531,-1000.000,0.000
1737558517.924,970.215,-8.789,-644.043,-1000.000,0.000
1737558517.928,970.703,-49.316,-644.043,-1000.000,0.000
1737558517.932,970.215,-62.012,-660.645,-1000.000,0.000
1737558517.936,970.215,-72.266,-718.262,-1000.000,0.000
1737558517.940,970.215,-90.820,-729.980,-1000.000,0.000
1737558517.944,970.215,-108.398,-661.621,-1000.000,0.000
1737558517.948,0.000,-135.254,-599.609,-1000.000,0.000
1737558517.952,0.000,-177.246,-599.609,-1000.000,0.000
1737558517.956,0.000,-185.547,-570.312,-1000.000,0.000
1737558517.960,0.000,-201.172,-521.973,-1000.000,0.000
1737558517.963,0.000,-225.098,-495.605,-1000.000,0.000
1737558517.967,0.000,-216.797,-458.496,-1000.000,0.000
1737558517.971,0.000,-234.375,-445.312,-1000.000,0.000
1737558517.975,0.000,-274.902,-435.059,-1000.000,0.000
1737558517.979,0.000,-295.898,-386.719,-1000.000,0.000
1737558517.983,0.000,-301.270,-327.148,-1000.000,0.000
1737558517.987,0.000,-320.312,-293.457,-1000.000,0.000
1737558517.991,0.000,-350.586,-324.219,-1000.000,0.000
1737558517.995,-421.875,-367.676,-372.070,-1000.000,0.000
1737558517.999,-1000.000,-381.836,-367.676,-1000.000,0.000
1737558518.003,-663.574,-392.578,-361.328,-1000.000,0.000
1737558518.006,358.887,-381.348,-373.535,-1000.000,0.000
1737558518.010,882.324,-371.582,-412.109,-1000.000,0.000
1737558518.014,-288.086,-385.254,-517.090,-1000.000,0.000
1737558518.018,-1000.000,-392.090,-606.934,-1000.000,0.000
1737558518.022,59.570,-367.188,-702.637,-1000.000,0.000
1737558518.026,999.512,-351.562,-784.668,-1000.000,0.000
1737558518.030,939.453,-358.398,-854.492,-986.328,0.000
1737558518.034,953.613,-354.980,-955.078,-966.797,0.000
1737558518.038,975.586,-334.473,-1000.000,-1000.000,0.000
1737558518.042,970.215,-295.410,-1000.000,-6.836,0.000
1737558518.046,970.215,-261.719,-984.375,999.512,0.000
1737558518.049,970.215,-246.582,-955.078,937.012,0.000
1737558518.053,970.215,-230.957,-955.566,955.566,0.000
1737558518.057,970.215,-212.402,-959.473,975.098,0.000
1737558518.061,970.215,-198.730,-914.551,970.703,0.000
1737558518.065,970.215,-206.543,-840.820,970.703,0.000
1737558518.069,970.215,-199.707,-776.367,970.703,0.000
1737558518.073,970.215,-168.457,-748.535,970.703,0.000
1737558518.077,970.215,-165.527,-756.348,970.703,0.000
1737558518.081,970.215,-149.902,-740.723,970.703,0.000
1737558518.085,970.215,-127.930,-730.957,970.703,0.000
1737558518.088,970.215,-117.188,-750.488,970.703,0.000
1737558518.092,970.215,-92.773,-767.578,970.703,0.000
1737558518.096,970.215,-80.078,-791.992,970.703,0.000
1737558518.100,970.215,-59.082,-806.152,970.703,0.000
1737558518.104,970.215,-31.250,-832.031,970.703,0.000
1737558518.108,970.215,-12.207,-829.102,970.703,0.000
1737558518.112,970.215,-3.906,-800.781,970.703,0.000
1737558518.116,970.215,4.883,-805.664,970.703,0.000
1737558518.120,970.215,23.926,-791.504,970.703,0.000
1737558518.124,970.215,37.598,-764.160,970.703,0.000
1737558518.128,970.215,77.148,-741.211,970.703,0.000
1737558518.131,970.215,101.562,-769.531,970.703,0.000
1737558518.135,970.215,108.398,-825.195,970.703,0.000
1737558518.139,970.215,125.488,-805.664,970.703,0.000
1737558518.143,970.215,115.234,-719.238,970.703,0.000
1737558518.147,970.215,121.582,-666.016,970.703,0.000
1737558518.151,970.215,145.996,-687.500,970.703,0.000
1737558518.155,970.215,150.879,-737.793,970.703,0.000
1737558518.159,970.215,134.277,-722.168,970.703,0.000
1737558518.163,970.215,140.137,-653.809,970.703,0.000
1737558518.167,970.215,130.371,-626.465,970.703,0.000
1737558518.171,970.215,79.590,-621.094,970.703,0.000
1737558518.174,970.215,55.176,-608.887,970.703,0.000
1737558518.178,970.215,55.176,-586.914,970.703,0.000
1737558518.182,0.000,48.828,0.000,970.703,0.000
1737558518.186,0.000,16.113,0.000,970.703,0.000
1737558518.190,0.000,-26.855,0.000,970.703,0.000
1737558518.194,0.000,-61.523,0.000,970.703,0.000
1737558518.198,0.000,-87.402,0.000,970.703,0.000
1737558518.202,0.000,-88.867,0.000,970.703,0.000
1737558518.206,0.000,-70.801,0.000,970.703,0.000
1737558518.210,0.000,-55.176,0.000,970.703,0.000
1737558518.213,0.000,-41.992,0.000,970.703,0.000
1737558518.217,0.000,-0.977,0.000,970.703,0.000
1737558518.221,0.000,40.039,0.000,970.703,0.000
1737558518.225,0.000,23.438,0.000,970.703,0.000
1737558518.229,970.215,23.926,629.883,970.703,0.000
1737558518.233,970.215,59.082,674.316,970.703,0.000
1737558518.237,970.215,87.891,656.738,970.703,0.000
1737558518.241,970.215,116.211,634.766,970.703,0.000
1737558518.245,970.215,143.066,631.836,970.703,0.000
1737558518.249,969.727,161.621,623.535,970.703,0.000
1737558518.253,970.215,171.875,563.477,970.703,0.000
1737558518.256,970.215,178.223,492.676,970.703,0.000
1737558518.260,970.215,198.242,470.215,970.703,0.000
1737558518.264,970.215,208.984,493.652,971.191,0.000
1737558518.268,970.215,208.008,509.766,970.703,0.000
1737558518.272,970.215,214.355,488.770,967.773,0.000
1737558518.276,970.215,203.613,475.098,980.469,0.000
1737558518.280,972.168,206.055,492.188,916.992,0.000
1737558518.284,963.379,212.402,529.297,905.273,0.000
1737558518.288,922.363,198.242,541.992,913.086,0.000
1737558518.292,999.512,200.195,533.203,999.512,0.000
1737558518.296,107.910,186.523,518.555,394.043,0.000
1737558518.299,-1000.000,162.109,499.023,-978.027,0.000
1737558518.303,-1000.000,148.438,485.352,-874.023,0.000
1737558518.307,85.938,151.367,497.559,347.168,0.000
1737558518.311,999.512,168.457,499.023,999.512,0.000
1737558518.315,-153.320,134.766,466.309,109.863,0.000
1737558518.319,-1000.000,106.934,440.430,-1000.000,0.000
1737558518.323,0.000,101.562,420.898,-1000.000,0.000
1737558518.327,0.000,101.074,408.691,-569.824,0.000
1737558518.331,0.000,111.328,406.250,768.066,0.000
1737558518.335,0.000,78.125,399.414,-48.340,0.000
1737558518.338,0.000,45.898,369.629,-1000.000,0.000
1737558518.342,0.000,49.805,343.262,-1000.000,0.000
1737558518.346,0.000,65.918,355.469,-635.742,0.000
1737558518.350,0.000,68.359,374.512,294.434,0.000
1737558518.354,0.000,31.250,340.332,-504.395,0.000
1737558518.358,0.000,27.832,312.500,-1000.000,0.000
1737558518.362,0.000,37.109,321.777,-950.195,0.000
1737558518.366,0.000,30.273,335.449,-1000.000,0.000
1737558518.370,-1000.000,31.738,309.570,-1000.000,0.000
1737558518.374,-1000.000,37.109,260.254,-1000.000,0.000
1737558518.378,-1000.000,37.109,293.945,-1000.000,0.000
1737558518.381,-1000.000,29.785,334.961,-1000.000,0.000
1737558518.385,-1000.000,30.762,329.102,-1000.000,0.000
1737558518.389,-1000.000,44.922,308.105,-1000.000,0.000
1737558518.393,-1000.000,59.570,272.949,-1000.000,0.000
1737558518.397,-939.453,65.430,242.188,-944.824,0.000
1737558518.401,-1000.000,79.102,260.254,-1000.000,0.000
1737558518.405,-280.273,92.285,285.156,-719.238,0.000
1737558518.409,998.535,94.727,292.480,662.598,0.000
1737558518.413,968.750,84.961,292.969,975.586,0.000
1737558518.417,937.012,80.078,265.625,-289.062,0.000
1737558518.421,979.004,83.008,217.773,-1000.000,0.000
1737558518.424,970.215,97.168,174.316,-8.789,0.000
1737558518.428,970.215,120.605,120.117,999.512,0.000
1737558518.432,969.727,136.719,81.543,938.965,0.000
1737558518.436,970.215,146.973,66.406,952.637,0.000
1737558518.440,970.215,163.574,78.125,975.586,0.000
1737558518.444,970.215,184.570,113.770,970.703,0.000
1737558518.448,969.727,205.566,140.625,970.703,0.000
1737558518.452,970.215,222.656,155.762,970.703,0.000
1737558518.456,970.215,229.492,141.602,970.703,0.000
1737558518.460,970.215,227.051,124.023,970.703,0.000
1737558518.463,970.215,217.773,113.281,970.703,0.000
1737558518.467,970.215,210.449,93.262,970.703,0.000
1737558518.471,970.215,198.730,56.152,970.703,0.000
1737558518.475,970.215,179.688,17.578,970.703,0.000
1737558518.479,970.215,164.062,9.277,970.703,0.000
1737558518.483,970.215,138.672,31.738,970.703,0.000
1737558518.487,970.215,113.770,56.641,970.703,0.000
1737558518.491,970.215,90.820,57.617,970.703,0.000
1737558518.495,970.215,74.707,46.875,970.703,0.000
1737558518.499,970.215,58.105,39.551,970.703,0.000
1737558518.503,970.215,34.180,36.133,970.703,0.000
1737558518.506,969.727,19.043,45.898,970.703,0.000
1737558518.510,969.727,-3.906,32.227,970.703,0.000
1737558518.514,970.215,-29.785,-22.949,970.703,0.000
1737558518.518,970.215,-47.363,-52.246,970.703,0.000
1737558518.522,970.215,-58.105,-44.922,970.703,0.000
1737558518.526,970.215,-58.594,-43.457,970.703,0.000
1737558518.530,970.215,-55.664,-59.082,970.703,0.000
1737558518.534,969.727,-64.453,-66.895,970.703,0.000
1737558518.538,970.215,-76.172,-75.195,970.703,0.000
1737558518.542,970.215,-80.566,-85.449,974.121,0.000
1737558518.546,974.609,-83.496,-66.406,958.496,0.000
1737558518.549,919.922,-94.727,-49.805,933.105,0.000
1737558518.553,999.512,-93.262,-63.965,999.512,0.000
1737558518.557,523.926,-93.262,-83.008,70.312,0.000
1737558518.561,-301.758,-88.867,-94.238,-1000.000,0.000
1737558518.565,446.777,-51.270,-90.332,-203.613,0.000
1737558518.569,999.512,-36.621,-75.684,999.512,0.000
1737558518.573,233.398,-69.336,-111.328,463.867,0.000
1737558518.577,-1000.000,-104.492,-118.164,-877.930,0.000
1737558518.581,-968.750,-105.469,-73.730,-1000.000,0.000
1737558518.585,-1000.000,-89.844,-60.059,-1000.000,0.000
1737558518.588,-336.426,-52.734,-62.988,196.777,0.000
1737558518.592,-230.469,-61.523,-94.727,406.250,0.000
1737558518.596,-1000.000,-107.910,-137.207,-1000.000,0.000
1737558518.600,-992.676,-104.492,-152.832,-1000.000,0.000
1737558518.604,-984.863,-89.844,-139.160,-958.496,0.000
1737558518.608,-1000.000,-90.332,-110.840,-1000.000,0.000
1737558518.612,-1000.000,-93.750,-124.512,-1000.000,0.000
1737558518.616,-1000.000,-96.191,-173.340,-1000.000,0.000
1737558518.620,-1000.000,-92.285,-174.316,-1000.000,0.000
1737558518.624,-1000.000,-89.355,-151.855,-1000.000,0.000
1737558518.628,-1000.000,-81.055,-128.906,-1000.000,0.000
1737558518.631,-1000.000,-81.543,-130.859,-1000.000,0.000
1737558518.635,-1000.000,-90.332,-131.836,-1000.000,0.000
1737558518.639,-1000.000,-86.914,-98.145,-1000.000,0.000
1737558518.643,-1000.000,-83.496,-74.707,-1000.000,0.000
1737558518.647,-1000.000,-79.102,-72.266,-1000.000,0.000
1737558518.651,-1000.000,-78.125,-101.074,-1000.000,0.000
1737558518.655,-1000.000,-81.543,-154.785,-1000.000,0.000
1737558518.659,-1000.000,-78.613,-157.227,-1000.000,0.000
1737558518.663,-1000.000,-80.566,-150.879,-1000.000,0.000
1737558518.667,-1000.000,-83.984,-141.602,-1000.000,0.000
1737558518.671,-1000.000,-95.703,-119.629,-1000.000,0.000
1737558518.674,-1000.000,-108.887,-143.555,-1000.000,0.000
1737558518.678,-1000.000,-104.980,-160.645,-1000.000,0.000
1737558518.682,-1000.000,-92.773,-141.113,-1000.000,0.000
1737558518.686,-1000.000,-83.008,-113.770,-1000.000,0.000
1737558518.690,-1000.000,-85.938,-100.586,-1000.000,0.000
1737558518.694,-1000.000,-94.238,-114.746,-1000.000,0.000
1737558518.698,-1000.000,-90.820,0.000,-1000.000,0.000
1737558518.702,-1000.000,-69.824,0.000,-1000.000,0.000
1737558518.706,-1000.000,-60.547,0.000,-1000.000,0.000
1737558518.710,-1000.000,-67.871,0.000,-1000.000,0.000
1737558518.713,-1000.000,-87.891,0.000,-1000.000,0.000
1737558518.717,-1000.000,-96.191,0.000,-1000.000,0.000
1737558518.721,-1000.000,-89.355,0.000,-1000.000,0.000
1737558518.725,-1000.000,-82.520,0.000,-1000.000,0.000
1737558518.729,-1000.000,-71.289,0.000,-1000.000,0.000
1737558518.733,-1000.000,-73.730,0.000,-1000.000,0.000
1737558518.737,-1000.000,-97.656,0.000,-1000.000,0.000
1737558518.741,-1000.000,-110.352,0.000,-1000.000,0.000
1737558518.745,-1000.000,-95.703,-87.891,-1000.000,0.000
1737558518.749,-1000.000,-86.914,-66.406,-1000.000,0.000
1737558518.753,-1000.000,-87.891,-107.910,-1000.000,0.000
1737558518.756,-1000.000,-80.078,-155.762,-1000.000,0.000
1737558518.760,-1000.000,-81.055,-133.301,-989.746,0.000
1737558518.764,-1000.000,-84.473,-93.262,-1000.000,0.000
1737558518.768,-1000.000,-87.891,-87.402,-821.289,0.000
1737558518.772,-1000.000,-99.121,-99.609,-783.203,0.000
1737558518.776,-1000.000,-102.539,-146.973,-1000.000,0.000
1737558518.780,-998.535,-97.168,-181.641,-956.543,0.000
1737558518.784,-1000.000,-93.750,-160.156,-1000.000,0.000
1737558518.788,-983.398,-84.961,-125.977,-585.449,0.000
1737558518.792,-976.074,-82.031,-134.766,-185.059,0.000
1737558518.796,-1000.000,-95.703,-191.406,-903.320,0.000
1737558518.799,-952.148,-96.191,-204.590,-1000.000,0.000
1737558518.803,-1000.000,-87.891,-173.828,-978.027,0.000
1737558518.807,-242.188,-68.359,-133.789,136.230,0.000
1737558518.811,1.465,-68.359,-125.000,999.512,0.000
1737558518.815,-1000.000,-107.422,-147.461,-101.074,0.000
1737558518.819,-961.914,-111.328,-123.047,-1000.000,0.000
1737558518.823,-1000.000,-98.145,-73.242,-1000.000,0.000
1737558518.827,-547.363,-90.820,-55.176,-122.559,0.000
1737558518.831,-254.395,-91.309,-60.547,999.512,0.000
1737558518.835,-1000.000,-116.699,-106.445,-230.957,0.000
1737558518.838,-967.773,-117.188,-167.969,-1000.000,0.000
1737558518.842,-1000.000,-89.844,-163.086,-1000.000,0.000
1737558518.846,-550.781,-67.383,-97.656,-217.773,0.000
1737558518.850,-113.281,-77.148,-64.453,999.512,0.000
1737558518.854,-973.633,-115.723,-95.703,27.832,0.000
1737558518.858,-1000.000,-128.418,-101.074,-1000.000,0.000
1737558518.862,-988.770,-115.723,-92.773,-1000.000,0.000
1737558518.866,-965.820,-102.051,-87.891,-831.055,0.000
1737558518.870,-739.746,-103.516,-70.312,-124.023,0.000
1737558518.874,-941.895,-127.441,-96.191,-591.797,0.000
1737558518.878,-983.887,-123.047,-162.109,-1000.000,0.000
1737558518.881,-1000.000,-109.375,-194.336,-1000.000,0.000
1737558518.885,-901.367,-110.840,-179.199,-874.512,0.000
1737558518.889,521.484,-89.844,-178.223,616.699,0.000
1737558518.893,59.082,-116.699,-178.711,424.805,0.000
1737558518.897,-1000.000,-145.996,-155.762,-985.840,0.000
1737558518.901,-1000.000,-128.906,-128.418,-1000.000,0.000
1737558518.905,-375.488,-110.840,-79.590,-165.039,0.000
1737558518.909,999.512,-100.586,-50.781,999.512,0.000
1737558518.913,364.746,-116.699,-70.312,864.746,0.000
1737558518.917,-928.711,-129.395,-100.098,-296.387,0.000
1737558518.921,-1000.000,-132.324,-95.215,-1000.000,0.000
1737558518.924,-400.391,-125.488,-67.383,-649.902,0.000
1737558518.928,963.379,-103.516,-54.688,736.328,0.000
1737558518.932,902.344,-115.234,-96.191,869.629,0.000
1737558518.936,-404.297,-146.484,-145.996,-462.891,0.000
1737558518.940,-1000.000,-139.648,-160.645,-1000.000,0.000
1737558518.944,-124.023,-106.445,-169.922,-679.688,0.000
1737558518.948,999.512,-86.914,-165.527,615.723,0.000
1737558518.952,988.281,-98.145,-155.273,999.512,0.000
1737558518.956,-96.680,-125.488,-167.480,-184.570,0.000
1737558518.960,-1000.000,-129.883,-174.316,-1000.000,0.000
1737558518.963,-366.211,-116.211,-134.766,-732.422,0.000
1737558518.967,891.113,-103.516,-97.168,484.863,0.000
1737558518.971,999.512,-104.980,-110.352,999.512,0.000
1737558518.975,119.141,-133.301,-116.699,229.492,0.000
1737558518.979,0.000,-145.996,-109.375,-1000.000,0.000
1737558518.983,0.000,-116.211,-100.586,-477.051,0.000
1737558518.987,0.000,-99.609,-72.754,828.613,0.000
1737558518.991,0.000,-108.398,-72.266,999.512,0.000
1737558518.995,0.000,-128.906,-97.656,563.477,0.000
1737558518.999,0.000,-146.973,-106.934,-888.184,0.000
1737558519.003,0.000,-120.117,-113.281,-581.543,0.000
1737558519.006,0.000,-91.797,-123.047,811.523,0.000
1737558519.010,0.000,-108.887,-123.047,999.512,0.000
1737558519.014,0.000,-129.395,-149.902,833.008,0.000
1737558519.018,0.000,-147.461,-174.316,-518.066,0.000
1737558519.022,0.000,-136.719,-166.504,-589.355,0.000
1737558519.026,786.621,-108.398,-142.090,849.121,0.000
1737558519.030,999.512,-110.840,-131.836,984.863,0.000
1737558519.034,369.141,-119.141,-164.551,999.512,0.000
1737558519.038,-946.777,-136.719,-183.105,-43.457,0.000
1737558519.042,-919.434,-134.766,-160.645,-527.832,0.000
1737558519.046,372.559,-109.375,-95.703,675.293,0.000
1737558519.049,999.512,-109.375,-62.988,999.512,0.000
1737558519.053,55.664,-134.277,-88.379,404.785,0.000
1737558519.057,-1000.000,-148.438,-120.605,-895.508,0.000
1737558519.061,-1000.000,-131.836,-164.062,-1000.000,0.000
1737558519.065,-837.402,-125.488,-196.777,-988.281,0.000
1737558519.069,485.840,-112.793,-233.398,-591.309,0.000
1737558519.073,29.785,-114.258,-314.941,-654.785,0.000
1737558519.077,-1000.000,-128.906,-376.953,-1000.000,0.000
1737558519.081,-948.242,-127.441,-399.414,-928.711,0.000
1737558519.085,-1000.000,-116.699,-371.094,-1000.000,0.000
1737558519.088,271.484,-87.891,-321.289,-69.824,0.000
1737558519.092,350.586,-89.355,-302.734,634.277,0.000
1737558519.096,-1000.000,-127.441,-267.578,-720.703,0.000
1737558519.100,-982.422,-133.789,-221.191,-1000.000,0.000
1737558519.104,-1000.000,-117.188,-153.320,-819.824,0.000
1737558519.108,-46.875,-92.773,-93.750,510.254,0.000
1737558519.112,-21.484,-105.469,-74.707,626.465,0.000
1737558519.116,-1000.000,-131.348,-90.820,-846.191,0.000
1737558519.120,0.000,-121.094,0.000,-988.281,0.000
1737558519.124,0.000,-112.305,0.000,-1000.000,0.000
1737558519.128,0.000,-100.098,0.000,-165.039,0.000
1737558519.131,0.000,-103.516,0.000,827.148,0.000
1737558519.135,0.000,-129.883,0.000,-490.234,0.000
1737558519.139,0.000,-136.719,0.000,-1000.000,0.000
1737558519.143,0.000,-145.020,0.000,-958.984,0.000
1737558519.147,0.000,-136.230,0.000,75.195,0.000
1737558519.151,0.000,-118.652,0.000,999.512,0.000
1737558519.155,0.000,-135.254,0.000,127.930,0.000
1737558519.159,0.000,-142.578,0.000,-1000.000,0.000
1737558519.163,0.000,-128.418,0.000,-864.746,0.000
1737558519.167,-253.418,-103.027,-155.273,283.203,0.000
1737558519.171,291.016,-97.168,-145.996,999.512,0.000
1737558519.174,-959.473,-122.070,-153.320,145.508,0.000
1737558519.178,-991.699,-129.883,-136.719,-1000.000,0.000
1737558519.182,-1000.000,-126.953,-96.680,-1000.000,0.000
1737558519.186,-734.863,-114.746,-66.895,-645.508,0.000
1737558519.190,490.234,-100.098,-59.570,667.480,0.000
1737558519.194,-319.824,-123.047,-86.426,-85.938,0.000
1737558519.198,-1000.000,-129.395,-107.422,-1000.000,0.000
1737558519.202,-971.191,-118.652,-98.145,-969.238,0.000
1737558519.206,-935.547,-110.840,-99.121,-969.238,0.000
1737558519.210,-614.746,-99.609,-130.859,-696.777,0.000
1737558519.213,-880.371,-105.957,-166.016,-855.469,0.000
1737558519.217,-1000.000,-110.840,-184.082,-1000.000,0.000
1737558519.221,-1000.000,-120.605,-179.199,-982.910,0.000
1737558519.225,-933.105,-120.605,-186.523,-1000.000,0.000
1737558519.229,-645.996,-105.957,-212.891,-1000.000,0.000
1737558519.233,-901.855,-114.746,-206.055,-1000.000,0.000
1737558519.237,-1000.000,-123.535,-199.707,-981.445,0.000
1737558519.241,-971.680,-117.676,-206.055,-969.238,0.000
1737558519.245,-1000.000,-113.281,-195.312,-1000.000,0.000
1737558519.249,322.754,-95.703,-174.316,78.125,0.000
1737558519.253,607.422,-111.816,-185.059,963.379,0.000
1737558519.256,-833.496,-140.625,-218.262,-335.938,0.000
1737558519.260,-1000.000,-131.348,-200.195,-1000.000,0.000
1737558519.264,-244.629,-106.445,-126.953,-133.789,0.000
1737558519.268,996.582,-97.168,-97.656,979.980,0.000
1737558519.272,958.008,-113.770,-117.676,999.512,0.000
1737558519.276,-147.949,-133.301,-148.926,67.383,0.000
1737558519.280,-1000.000,-133.789,-175.781,-1000.000,0.000
1737558519.284,-276.855,-114.746,-183.594,-654.297,0.000
1737558519.288,958.496,-104.004,-176.758,616.699,0.000
1737558519.292,999.512,-114.258,-175.781,999.512,0.000
1737558519.296,18.066,-136.719,-184.570,100.586,0.000
1737558519.299,-1000.000,-145.996,-187.988,-1000.000,0.000
1737558519.303,-153.320,-120.117,-170.898,29.297,0.000
1737558519.307,999.512,-102.051,-125.488,999.512,0.000
1737558519.311,999.512,-108.887,-116.211,937.500,0.000
1737558519.315,343.750,-119.629,-139.648,964.844,0.000
1737558519.319,-988.281,-135.742,-115.234,622.559,0.000
1737558519.323,-20.996,-119.141,-90.820,688.965,0.000
1737558519.327,999.512,-97.656,-80.078,947.266,0.000
1737558519.331,999.512,-105.469,-96.680,999.512,0.000
1737558519.335,458.496,-122.070,-178.223,460.938,0.000
1737558519.338,-1000.000,-143.066,-214.355,-1000.000,0.000
1737558519.342,-85.449,-131.348,-207.031,-662.598,0.000
1737558519.346,999.512,-107.910,-238.770,730.469,0.000
1737558519.350,924.316,-110.352,-268.555,999.512,0.000
1737558519.354,999.512,-128.906,-262.695,958.496,0.000
1737558519.358,566.895,-145.020,-252.930,702.637,0.000
1737558519.362,609.863,-140.137,-229.980,711.914,0.000
1737558519.366,999.512,-129.395,-194.336,999.512,0.000
1737558519.370,946.289,-118.164,-152.832,960.938,0.000
1737558519.374,999.512,-107.910,-118.164,968.750,0.000
1737558519.378,-68.848,-130.371,-88.867,968.750,0.000
1737558519.381,-330.078,-137.207,-44.434,969.238,0.000
1737558519.385,757.324,-110.352,21.484,971.191,0.000
1737558519.389,999.512,-103.516,79.590,970.215,0.000
1737558519.393,445.312,-126.465,60.547,970.703,0.000
1737558519.397,-835.938,-143.555,22.461,970.703,0.000
1737558519.401,-1000.000,-136.719,28.809,970.703,0.000
1737558519.405,50.293,-124.512,29.785,974.121,0.000
1737558519.409,999.512,-115.234,3.418,940.430,0.000
1737558519.413,590.332,-129.395,-60.059,999.512,0.000
1737558519.417,-699.219,-146.484,-134.766,735.840,0.000
1737558519.421,-1000.000,-141.602,-163.086,218.750,0.000
1737558519.424,201.660,-125.977,-166.016,649.414,0.000
1737558519.428,999.512,-126.953,-195.312,999.512,0.000
1737558519.432,996.094,-137.695,-229.004,938.477,0.000
1737558519.436,-118.652,-162.109,-258.301,-155.273,0.000
1737558519.440,-1000.000,-172.363,-290.527,-1000.000,0.000
1737558519.444,120.117,-135.254,-283.203,-770.020,0.000
1737558519.448,999.512,-108.398,-261.719,470.215,0.000
1737558519.452,999.512,-114.746,-258.301,997.070,0.000
1737558519.456,37.109,-148.926,-241.699,-314.941,0.000
1737558519.460,-1000.000,-162.109,-203.613,-1000.000,0.000
1737558519.463,-473.633,-133.789,-165.527,-1000.000,0.000
1737558519.467,817.383,-91.309,-132.812,-31.250,0.000
1737558519.471,974.121,-95.215,-126.465,844.238,0.000
1737558519.475,-304.688,-139.648,-155.273,-547.852,0.000
1737558519.479,-1000.000,-142.090,-172.363,-1000.000,0.000
1737558519.483,-867.676,-125.488,-162.598,-1000.000,0.000
1737558519.487,286.621,-104.004,-143.066,-109.375,0.000
1737558519.491,999.512,-109.863,-148.438,999.512,0.000
1737558519.495,-199.219,-142.090,-177.734,-143.555,0.000
1737558519.499,-1000.000,-144.531,-216.309,-1000.000,0.000
1737558519.503,-1000.000,-129.395,-229.492,-1000.000,0.000
1737558519.506,-55.664,-118.164,-176.758,-709.961,0.000
1737558519.510,999.512,-126.465,-140.137,-263.672,0.000
1737558519.514,-223.145,-145.996,-166.504,-866.211,0.000
1737558519.518,-1000.000,-145.508,-218.262,-1000.000,0.000
1737558519.522,-842.285,-132.324,-235.840,-971.191,0.000
1737558519.526,257.324,-110.840,-193.359,-998.535,0.000
1737558519.530,999.512,-103.516,-171.875,-962.891,0.000
1737558519.534,-74.707,-126.465,-192.871,-1000.000,0.000
1737558519.538,-1000.000,-137.207,-196.289,-978.516,0.000
1737558519.542,-915.039,-123.535,-168.457,-1000.000,0.000
1737558519.546,42.480,-107.422,-148.438,-996.582,0.000
1737558519.549,999.512,-96.191,-151.367,24.902,0.000
1737558519.553,188.965,-122.559,-155.273,-139.648,0.000
1737558519.557,-1000.000,-138.672,-146.484,-1000.000,0.000
1737558519.561,-1000.000,-112.793,-136.230,-1000.000,0.000
1737558519.565,-267.090,-88.379,-131.836,-631.836,0.000
1737558519.569,999.512,-95.215,-109.863,798.340,0.000
1737558519.573,437.988,-125.000,-112.305,782.227,0.000
1737558519.577,-875.000,-144.531,-160.645,-574.219,0.000
1737558519.581,-1000.000,-144.531,-173.340,-1000.000,0.000
1737558519.585,-305.664,-118.164,-138.672,-23.438,0.000
1737558519.588,999.512,-102.539,-106.934,999.512,0.000
1737558519.592,457.520,-119.141,-114.258,999.512,0.000
1737558519.596,-835.449,-134.277,-151.367,527.344,0.000
1737558519.600,-1000.000,-131.836,-147.949,-19.043,0.000
1737558519.604,-374.512,-112.305,-115.234,743.164,0.000
1737558519.608,991.211,-99.121,-86.914,982.910,0.000
1737558519.612,534.668,-121.094,-89.844,999.512,0.000
1737558519.616,-773.438,-151.367,-126.953,610.352,0.000
1737558519.620,-1000.000,-147.949,-147.461,-640.137,0.000
1737558519.624,-664.062,-132.812,-132.812,-153.809,0.000
1737558519.628,730.957,-112.793,-118.164,922.852,0.000
1737558519.631,803.711,-107.910,-142.090,999.512,0.000
1737558519.635,-515.625,-130.371,-173.340,324.219,0.000
1737558519.639,-1000.000,-143.066,-144.043,-1000.000,0.000
1737558519.643,-666.504,-121.582,-102.051,-216.797,0.000
1737558519.647,723.633,-97.168,-101.074,990.723,0.000
1737558519.651,808.105,-94.727,-93.262,991.699,0.000
1737558519.655,-540.039,-115.723,-99.121,819.824,0.000
1737558519.659,-1000.000,-138.184,-100.098,-174.316,0.000
1737558519.663,-981.934,-140.625,-78.613,-48.340,0.000
1737558519.667,201.660,-119.629,-80.566,895.996,0.000
1737558519.671,879.883,-120.117,-112.793,999.512,0.000
1737558519.674,-456.055,-138.184,-157.227,498.535,0.000
1737558519.678,-1000.000,-149.414,-194.824,-814.941,0.000
1737558519.682,-1000.000,-146.484,-206.543,-1000.000,0.000
1737558519.686,-87.891,-123.535,-199.219,141.602,0.000
1737558519.690,999.512,-108.887,-201.660,999.512,0.000
1737558519.694,219.238,-134.277,-230.469,613.281,0.000
1737558519.698,-1000.000,-151.367,-243.652,-644.043,0.000
1737558519.702,-1000.000,-131.348,-225.098,-1000.000,0.000
1737558519.706,-125.488,-109.863,-206.055,-155.273,0.000
1737558519.710,999.512,-104.492,-194.336,999.512,0.000
1737558519.714,226.074,-131.348,-203.613,141.602,0.000
1737558519.717,-1000.000,-143.066,-213.379,-1000.000,0.000
1737558519.721,-954.102,-121.582,-208.984,-982.910,0.000
1737558519.725,95.215,-108.887,-193.359,-979.492,0.000
1737558519.729,999.512,-103.027,-143.066,-727.051,0.000
1737558519.733,619.629,-111.328,-120.117,-815.918,0.000
1737558519.737,-734.863,-131.836,-155.762,-1000.000,0.000
1737558519.741,-753.906,-120.605,-156.250,-953.613,0.000
1737558519.745,500.977,-101.562,-126.465,-1000.000,0.000
1737558519.749,999.512,-85.938,-134.766,-219.727,0.000
1737558519.753,854.492,-90.820,-156.738,29.297,0.000
1737558519.756,-445.801,-124.023,-160.645,-984.863,0.000
1737558519.760,-819.824,-124.512,-161.621,-1000.000,0.000
1737558519.764,477.051,-113.770,-128.906,-970.215,0.000
1737558519.768,999.512,-102.051,-110.840,313.477,0.000
1737558519.772,959.473,-100.586,-106.934,657.227,0.000
1737558519.776,-245.605,-131.836,-105.957,-781.738,0.000
1737558519.780,-971.680,-134.766,-121.582,-1000.000,0.000
1737558519.784,310.059,-102.051,-133.789,-954.590,0.000
1737558519.788,991.211,-80.566,-112.793,168.457,0.000
1737558519.792,999.512,-82.031,-83.496,999.023,0.000
1737558519.796,98.145,-104.004,-74.219,-256.348,0.000
1737558519.799,-1000.000,-123.535,-74.707,-1000.000,0.000
1737558519.803,-256.348,-109.375,-91.309,-825.684,0.000
1737558519.807,907.227,-94.238,-101.562,327.637,0.000
1737558519.811,999.512,-100.098,-98.633,999.512,0.000
1737558519.815,210.449,-120.605,-119.629,102.051,0.000
1737558519.819,-1000.000,-130.371,-143.555,-1000.000,0.000
1737558519.823,0.000,-113.770,-153.320,-878.418,0.000
1737558519.827,0.000,-87.891,-168.945,257.324,0.000
1737558519.831,0.000,-76.172,-193.359,999.512,0.000
1737558519.835,0.000,-103.027,-212.891,251.465,0.000
1737558519.839,0.000,-129.883,-217.285,-1000.000,0.000
1737558519.842,0.000,-111.816,-189.453,-873.047,0.000
1737558519.846,0.000,-84.961,-152.344,321.289,0.000
1737558519.850,0.000,-89.355,-139.160,999.512,0.000
1737558519.854,0.000,-105.957,-140.625,758.301,0.000
1737558519.858,0.000,-120.117,-122.559,-565.918,0.000
1737558519.862,0.000,-112.793,-94.238,-803.223,0.000
1737558519.866,0.000,-89.355,-70.801,565.918,0.000
1737558519.870,999.512,-84.961,-53.223,999.512,0.000
1737558519.874,517.578,-97.656,-54.199,988.770,0.000
1737558519.878,-840.820,-125.488,-83.496,-62.500,0.000
1737558519.881,-854.980,-119.629,-99.609,-280.762,0.000
1737558519.885,474.609,-92.773,-119.629,936.523,0.000
1737558519.889,999.512,-84.473,-115.234,969.727,0.000
1737558519.893,603.516,-100.586,-111.816,999.512,0.000
1737558519.897,-658.691,-130.371,-127.930,678.711,0.000
1737558519.901,-1000.000,-131.836,-115.723,345.703,0.000
1737558519.905,208.496,-101.562,-121.094,863.770,0.000
1737558519.909,999.512,-88.867,-126.953,963.379,0.000
1737558519.913,702.637,-105.957,-139.648,999.512,0.000
1737558519.917,-593.750,-124.512,-162.598,166.504,0.000
1737558519.921,-959.961,-114.746,-180.176,-231.445,0.000
1737558519.924,339.844,-90.332,-168.457,924.805,0.000
1737558519.928,999.512,-87.402,-147.461,999.512,0.000
1737558519.932,716.309,-97.656,-144.531,931.152,0.000
1737558519.936,-424.805,-112.793,-116.211,979.004,0.000
1737558519.940,-1000.000,-114.258,-90.820,970.703,0.000
1737558519.944,-458.984,-114.746,-76.660,970.703,0.000
1737558519.948,777.832,-107.910,-54.688,970.703,0.000
1737558519.952,798.828,-107.422,-67.383,970.703,0.000
1737558519.956,-460.938,-126.953,-114.746,970.703,0.000
1737558519.960,-1000.000,-132.324,-147.461,970.703,0.000
1737558519.964,-632.324,-108.887,-162.598,970.703,0.000
1737558519.967,611.328,-92.285,-144.043,970.703,0.000
1737558519.971,903.320,-97.656,-134.277,970.703,0.000
1737558519.975,-329.590,-106.445,-146.973,970.703,0.000
1737558519.979,-1000.000,-117.676,-153.809,970.703,0.000
1737558519.983,-617.188,-105.957,-147.461,977.539,0.000
1737558519.987,576.660,-82.520,-137.207,926.270,0.000
1737558519.991,999.512,-88.867,-137.207,999.512,0.000
1737558519.995,-79.590,-107.422,-145.996,789.062,0.000
1737558519.999,-1000.000,-108.398,-172.363,-549.316,0.000
1737558520.003,-752.441,-85.938,-162.109,-309.570,0.000
1737558520.006,545.898,-77.148,-133.789,972.656,0.000
1737558520.010,999.512,-79.102,-135.254,979.004,0.000
1737558520.014,-150.879,-96.191,-147.461,937.012,0.000
1737558520.018,-1000.000,-113.770,-131.836,978.516,0.000
1737558520.022,-1000.000,-108.887,-111.816,970.703,0.000
1737558520.026,-404.297,-92.773,-91.797,970.703,0.000
1737558520.030,644.531,-80.566,-44.922,970.703,0.000
1737558520.034,-372.070,-102.539,-6.836,970.703,0.000
1737558520.038,-1000.000,-117.188,-7.324,970.703,0.000
1737558520.042,-1000.000,-109.375,-31.250,973.633,0.000
1737558520.046,-416.016,-93.262,-46.875,961.426,0.000
1737558520.049,999.512,-83.008,-62.988,927.734,0.000
1737558520.053,445.312,-93.262,-106.934,999.512,0.000
1737558520.057,-824.707,-113.770,-146.484,117.188,0.000
1737558520.061,-1000.000,-115.723,-161.133,-1000.000,0.000
1737558520.065,-205.566,-90.820,-170.898,-443.359,0.000
1737558520.069,999.512,-73.730,-165.527,999.512,0.000
1737558520.073,723.633,-86.914,-167.480,588.867,0.000
1737558520.077,-559.082,-104.492,-184.082,-745.605,0.000
1737558520.081,-1000.000,-107.422,-205.078,-1000.000,0.000
1737558520.085,-373.047,-100.098,-206.543,-702.148,0.000
1737558520.089,901.367,-87.402,-157.715,508.301,0.000
1737558520.092,967.285,-103.027,-125.000,999.512,0.000
1737558520.096,-191.406,-125.977,-123.535,225.098,0.000
1737558520.100,-1000.000,-123.047,-108.398,-699.219,0.000
1737558520.104,-190.430,-99.609,-102.539,380.371,0.000
1737558520.108,999.512,-76.660,-109.863,999.512,0.000
1737558520.112,755.371,-79.590,-117.188,999.512,0.000
1737558520.116,-413.086,-96.680,-130.859,693.848,0.000
1737558520.120,-1000.000,-96.191,-65.918,48.340,0.000
1737558520.124,-549.805,-90.332,-9.766,587.891,0.000
1737558520.128,799.805,-92.773,-33.203,974.609,0.000
1737558520.131,705.078,-101.074,-57.129,999.512,0.000
1737558520.135,-595.703,-117.676,-103.027,533.691,0.000
1737558520.139,-1000.000,-137.695,-135.742,-834.961,0.000
1737558520.143,-977.539,-126.465,-125.000,-936.523,0.000
1737558520.147,120.117,-93.262,-124.512,323.242,0.000
1737558520.151,0.000,-78.613,-156.738,999.512,0.000
1737558520.155,0.000,-117.188,-201.172,-173.340,0.000
1737558520.159,0.000,-138.184,-210.449,-1000.000,0.000
1737558520.163,0.000,-103.516,-178.711,-1000.000,0.000
1737558520.167,0.000,-78.613,-137.695,-527.344,0.000
1737558520.171,0.000,-73.730,-148.438,936.523,0.000
1737558520.174,0.000,-94.238,-191.406,223.633,0.000
1737558520.178,0.000,-130.371,-190.430,-1000.000,0.000
1737558520.182,0.000,-131.348,-164.551,-1000.000,0.000
1737558520.186,0.000,-95.215,-145.508,-176.758,0.000
1737558520.190,0.000,-68.359,-137.207,999.512,0.000
1737558520.194,0.000,-96.191,-134.766,401.367,0.000
1737558520.198,-882.324,-134.766,-118.652,-870.605,0.000
1737558520.202,-915.527,-137.695,-109.375,-1000.000,0.000
1737558520.206,256.348,-115.234,-112.305,-417.480,0.000
1737558520.210,999.512,-99.609,-129.883,999.512,0.000
1737558520.214,550.781,-119.141,-170.898,446.777,0.000
1737558520.217,-775.879,-133.301,-191.895,-882.812,0.000
1737558520.221,-1000.000,-130.859,-168.945,-1000.000,0.000
1737558520.225,15.625,-108.398,-137.695,-743.164,0.000
1737558520.229,999.512,-85.449,-123.047,658.203,0.000
1737558520.233,721.680,-99.609,-122.559,569.824,0.000
1737558520.237,-608.398,-116.211,-132.812,-858.887,0.000
1737558520.241,-1000.000,-123.047,-137.695,-1000.000,0.000
1737558520.245,10.254,-116.699,-132.324,-1000.000,0.000
1737558520.249,999.512,-95.703,-132.812,38.086,0.000
1737558520.253,706.543,-106.445,-131.348,166.992,0.000
1737558520.256,-635.254,-127.930,-126.465,-998.535,0.000
1737558520.260,-1000.000,-119.141,-134.277,-995.117,0.000
1737558520.264,-32.227,-91.797,-141.113,-1000.000,0.000
1737558520.268,964.355,-67.871,-148.926,153.320,0.000
1737558520.272,916.016,-86.426,-163.086,789.551,0.000
1737558520.276,-308.105,-118.652,-139.160,-615.723,0.000
1737558520.280,-1000.000,-125.488,-92.285,-1000.000,0.000
1737558520.284,-342.773,-112.793,-86.914,-1000.000,0.000
1737558520.288,820.312,-80.566,-89.355,-146.973,0.000
1737558520.292,965.820,-83.984,-101.074,484.863,0.000
1737558520.296,-294.434,-115.723,-135.254,-795.410,0.000
1737558520.299,-1000.000,-111.816,-151.855,-1000.000,0.000
1737558520.303,-323.242,-97.168,-141.602,-1000.000,0.000
1737558520.307,741.699,-75.195,-123.535,-677.734,0.000
1737558520.311,999.512,-67.871,-123.535,-186.035,0.000
1737558520.315,-15.625,-92.285,-151.367,-845.215,0.000
1737558520.319,-1000.000,-104.980,-169.922,-1000.000,0.000
1737558520.323,-332.031,-83.008,-155.273,-1000.000,0.000
1737558520.327,717.773,-78.613,-131.836,-844.238,0.000
1737558520.331,999.512,-94.238,-125.000,-434.082,0.000
1737558520.335,183.105,-105.957,-133.789,-840.332,0.000
1737558520.339,0.000,-111.328,-143.555,-1000.000,0.000
1737558520.342,0.000,-105.957,-148.438,-1000.000,0.000
1737558520.346,0.000,-104.492,-145.996,-727.539,0.000
1737558520.350,0.000,-83.496,-130.859,665.039,0.000
1737558520.354,0.000,-89.844,-139.648,107.910,0.000
1737558520.358,0.000,-111.328,-151.855,-1000.000,0.000
1737558520.362,0.000,-102.539,-129.395,-1000.000,0.000
1737558520.366,0.000,-85.938,-121.582,-570.312,0.000
1737558520.370,0.000,-82.520,-107.910,902.832,0.000
1737558520.374,0.000,-109.863,-96.191,275.879,0.000
1737558520.378,0.000,-130.371,-105.957,-1000.000,0.000
1737558520.381,0.000,-123.535,-124.512,-1000.000,0.000
1737558520.385,-1000.000,-100.586,-127.930,-533.691,0.000
1737558520.389,-501.953,-84.473,-116.699,851.074,0.000
1737558520.393,581.055,-99.121,-131.348,778.809,0.000
1737558520.397,999.512,-125.977,-145.020,-532.715,0.000
1737558520.401,305.664,-120.605,-136.230,-1000.000,0.000
1737558520.405,-1000.000,-86.426,-107.910,-62.012,0.000
1737558520.409,-855.957,-81.055,-96.191,982.910,0.000
1737558520.413,245.605,-90.820,-112.305,999.512,0.000
1737558520.417,999.512,-96.191,-119.141,282.227,0.000
1737558520.421,371.094,-114.258,-121.094,-1000.000,0.000
1737558520.424,-971.680,-97.656,-123.535,-270.996,0.000
1737558520.428,-946.777,-90.332,-111.328,962.891,0.000
1737558520.432,999.512,-104.492,-117.676,999.512,0.000
1737558520.436,197.754,-121.582,-165.039,-44.922,0.000
1737558520.440,-623.047,-125.488,-161.621,-1000.000,0.000
1737558520.444,669.922,-103.516,-133.301,-653.320,0.000
1737558520.448,999.512,-94.727,-148.438,564.941,0.000
1737558520.452,961.914,-99.609,-145.508,999.512,0.000
1737558520.456,875.977,-120.605,-134.277,691.406,0.000
1737558520.460,444.824,-117.188,-125.488,-123.535,0.000
1737558520.464,795.410,-103.516,-94.727,367.676,0.000
1737558520.467,999.023,-116.211,-47.852,999.512,0.000
1737558520.471,966.797,-110.840,-44.434,975.586,0.000
1737558520.475,945.312,-104.004,-119.629,862.793,0.000
1737558520.479,-55.664,-122.070,-154.297,-210.449,0.000
1737558520.483,208.984,-122.070,-86.426,-31.738,0.000
1737558520.487,999.512,-103.027,-56.152,987.305,0.000
1737558520.491,956.055,-101.074,-84.473,982.422,0.000
1737558520.495,962.891,-118.652,-104.492,940.430,0.000
1737558520.499,139.648,-113.281,-104.980,203.613,0.000
1737558520.503,332.520,-85.938,-109.863,321.777,0.000
1737558520.506,999.512,-84.473,-127.441,999.512,0.000
1737558520.510,956.055,-95.703,-117.188,957.520,0.000
1737558520.514,958.008,-113.770,-118.164,961.914,0.000
1737558520.518,405.273,-130.371,-128.906,942.383,0.000
1737558520.522,542.969,-134.766,-94.727,948.730,0.000
1737558520.526,999.512,-127.441,-49.805,977.051,0.000
1737558520.530,967.285,-118.164,-38.574,945.312,0.000
1737558520.534,878.906,-118.164,-65.430,999.512,0.000
1737558520.538,-439.941,-127.930,-88.867,665.527,0.000
1737558520.542,-596.680,-121.582,-91.309,526.855,0.000
1737558520.546,779.297,-101.074,-71.777,991.211,0.000
1737558520.549,999.512,-99.609,-59.082,934.570,0.000
1737558520.553,770.508,-112.793,-75.684,999.512,0.000
1737558520.557,-464.355,-131.836,-96.191,413.574,0.000
1737558520.561,-865.723,-110.840,-83.984,-147.949,0.000
1737558520.565,475.098,-80.566,-76.660,761.230,0.000
1737558520.569,999.512,-81.543,-86.914,995.605,0.000
1737558520.573,879.395,-97.656,-96.680,999.512,0.000
1737558520.577,-258.301,-115.723,-127.930,645.020,0.000
1737558520.581,-960.449,-111.816,-127.930,173.828,0.000
1737558520.585,324.707,-85.938,-114.258,793.457,0.000
1737558520.589,999.512,-76.660,-78.125,995.117,0.000
1737558520.592,954.102,-78.613,-66.895,986.328,0.000
1737558520.596,18.066,-92.285,-105.469,828.613,0.000
1737558520.600,-1000.000,-116.699,-98.145,184.082,0.000
1737558520.604,-176.270,-102.051,-99.121,523.438,0.000
1737558520.608,999.512,-84.473,-93.262,971.680,0.000
1737558520.612,889.648,-90.332,-83.496,999.512,0.000
1737558520.616,-192.383,-104.980,-119.629,403.809,0.000
1737558520.620,-1000.000,-104.004,-163.574,-1000.000,0.000
1737558520.624,-515.137,-83.496,-155.762,-481.934,0.000
1737558520.628,805.664,-72.266,-115.723,763.672,0.000
1737558520.631,999.512,-69.336,-107.910,999.512,0.000
1737558520.635,-130.859,-96.680,-127.930,380.371,0.000
1737558520.639,-1000.000,-108.887,-117.676,-980.957,0.000
1737558520.643,-724.609,-88.379,-97.656,-614.258,0.000
1737558520.647,553.223,-81.055,-93.750,639.160,0.000
1737558520.651,999.512,-81.543,-119.141,999.512,0.000
1737558520.655,-79.590,-98.633,-139.160,564.941,0.000
1737558520.659,-1000.000,-109.375,-121.582,-823.730,0.000
1737558520.663,-678.223,-92.285,-92.773,-523.438,0.000
1737558520.667,596.680,-75.684,-68.359,807.129,0.000
1737558520.671,999.512,-83.008,-85.449,999.512,0.000
1737558520.674,38.574,-105.957,-124.512,838.867,0.000
1737558520.678,-1000.000,-111.328,-129.395,-296.387,0.000
1737558520.682,-868.652,-93.262,-111.328,-413.574,0.000
1737558520.686,361.328,-74.219,-82.031,763.672,0.000
1737558520.690,999.512,-76.172,-70.801,999.512,0.000
1737558520.694,-52.734,-111.328,-99.121,771.484,0.000
1737558520.698,-1000.000,-123.047,-133.301,-476.562,0.000
1737558520.702,-1000.000,-99.609,-125.000,-901.855,0.000
1737558520.706,-11.719,-69.336,-104.004,344.238,0.000
1737558520.710,999.512,-60.547,-73.242,999.512,0.000
1737558520.714,85.938,-83.984,-59.082,810.547,0.000
1737558520.717,-998.535,-105.957,-60.059,-311.035,0.000
1737558520.721,-1000.000,-106.934,-55.664,-1000.000,0.000
1737558520.725,-414.551,-80.078,-51.758,-343.750,0.000
1737558520.729,999.512,-61.523,-44.922,999.512,0.000
1737558520.733,322.266,-75.195,-47.363,432.129,0.000
1737558520.737,-1000.000,-105.469,-63.965,-950.684,0.000
1737558520.741,-1000.000,-113.281,-62.500,-992.676,0.000
1737558520.745,-780.762,-105.469,-51.758,-1000.000,0.000
1737558520.749,632.324,-79.590,-52.246,-274.902,0.000
1737558520.753,445.801,-78.613,-69.824,-130.859,0.000
1737558520.756,-977.539,-107.422,-94.727,-1000.000,0.000
1737558520.760,-1000.000,-92.285,-75.684,-960.938,0.000
1737558520.764,-759.277,-98.145,-52.734,-1000.000,0.000
1737558520.768,534.668,-98.145,-36.133,-487.305,0.000
1737558520.772,675.293,-89.355,-23.438,-107.422,0.000
1737558520.776,-730.957,-113.281,-48.828,-932.617,0.000
1737558520.780,-1000.000,-117.676,-77.637,-1000.000,0.000
1737558520.784,-778.320,-115.234,-71.289,-1000.000,0.000
1737558520.788,451.172,-103.516,-62.988,72.754,0.000
1737558520.792,999.512,-97.656,-93.750,999.512,0.000
1737558520.796,-268.066,-120.117,-144.531,-270.508,0.000
1737558520.799,-1000.000,-122.559,-149.414,-1000.000,0.000
1737558520.803,-702.148,-109.375,-101.074,-1000.000,0.000
1737558520.807,515.137,-92.285,-83.496,-66.406,0.000
1737558520.811,999.512,-96.680,-88.379,986.328,0.000
1737558520.815,-89.844,-131.836,-126.465,-280.762,0.000
1737558520.819,-1000.000,-137.207,-134.766,-1000.000,0.000
1737558520.823,-742.676,-119.629,-93.262,-1000.000,0.000
1737558520.827,375.000,-97.168,-96.191,-348.633,0.000
1737558520.831,999.512,-89.844,-112.793,949.707,0.000
1737558520.835,25.391,-121.582,-123.047,-146.973,0.000
1737558520.839,-1000.000,-133.301,-128.906,-1000.000,0.000
1737558520.842,-820.312,-111.328,-132.812,-1000.000,0.000
1737558520.846,249.023,-90.820,-130.371,-696.777,0.000
1737558520.850,999.512,-83.496,-114.258,594.238,0.000
1737558520.854,185.059,-103.027,-116.699,-45.898,0.000
1737558520.858,-1000.000,-122.559,-157.715,-1000.000,0.000
1737558520.862,-894.043,-114.258,-170.410,-1000.000,0.000
1737558520.866,113.281,-94.727,-146.973,-818.359,0.000
1737558520.870,999.512,-77.637,-144.043,454.590,0.000
1737558520.874,230.469,-109.863,-142.578,58.105,0.000
1737558520.878,-1000.000,-132.812,-149.414,-1000.000,0.000
1737558520.881,-1000.000,-116.211,-150.391,-994.141,0.000
1737558520.885,-357.910,-107.910,-140.137,-953.613,0.000
1737558520.889,999.512,-89.844,-146.484,317.383,0.000
1737558520.893,329.102,-101.562,-166.992,188.477,0.000
1737558520.897,-990.234,-121.094,-187.500,-1000.000,0.000
1737558520.901,-1000.000,-107.422,-212.891,-1000.000,0.000
1737558520.905,-413.574,-91.309,-207.520,-922.852,0.000
1737558520.909,944.824,-82.520,-156.250,335.938,0.000
1737558520.913,710.938,-90.820,-147.949,880.859,0.000
1737558520.917,-641.602,-108.398,-188.477,-458.984,0.000
1737558520.921,-1000.000,-100.586,-184.570,-1000.000,0.000
1737558520.924,-181.152,-83.496,-146.484,-60.547,0.000
1737558520.928,999.512,-81.055,-149.414,968.750,0.000
1737558520.932,695.801,-93.262,-163.086,999.512,0.000
1737558520.936,-489.746,-113.281,-161.621,360.840,0.000
1737558520.940,-1000.000,-125.977,-141.113,-887.207,0.000
1737558520.944,-415.039,-105.957,-121.094,-47.852,0.000
1737558520.948,947.266,-89.355,-108.398,978.516,0.000
1737558520.952,798.340,-92.773,-95.215,999.512,0.000
1737558520.956,-463.867,-108.398,-86.426,166.992,0.000
1737558520.960,-1000.000,-130.859,-81.055,-1000.000,0.000
1737558520.964,-1000.000,-121.094,-76.660,-993.652,0.000
1737558520.967,77.148,-93.262,-94.727,130.859,0.000
1737558520.971,884.277,-95.703,-78.613,999.512,0.000
1737558520.975,-519.043,-133.789,-51.270,-49.316,0.000
1737558520.979,-1000.000,-135.254,-50.293,-1000.000,0.000
1737558520.983,-1000.000,-111.328,-72.754,-1000.000,0.000
1737558520.987,-135.254,-78.125,-94.727,-19.531,0.000
1737558520.991,847.656,-74.219,-73.242,999.512,0.000
1737558520.995,-500.000,-109.375,-83.008,-5.859,0.000
1737558520.999,-1000.000,-128.418,-96.680,-1000.000,0.000
1737558521.003,-1000.000,-123.535,-94.238,-1000.000,0.000
1737558521.006,-625.977,-94.727,-80.566,-746.582,0.000
1737558521.010,519.531,-82.031,-84.961,-21.973,0.000
1737558521.014,-395.508,-103.516,-132.324,-615.723,0.000
1737558521.018,-1000.000,-107.910,-146.973,-1000.000,0.000
1737558521.022,-1000.000,-116.211,-112.305,-962.402,0.000
1737558521.026,-786.133,-104.004,-91.797,-1000.000,0.000
1737558521.030,78.613,-77.637,-109.863,-598.145,0.000
1737558521.034,-461.914,-92.285,-117.188,-687.012,0.000
1737558521.038,-1000.000,-109.375,-124.023,-1000.000,0.000
1737558521.042,-961.914,-102.539,-114.258,-989.258,0.000
1737558521.046,-1000.000,-86.914,-59.570,-996.094,0.000
1737558521.049,-135.254,-64.941,6.836,369.629,0.000
1737558521.053,-240.234,-83.008,16.113,429.688,0.000
1737558521.057,-1000.000,-111.816,2.930,-989.258,0.000
1737558521.061,-977.051,-95.215,44.922,-1000.000,0.000
1737558521.065,-989.746,-90.332,60.547,-983.887,0.000
1737558521.069,-1000.000,-93.750,72.266,-173.340,0.000
1737558521.073,-1000.000,-101.562,99.609,-219.727,0.000
1737558521.077,-1000.000,-111.816,79.102,-1000.000,0.000
1737558521.081,-1000.000,-113.770,33.691,-991.211,0.000
1737558521.085,-1000.000,-124.023,12.207,-983.398,0.000
1737558521.089,0.000,-110.352,-38.574,-1000.000,0.000
1737558521.092,0.000,-98.145,-74.219,-1000.000,0.000
1737558521.096,0.000,-121.582,-61.523,-1000.000,0.000
1737558521.100,0.000,-132.324,-93.262,-1000.000,0.000
1737558521.104,0.000,-128.906,-113.281,-1000.000,0.000
1737558521.108,0.000,-127.441,-118.652,-1000.000,0.000
1737558521.112,0.000,-125.488,-150.879,-1000.000,0.000
1737558521.116,0.000,-140.137,-168.945,-1000.000,0.000
1737558521.120,0.000,-141.602,-172.363,-1000.000,0.000
1737558521.124,0.000,-128.906,-159.668,-1000.000,0.000
1737558521.128,0.000,-129.395,-133.789,-1000.000,0.000
1737558521.131,0.000,-124.512,-139.160,-1000.000,0.000
1737558521.135,-1000.000,-133.301,-154.297,-1000.000,0.000
1737558521.139,-1000.000,-144.531,-157.227,-1000.000,0.000
1737558521.143,-1000.000,-147.949,-124.512,-1000.000,0.000
1737558521.147,-1000.000,-147.949,-83.984,-1000.000,0.000
1737558521.151,-1000.000,-147.949,-96.680,-1000.000,0.000
1737558521.155,-1000.000,-167.480,-114.746,-1000.000,0.000
1737558521.159,-1000.000,-178.223,-135.742,-1000.000,0.000
1737558521.163,-1000.000,-180.176,-166.504,-1000.000,0.000
1737558521.167,-1000.000,-193.848,-188.477,-1000.000,0.000
1737558521.171,-1000.000,-208.984,-215.332,-1000.000,0.000
1737558521.174,-1000.000,-212.891,-242.676,-1000.000,0.000
1737558521.178,-1000.000,-206.543,-240.234,-1000.000,0.000
1737558521.182,-1000.000,-183.594,-213.867,-1000.000,0.000
1737558521.186,-1000.000,-147.461,-178.711,-1000.000,0.000
1737558521.190,-1000.000,-88.867,-145.020,-1000.000,0.000
1737558521.194,-1000.000,33.691,-135.254,-1000.000,0.000
1737558521.198,-1000.000,195.312,-132.812,-995.605,0.000
1737558521.202,-1000.000,200.195,-130.371,-986.328,0.000
1737558521.206,-1000.000,61.035,-125.977,-1000.000,0.000
1737558521.210,-1000.000,-17.578,-116.699,-602.051,0.000
1737558521.214,-1000.000,-51.270,-146.973,-541.016,0.000
1737558521.217,-1000.000,-80.566,-183.105,-1000.000,0.000
1737558521.221,-1000.000,-105.957,-181.641,-999.512,0.000
1737558521.225,-1000.000,-148.926,-171.875,-989.258,0.000
1737558521.229,-1000.000,-194.824,-165.039,-1000.000,0.000
1737558521.233,-1000.000,-234.375,-166.992,-1000.000,0.000
1737558521.237,-1000.000,-311.035,-205.078,-1000.000,0.000
1737558521.241,-1000.000,-368.652,-252.930,-1000.000,0.000
1737558521.245,-1000.000,-398.926,-190.918,-1000.000,0.000
1737558521.249,-983.887,-424.316,-98.145,-1000.000,0.000
1737558521.253,-989.746,-415.527,-52.734,-999.023,0.000
1737558521.256,-959.961,-334.961,-58.594,-944.824,0.000
1737558521.260,-92.773,-213.867,-82.520,-1000.000,0.000
1737558521.264,880.859,-130.859,-86.914,-233.887,0.000
1737558521.268,972.168,-96.191,-103.027,999.512,0.000
1737558521.272,947.266,-83.496,-117.676,963.867,0.000
1737558521.276,974.121,-77.637,-123.535,940.918,0.000
1737558521.280,970.215,-82.031,-106.445,979.004,0.000
1737558521.284,970.215,-97.656,-66.406,970.703,0.000
1737558521.288,970.215,-104.492,-44.434,970.703,0.000
1737558521.292,970.215,-95.215,-57.129,970.703,0.000
1737558521.296,970.215,-97.168,-75.195,970.703,0.000
1737558521.299,972.168,-93.750,-64.941,970.703,0.000
1737558521.303,962.891,-85.938,-32.227,970.703,0.000
1737558521.307,952.637,-83.496,-27.832,970.703,0.000
1737558521.311,999.512,-76.172,-32.227,970.703,0.000
1737558521.315,475.098,-79.590,-45.410,970.703,0.000
1737558521.319,-42.480,-84.473,-80.566,970.703,0.000
1737558521.323,0.000,-97.168,-83.496,970.703,0.000
1737558521.327,0.000,-100.586,-21.973,970.703,0.000
1737558521.331,0.000,-91.797,40.039,970.703,0.000
1737558521.335,0.000,-85.449,49.805,970.703,0.000
1737558521.339,0.000,-79.590,22.949,970.703,0.000
1737558521.342,0.000,-75.195,-8.789,970.703,0.000
1737558521.346,0.000,-75.195,-35.645,970.703,0.000
1737558521.350,0.000,-71.289,-38.574,970.703,0.000
1737558521.354,0.000,-65.430,-60.059,970.703,0.000
1737558521.358,0.000,-67.871,-83.496,970.703,0.000
1737558521.362,0.000,-71.777,-95.215,970.703,0.000
1737558521.366,0.000,-67.871,-137.695,970.703,0.000
1737558521.370,654.785,-62.500,-176.758,970.703,0.000
1737558521.374,17.090,-66.406,-175.293,970.703,0.000
1737558521.378,-634.766,-77.148,-138.672,970.703,0.000
1737558521.381,215.820,-80.566,-101.562,970.703,0.000
1737558521.385,893.555,-81.055,-79.590,970.703,0.000
1737558521.389,926.758,-75.195,-62.012,970.703,0.000
1737558521.393,963.379,-73.242,-50.293,970.703,0.000
1737558521.397,969.727,-88.867,-75.684,970.703,0.000
1737558521.401,970.215,-92.773,-106.445,971.680,0.000
1737558521.405,969.727,-85.449,-106.445,970.215,0.000
1737558521.409,970.215,-80.078,-110.840,925.781,0.000
1737558521.413,970.215,-98.145,-130.859,999.512,0.000
1737558521.417,970.215,-110.840,-146.973,434.570,0.000
1737558521.421,969.727,-95.703,-155.273,-449.219,0.000
1737558521.424,969.727,-75.195,-158.203,395.508,0.000
1737558521.428,969.727,-73.242,-122.559,999.512,0.000
1737558521.432,970.215,-86.426,-75.684,938.477,0.000
1737558521.436,970.215,-91.309,-50.293,962.891,0.000
1737558521.440,969.727,-104.980,-16.602,958.496,0.000
1737558521.444,969.727,-106.934,0.488,966.797,0.000
1737558521.448,970.215,-98.633,-9.277,972.656,0.000
1737558521.452,970.215,-99.609,-4.883,969.238,0.000
1737558521.456,969.727,-108.887,3.906,971.191,0.000
1737558521.460,970.215,-113.281,9.277,970.703,0.000
1737558521.464,970.215,-117.188,15.625,970.703,0.000
1737558521.467,970.215,-106.934,8.301,970.703,0.000
1737558521.471,970.215,-94.727,-6.348,970.703,0.000
1737558521.475,970.215,-92.285,-20.996,970.703,0.000
1737558521.479,969.727,-86.426,-31.738,970.703,0.000
1737558521.483,969.727,-86.914,-21.484,970.703,0.000
1737558521.487,969.727,-88.379,-24.902,970.703,0.000
1737558521.491,970.215,-84.473,-56.641,970.703,0.000
1737558521.495,970.215,-82.520,-113.281,970.703,0.000
1737558521.499,970.215,-85.449,-132.812,970.703,0.000
1737558521.503,969.727,-87.891,-109.375,970.703,0.000
1737558521.506,969.727,-89.844,-106.934,970.703,0.000
1737558521.510,969.727,-83.008,-104.980,963.379,0.000
1737558521.514,969.727,-81.055,-82.520,991.211,0.000
1737558521.518,970.215,-86.914,-87.891,881.836,0.000
1737558521.522,970.215,-82.031,-93.750,831.543,0.000
1737558521.526,970.215,-76.172,-71.289,957.520,0.000
1737558521.530,970.215,-80.078,-4.395,945.801,0.000
1737558521.534,970.215,-101.074,48.340,999.512,0.000
1737558521.538,970.215,-115.723,12.207,177.246,0.000
1737558521.542,970.215,-117.188,-2.930,-606.445,0.000
1737558521.546,970.215,-122.559,10.742,412.109,0.000
1737558521.549,970.215,-121.094,8.301,999.512,0.000
1737558521.553,970.215,-104.492,-16.602,934.082,0.000
1737558521.557,969.727,-96.191,-78.125,964.844,0.000
1737558521.561,969.727,-100.586,-82.520,972.656,0.000
1737558521.565,969.727,-109.375,-44.922,970.703,0.000
1737558521.569,969.727,-109.375,-38.086,970.703,0.000
1737558521.573,969.727,-108.398,-64.941,970.215,0.000
1737558521.577,970.215,-93.262,-83.984,970.703,0.000
1737558521.581,970.215,-93.262,-69.336,970.703,0.000
1737558521.585,969.727,-104.492,-74.707,970.703,0.000
1737558521.589,969.727,-109.375,-71.289,970.703,0.000
1737558521.592,969.727,-127.441,-56.152,970.703,0.000
1737558521.596,970.215,-123.047,-62.988,970.703,0.000
1737558521.600,969.727,-107.422,-88.867,970.703,0.000
1737558521.604,970.215,-119.629,-82.520,970.703,0.000
1737558521.608,970.215,-128.906,-31.738,970.703,0.000
1737558521.612,969.727,-129.883,-25.879,970.703,0.000
1737558521.616,970.215,-142.090,-60.059,970.703,0.000
1737558521.620,969.727,-253.906,-81.055,970.703,0.000
1737558521.624,969.727,-404.297,-88.867,970.703,0.000
1737558521.628,970.215,-457.031,-85.449,970.215,0.000
1737558521.631,970.215,-483.887,-78.125,970.703,0.000
1737558521.635,970.215,-510.742,-106.934,970.703,0.000
1737558521.639,970.215,-522.461,-123.047,970.703,0.000
1737558521.643,970.215,-516.602,-122.070,973.633,0.000
1737558521.647,969.238,-507.324,-131.836,958.008,0.000
1737558521.651,967.773,-513.184,-145.508,958.496,0.000
1737558521.655,979.004,-516.113,-162.109,997.559,0.000
1737558521.659,917.969,-531.738,-183.105,315.918,0.000
1737558521.663,919.922,-588.379,-201.172,-207.520,0.000
1737558521.667,979.004,-623.047,-175.781,508.789,0.000
1737558521.671,920.410,-640.625,-117.188,999.512,0.000
1737558521.674,999.512,-650.879,-110.840,883.789,0.000
1737558521.678,364.746,-656.250,-132.324,-175.293,0.000
1737558521.682,-268.066,-659.668,-136.230,-1000.000,0.000
1737558521.686,676.758,-645.996,-153.809,-148.438,0.000
1737558521.690,999.512,-639.160,-140.137,999.512,0.000
1737558521.694,990.234,-649.902,-99.609,759.277,0.000
1737558521.698,-155.273,-663.574,-101.562,-418.945,0.000
1737558521.702,-906.738,-656.738,-107.422,-1000.000,0.000
1737558521.706,357.910,-625.977,-74.707,-393.066,0.000
1737558521.710,999.512,-609.375,-90.332,865.234,0.000
1737558521.714,944.824,-617.188,-128.906,918.457,0.000
1737558521.717,-123.047,-637.695,-129.883,-233.887,0.000
1737558521.721,-1000.000,-639.648,-155.762,-1000.000,0.000
1737558521.725,-197.754,-624.023,-141.602,-607.910,0.000
1737558521.729,999.512,-624.023,-98.633,720.703,0.000
1737558521.733,862.305,-659.668,-79.102,826.172,0.000
1737558521.737,-351.562,-698.730,-57.617,-454.102,0.000
1737558521.741,-1000.000,-706.543,-55.176,-1000.000,0.000
1737558521.745,-633.789,-712.891,-67.871,-928.711,0.000
1737558521.749,624.023,-739.258,-54.688,281.738,0.000
1737558521.753,934.082,-782.227,-50.293,817.871,0.000
1737558521.756,-404.297,-839.844,-75.684,-581.055,0.000
1737558521.760,-1000.000,-879.395,-88.867,-1000.000,0.000
1737558521.764,-867.188,-896.484,-98.145,-948.242,0.000
1737558521.768,-247.559,-936.523,-89.355,-1000.000,0.000
1737558521.772,-105.469,-965.332,-70.312,-1000.000,0.000
1737558521.776,-803.223,-976.074,-76.660,-1000.000,0.000
1737558521.780,-1000.000,-981.445,-86.914,-1000.000,0.000
1737558521.784,-968.262,-957.520,-84.473,-1000.000,0.000
1737558521.788,-548.340,-941.406,-79.590,-1000.000,0.000
1737558521.792,-431.641,-930.176,-88.867,-1000.000,0.000
1737558521.796,-951.172,-913.574,-94.727,-1000.000,0.000
1737558521.799,-1000.000,-902.832,-98.145,-1000.000,0.000
1737558521.803,-1000.000,-897.949,-73.730,-1000.000,0.000
1737558521.807,-905.273,-878.906,-43.457,-1000.000,0.000
1737558521.811,-789.062,-843.262,-42.969,-1000.000,0.000
1737558521.815,-987.793,-827.637,-47.363,-1000.000,0.000
1737558521.819,-1000.000,-813.477,-54.199,-1000.000,0.000
1737558521.823,-991.211,-791.992,-64.941,-1000.000,0.000
1737558521.827,-1000.000,-767.578,-34.668,-1000.000,0.000
1737558521.831,-1000.000,-735.840,8.789,-1000.000,0.000
1737558521.835,-1000.000,-714.844,10.254,-1000.000,0.000
1737558521.839,-1000.000,-695.312,-3.418,-1000.000,0.000
1737558521.842,-1000.000,-670.410,3.418,-1000.000,0.000
1737558521.846,-1000.000,-647.461,2.441,-1000.000,0.000
1737558521.850,-1000.000,-617.676,10.254,-1000.000,0.000
1737558521.854,-1000.000,-587.891,14.648,-1000.000,0.000
1737558521.858,-1000.000,-562.988,-6.348,-1000.000,0.000
1737558521.862,-1000.000,-549.316,-6.348,-1000.000,0.000
1737558521.866,-1000.000,-549.316,23.438,-1000.000,0.000
1737558521.870,-1000.000,-527.344,58.105,-1000.000,0.000
1737558521.874,-1000.000,-496.094,66.406,-1000.000,0.000
1737558521.878,-1000.000,-471.680,52.734,-1000.000,0.000
1737558521.881,-1000.000,-444.336,42.969,-1000.000,0.000
1737558521.885,-1000.000,-415.527,35.645,-1000.000,0.000
1737558521.889,-1000.000,-381.348,38.086,-1000.000,0.000
1737558521.893,-1000.000,-350.098,21.973,-1000.000,0.000
1737558521.897,-1000.000,-327.637,-5.859,-1000.000,0.000
1737558521.901,-1000.000,-306.641,17.090,-1000.000,0.000
1737558521.905,-1000.000,-281.250,48.828,-1000.000,0.000
1737558521.909,-1000.000,-258.789,50.293,-1000.000,0.000
1737558521.913,-1000.000,-244.141,37.598,-1000.000,0.000
1737558521.917,-1000.000,-233.398,5.371,-1000.000,0.000
1737558521.921,-997.559,-213.867,7.324,-1000.000,0.000
1737558521.924,-1000.000,-191.895,37.109,-1000.000,0.000
1737558521.928,-973.633,-181.641,40.527,-1000.000,0.000
1737558521.932,0.000,-166.504,31.250,-1000.000,0.000
1737558521.936,0.000,-149.414,19.531,-1000.000,0.000
1737558521.940,0.000,-138.672,-1.465,-967.285,0.000
1737558521.944,0.000,-139.160,-16.602,-1000.000,0.000
1737558521.948,0.000,-123.535,6.836,-817.383,0.000
1737558521.952,0.000,-96.191,21.484,-85.449,0.000
1737558521.956,0.000,-100.586,-8.301,-537.598,0.000
1737558521.960,0.000,-101.074,-35.156,-1000.000,0.000
1737558521.964,0.000,-93.262,-21.973,-1000.000,0.000
1737558521.967,0.000,-82.520,-13.672,-521.973,0.000
1737558521.971,0.000,-63.965,-1.953,967.773,0.000
1737558521.975,0.000,-76.660,23.438,402.832,0.000
1737558521.979,-1000.000,-87.891,1.953,-960.449,0.000
1737558521.983,-1000.000,-73.730,-12.695,-1000.000,0.000
1737558521.987,-193.359,-49.316,9.277,7.812,0.000
1737558521.991,999.512,-38.086,9.766,999.512,0.000
1737558521.995,356.934,-44.434,18.066,832.520,0.000
1737558521.999,-875.977,-49.805,6.836,-371.582,0.000
1737558522.003,-1000.000,-50.293,-3.906,-947.754,0.000
1737558522.006,67.383,-42.480,7.324,281.738,0.000
1737558522.010,999.512,-39.062,-17.090,999.512,0.000
1737558522.014,712.891,-42.969,-50.293,996.094,0.000
1737558522.018,-448.730,-39.062,-40.527,123.535,0.000
1737558522.022,-1000.000,-31.250,-23.438,-654.785,0.000
1737558522.026,186.035,-22.949,-15.625,380.859,0.000
1737558522.030,999.512,-25.879,-11.719,999.512,0.000
1737558522.034,814.453,-36.133,-15.625,999.512,0.000
1737558522.038,-250.000,-42.969,-17.578,444.824,0.000
1737558522.042,-1000.000,-45.410,-14.648,-361.816,0.000
1737558522.046,183.105,-24.414,-11.719,467.773,0.000
1737558522.049,999.512,-29.297,-29.297,999.512,0.000
1737558522.053,755.859,-35.156,-77.637,999.512,0.000
1737558522.057,-243.164,-24.902,-82.520,538.086,0.000
1737558522.061,-1000.000,-38.086,-29.297,-423.340,0.000
1737558522.065,-2.930,-45.410,10.254,263.184,0.000
1737558522.069,999.512,-45.410,19.043,990.723,0.000
1737558522.073,945.312,-48.340,-3.418,999.512,0.000
1737558522.077,1.953,-58.105,-45.898,489.746,0.000
1737558522.081,-1000.000,-56.641,-49.805,-723.145,0.000
1737558522.085,6.836,-35.645,-36.133,-61.035,0.000
1737558522.089,999.512,-29.785,-53.223,948.242,0.000
1737558522.092,999.512,-30.273,-76.172,999.512,0.000
1737558522.096,520.020,-44.922,-70.312,650.879,0.000
1737558522.100,-905.273,-64.453,-48.828,-591.797,0.000
1737558522.104,-280.273,-41.992,-36.133,-307.617,0.000
1737558522.108,981.934,-27.832,-32.227,852.051,0.000
1737558522.112,999.512,-35.156,-32.715,999.512,0.000
1737558522.116,773.438,-42.480,-40.039,799.805,0.000
1737558522.120,-527.344,-56.152,-41.992,-285.156,0.000
1737558522.124,-356.934,-51.758,-43.945,-368.652,0.000
1737558522.128,941.895,-34.668,-43.945,760.742,0.000
1737558522.131,968.750,-33.691,-45.410,999.512,0.000
1737558522.135,995.605,-40.527,-43.457,955.566,0.000
1737558522.139,62.012,-60.059,-46.387,167.969,0.000
1737558522.143,-90.332,-61.523,-44.434,-36.133,0.000
1737558522.147,962.891,-42.969,-19.531,867.188,0.000
1737558522.151,977.539,-52.246,-9.766,980.957,0.000
1737558522.155,962.891,-54.199,-34.668,999.512,0.000
1737558522.159,137.207,-50.293,-57.129,423.340,0.000
1737558522.163,36.621,-38.086,-46.875,206.543,0.000
1737558522.167,979.980,-17.578,-23.926,937.988,0.000
1737558522.171,948.730,-29.297,-15.137,956.543,0.000
1737558522.174,999.512,-28.320,-19.043,999.512,0.000
1737558522.178,367.676,-29.785,-25.879,515.625,0.000
1737558522.182,-199.219,-40.527,-32.227,-146.973,0.000
1737558522.186,711.426,-22.949,-27.344,567.383,0.000
1737558522.190,973.145,-25.391,-46.387,984.863,0.000
1737558522.194,999.512,-25.391,-67.871,999.512,0.000
1737558522.198,416.992,-22.461,-67.383,380.371,0.000
1737558522.202,-733.398,-49.316,-60.547,-759.766,0.000
1737558522.206,257.812,-34.180,-55.176,83.984,0.000
1737558522.210,999.512,-18.555,-54.688,999.512,0.000
1737558522.214,999.512,-31.250,-39.551,999.512,0.000
1737558522.217,444.824,-43.457,-37.109,400.391,0.000
1737558522.221,-486.328,-47.852,-47.852,-608.398,0.000
1737558522.225,473.145,-25.391,-55.664,224.609,0.000
1737558522.229,999.512,-26.855,-38.574,998.047,0.000
1737558522.233,999.512,-34.668,-31.738,999.512,0.000
1737558522.237,507.324,-39.062,-48.340,549.805,0.000
1737558522.241,-869.629,-52.246,-53.711,-702.637,0.000
1737558522.245,-57.129,-39.551,-45.898,-252.441,0.000
1737558522.249,999.512,-39.551,-33.203,848.145,0.000
1737558522.253,999.512,-46.387,-43.945,999.512,0.000
1737558522.256,555.176,-50.293,-64.941,458.008,0.000
1737558522.260,-879.395,-63.477,-69.824,-900.391,0.000
1737558522.264,-294.434,-55.664,-72.754,-640.625,0.000
1737558522.268,969.238,-42.480,-59.570,648.926,0.000
1737558522.272,999.512,-45.410,-51.758,999.512,0.000
1737558522.276,758.789,-48.340,-70.312,707.520,0.000
1737558522.280,-262.207,-45.410,-62.500,-285.645,0.000
1737558522.284,-12.207,-52.246,-39.062,-199.707,0.000
1737558522.288,935.547,-47.852,-21.973,769.531,0.000
1737558522.292,999.512,-35.645,-14.648,999.512,0.000
1737558522.296,752.930,-43.945,-27.832,806.641,0.000
1737558522.299,-559.082,-65.918,-40.527,-323.730,0.000
1737558522.303,-723.145,-62.500,-51.758,-684.082,0.000
1737558522.307,591.309,-43.945,0.000,448.730,0.000
1737558522.311,999.512,-41.016,0.000,999.512,0.000
1737558522.315,564.941,-50.293,0.000,714.355,0.000
1737558522.319,-735.352,-61.035,0.000,-511.230,0.000
1737558522.323,-925.293,-56.152,0.000,-999.023,0.000
1737558522.327,312.988,-32.715,0.000,187.500,0.000
1737558522.331,999.512,-30.273,0.000,999.512,0.000
1737558522.335,729.980,-35.645,0.000,852.051,0.000
1737558522.339,-485.352,-42.969,0.000,-285.645,0.000
1737558522.342,-1000.000,-57.617,0.000,-1000.000,0.000
1737558522.346,149.414,-45.410,0.000,136.230,0.000
1737558522.350,999.512,-40.527,0.000,999.512,0.000
1737558522.354,817.383,-51.270,-40.527,999.512,0.000
1737558522.358,-315.430,-64.453,-57.129,83.008,0.000
1737558522.362,-1000.000,-63.965,-59.570,-728.516,0.000
1737558522.366,117.188,-41.016,-56.641,295.410,0.000
1737558522.370,999.512,-31.250,-47.852,990.723,0.000
1737558522.374,888.672,-31.738,-33.203,999.512,0.000
1737558522.378,-127.930,-52.246,-39.551,132.324,0.000
1737558522.381,-1000.000,-71.777,-55.176,-1000.000,0.000
1737558522.385,-308.105,-53.223,-49.805,-592.285,0.000
1737558522.389,919.922,-27.832,-43.457,702.637,0.000
1737558522.393,999.512,-31.738,-60.547,999.512,0.000
1737558522.397,-113.281,-54.199,-82.031,-99.609,0.000
1737558522.401,0.000,-73.242,-77.637,-1000.000,0.000
1737558522.405,0.000,-64.453,-57.617,-423.828,0.000
1737558522.409,0.000,-42.969,-51.758,758.789,0.000
1737558522.413,0.000,-41.016,-54.199,999.512,0.000
1737558522.417,0.000,-50.781,-58.105,518.555,0.000
1737558522.421,0.000,-58.594,-69.824,-629.883,0.000
1737558522.424,0.000,-46.875,-54.688,-215.332,0.000
1737558522.428,0.000,-47.852,-23.438,828.613,0.000
1737558522.432,0.000,-58.594,-16.602,999.512,0.000
1737558522.436,0.000,-64.941,-28.320,615.234,0.000
1737558522.440,0.000,-72.754,-43.945,-662.109,0.000
1737558522.444,0.000,-58.594,-55.176,-519.531,0.000
1737558522.448,746.582,-48.340,-61.035,673.828,0.000
1737558522.452,999.512,-53.223,-66.895,999.512,0.000
1737558522.456,536.133,-60.547,-63.965,741.699,0.000
1737558522.460,-768.555,-71.777,-54.688,-489.746,0.000
1737558522.464,-790.527,-65.430,-41.504,-703.613,0.000
1737558522.467,516.602,-48.340,-33.203,515.625,0.000
1737558522.471,999.512,-48.340,-49.316,999.512,0.000
1737558522.475,509.277,-67.383,-64.453,826.660,0.000
1737558522.479,-718.262,-77.148,-71.289,-277.344,0.000
1737558522.483,-813.965,-58.105,-74.219,-655.762,0.000
1737558522.487,417.480,-51.270,-65.430,464.355,0.000
1737558522.491,999.512,-65.918,-35.156,999.512,0.000
1737558522.495,688.965,-69.824,-13.672,867.676,0.000
1737558522.499,-577.148,-85.449,-34.668,-265.625,0.000
1737558522.503,-891.602,-86.914,-52.246,-905.762,0.000
1737558522.507,362.793,-64.453,-32.715,267.578,0.000
1737558522.510,999.512,-61.523,-20.508,999.512,0.000
1737558522.514,914.062,-63.965,-39.551,992.676,0.000
1737558522.518,-189.453,-71.289,-56.152,60.547,0.000
1737558522.522,-979.980,-76.172,-49.316,-839.844,0.000
1737558522.526,276.855,-53.711,-32.227,235.840,0.000
1737558522.530,999.512,-46.387,-20.020,999.512,0.000
1737558522.534,976.074,-49.316,-26.367,988.281,0.000
1737558522.538,335.449,-59.570,-37.598,476.562,0.000
1737558522.542,-586.426,-73.242,-48.828,-447.754,0.000
1737558522.546,236.328,-62.988,-48.828,99.609,0.000
1737558522.549,993.164,-57.617,-34.668,943.848,0.000
1737558522.553,999.512,-67.871,-36.621,999.512,0.000
1737558522.557,241.211,-78.125,-60.059,165.527,0.000
1737558522.561,-898.438,-73.730,-81.055,-1000.000,0.000
1737558522.565,189.453,-57.129,-65.430,-328.125,0.000
1737558522.569,999.512,-52.734,-27.344,819.336,0.000
1737558522.573,999.512,-59.570,-15.625,999.512,0.000
1737558522.577,627.441,-68.359,-30.273,515.625,0.000
1737558522.581,-456.055,-70.312,-45.898,-589.844,0.000
1737558522.585,179.688,-55.664,-61.035,-118.652,0.000
1737558522.589,999.512,-49.316,-52.734,885.742,0.000
1737558522.592,997.070,-60.059,-40.527,999.512,0.000
1737558522.596,755.859,-68.359,-39.551,691.895,0.000
1737558522.600,-463.379,-78.125,-37.598,-459.961,0.000
1737558522.604,-96.680,-63.965,-41.504,-365.234,0.000
1737558522.608,989.258,-51.758,-38.086,735.840,0.000
1737558522.612,996.582,-55.664,-48.828,999.512,0.000
1737558522.616,808.594,-51.758,-83.008,739.258,0.000
1737558522.620,-422.363,-65.918,-96.191,-409.180,0.000
1737558522.624,-246.582,-79.102,-58.105,-466.309,0.000
1737558522.628,970.215,-67.871,-19.043,689.453,0.000
1737558522.631,955.566,-62.012,-15.625,999.512,0.000
1737558522.635,999.512,-63.965,-21.973,924.316,0.000
1737558522.639,166.016,-79.590,-28.320,73.730,0.000
1737558522.643,-183.105,-83.496,-50.781,-325.195,0.000
1737558522.647,817.383,-67.383,-59.082,624.512,0.000
1737558522.651,992.676,-62.988,-54.688,999.512,0.000
1737558522.655,966.309,-64.941,-52.246,969.238,0.000
1737558522.659,-41.016,-73.730,-46.387,134.277,0.000
1737558522.663,-689.453,-77.637,-51.270,-541.016,0.000
1737558522.667,477.539,-65.430,-63.477,405.273,0.000
1737558522.671,999.512,-64.941,-61.035,999.512,0.000
1737558522.674,851.074,-80.566,-56.641,943.848,0.000
1737558522.678,-283.203,-93.262,-57.617,-29.785,0.000
1737558522.682,-972.168,-89.844,-53.223,-837.402,0.000
1737558522.686,248.047,-65.430,-43.457,220.703,0.000
1737558522.690,999.512,-58.105,-41.016,999.512,0.000
1737558522.694,827.148,-62.500,-33.691,999.512,0.000
1737558522.698,-255.371,-66.895,-25.879,255.859,0.000
1737558522.702,-1000.000,-64.941,-32.227,-614.258,0.000
1737558522.706,-2.930,-54.688,-47.852,241.211,0.000
1737558522.710,999.512,-52.246,-45.898,977.539,0.000
1737558522.714,822.266,-66.406,-41.016,999.512,0.000
1737558522.717,-229.980,-83.008,-58.105,365.234,0.000
1737558522.721,-1000.000,-81.055,-73.242,-772.461,0.000
1737558522.725,-404.297,-66.895,-54.199,-164.551,0.000
1737558522.729,867.188,-57.129,-23.926,865.723,0.000
1737558522.733,870.117,-62.500,-22.461,999.512,0.000
1737558522.737,-248.535,-76.172,-35.156,231.934,0.000
1737558522.741,-1000.000,-82.031,-50.781,-993.652,0.000
1737558522.745,-404.785,-60.059,-65.430,-476.562,0.000
1737558522.749,794.922,-42.969,-63.965,697.266,0.000
1737558522.753,999.512,-54.199,-54.688,999.512,0.000
1737558522.757,239.746,-69.824,-73.730,504.883,0.000
1737558522.760,-1000.000,-84.961,-72.266,-800.293,0.000
1737558522.764,-562.988,-76.660,-46.875,-625.000,0.000
1737558522.768,698.242,-51.758,-38.574,580.566,0.000
1737558522.772,999.512,-53.711,-31.738,999.512,0.000
1737558522.776,501.465,-67.383,-37.598,632.812,0.000
1737558522.780,-840.332,-83.984,-51.758,-650.391,0.000
1737558522.784,-624.512,-80.078,-59.082,-724.121,0.000
1737558522.788,706.055,-62.012,-43.457,520.508,0.000
1737558522.792,999.512,-57.129,-29.785,999.512,0.000
1737558522.796,894.043,-57.129,-41.992,870.117,0.000
1737558522.799,-238.281,-69.824,-68.359,-142.090,0.000
1737558522.803,-391.602,-74.707,-83.008,-453.613,0.000
1737558522.807,845.703,-60.547,-77.148,617.188,0.000
1737558522.811,973.145,-58.594,-51.758,999.512,0.000
1737558522.815,999.512,-69.336,-16.602,953.613,0.000
1737558522.819,263.184,-82.031,-24.902,107.910,0.000
1737558522.823,-118.164,-66.895,-58.105,-483.398,0.000
1737558522.827,860.840,-43.457,-53.223,478.027,0.000
1737558522.831,991.699,-45.410,-26.855,999.512,0.000
1737558522.835,995.605,-45.898,-32.715,999.512,0.000
1737558522.839,716.309,-47.852,-67.871,340.820,0.000
1737558522.842,608.887,-34.180,-60.059,-121.582,0.000
1737558522.846,997.070,-29.785,-0.488,680.176,0.000
1737558522.850,972.656,-33.691,13.672,999.512,0.000
1737558522.854,960.449,-20.508,-16.602,981.934,0.000
1737558522.858,971.680,-26.367,-18.555,817.383,0.000
1737558522.862,970.215,-35.645,-0.977,717.773,0.000
1737558522.866,970.215,-25.879,-4.883,972.656,0.000
1737558522.870,969.727,-5.371,-17.090,978.516,0.000
1737558522.874,969.727,5.371,-29.785,961.914,0.000
1737558522.878,970.215,15.137,-57.129,972.656,0.000
1737558522.882,970.215,19.531,-50.781,970.703,0.000
1737558522.885,970.215,22.461,-3.418,970.703,0.000
1737558522.889,970.215,34.180,11.719,970.703,0.000
1737558522.893,969.727,29.785,17.578,970.703,0.000
1737558522.897,970.215,19.043,23.926,970.703,0.000
1737558522.901,970.215,19.043,20.996,970.703,0.000
1737558522.905,970.215,19.043,29.297,970.703,0.000
1737558522.909,970.215,18.066,27.344,970.703,0.000
1737558522.913,970.215,12.695,17.090,970.703,0.000
1737558522.917,970.215,6.836,1.953,970.703,0.000
1737558522.921,969.727,6.348,1.953,970.703,0.000
1737558522.924,969.727,0.488,-7.324,970.703,0.000
1737558522.928,970.215,-16.602,-4.883,970.703,0.000
1737558522.932,970.215,-32.715,23.926,970.703,0.000
1737558522.936,970.215,-44.434,39.551,970.703,0.000
1737558522.940,970.215,-45.898,53.223,970.703,0.000
1737558522.944,969.727,-38.086,30.273,970.703,0.000
1737558522.948,969.727,-31.738,-25.879,970.703,0.000
1737558522.952,969.727,-41.992,-39.551,970.703,0.000
1737558522.956,969.727,-60.059,-14.648,970.703,0.000
1737558522.960,970.215,-69.336,-8.301,970.703,0.000
1737558522.964,969.727,-68.848,-25.879,970.703,0.000
1737558522.967,969.727,-75.195,-47.363,970.703,0.000
1737558522.971,970.215,-81.055,-80.078,970.703,0.000
1737558522.975,969.727,-83.496,-76.660,970.703,0.000
1737558522.979,969.727,-94.727,-39.551,970.703,0.000
1737558522.983,969.727,-100.586,-33.203,970.703,0.000
1737558522.987,969.727,-104.980,-59.570,970.703,0.000
1737558522.991,970.215,-100.098,-55.664,970.703,0.000
1737558522.995,970.215,-98.633,-45.898,970.703,0.000
1737558522.999,970.215,-103.027,-65.918,970.703,0.000
1737558523.003,970.215,-104.492,-84.473,970.703,0.000
1737558523.007,969.727,-97.656,-71.289,970.703,0.000
1737558523.010,969.727,-94.727,-27.344,970.215,0.000
1737558523.014,970.215,-100.586,-34.180,970.703,0.000
1737558523.018,970.215,-102.539,-69.824,970.703,0.000
1737558523.022,970.215,-93.750,-65.430,970.703,0.000
1737558523.026,970.215,-92.773,-48.828,973.633,0.000
1737558523.030,968.750,-89.355,-55.176,948.730,0.000
1737558523.034,971.191,-86.426,-69.336,999.512,0.000
1737558523.038,967.285,-101.074,-77.148,818.848,0.000
1737558523.042,958.984,-102.051,-85.449,354.492,0.000
1737558523.046,970.215,-103.516,-84.473,625.977,0.000
1737558523.049,911.133,-111.328,-70.801,950.684,0.000
1737558523.053,999.512,-108.887,-65.430,999.512,0.000
1737558523.057,321.777,-110.840,-79.590,479.492,0.000
1737558523.061,-1000.000,-109.375,-93.750,-757.324,0.000
1737558523.065,-415.527,-103.516,-78.613,-378.906,0.000
1737558523.069,884.766,-94.727,-57.617,721.680,0.000
1737558523.073,864.746,-86.426,-58.105,999.512,0.000
1737558523.077,-340.332,-100.098,-75.195,226.074,0.000
1737558523.081,-1000.000,-116.211,-93.262,-984.375,0.000
1737558523.085,-1000.000,-106.934,-83.984,-844.238,0.000
1737558523.089,-34.668,-81.543,-59.082,300.293,0.000
1737558523.092,697.266,-75.684,-49.316,999.512,0.000
1737558523.096,-676.758,-102.539,-49.316,122.559,0.000
1737558523.100,-1000.000,-109.375,-62.012,-979.492,0.000
1737558523.104,-1000.000,-99.121,-57.617,-1000.000,0.000
1737558523.108,-723.145,-98.145,-37.109,-362.793,0.000
1737558523.112,-122.070,-96.191,-35.645,753.906,0.000
1737558523.116,-764.160,-99.121,-44.434,-178.223,0.000
1737558523.120,-1000.000,-112.793,-65.430,-1000.000,0.000
1737558523.124,-986.328,-101.562,-92.773,-1000.000,0.000
1737558523.128,-958.984,-80.566,-95.703,-790.527,0.000
1737558523.132,-704.590,-82.031,-66.895,90.332,0.000
1737558523.135,-901.367,-95.215,-67.383,-368.652,0.000
1737558523.139,-1000.000,-98.145,-75.195,-1000.000,0.000
1737558523.143,-987.793,-94.238,-77.148,-995.117,0.000
1737558523.147,-1000.000,-87.891,-76.660,-938.477,0.000
1737558523.151,-871.094,-77.637,-55.176,-190.918,0.000
1737558523.155,-934.570,-84.473,-54.688,-397.461,0.000
1737558523.159,-1000.000,-91.309,-61.035,-1000.000,0.000
1737558523.163,-982.910,-83.496,-58.594,-1000.000,0.000
1737558523.167,-1000.000,-75.684,-55.176,-908.691,0.000
1737558523.171,-608.887,-62.988,-38.086,362.793,0.000
1737558523.174,-618.164,-69.336,-33.203,535.156,0.000
1737558523.178,-1000.000,-93.750,-46.875,-783.203,0.000
1737558523.182,-983.887,-92.773,-36.133,-1000.000,0.000
1737558523.186,-1000.000,-74.219,-28.320,-870.605,0.000
1737558523.190,-804.688,-70.312,-24.902,259.766,0.000
1737558523.194,-813.965,-83.008,-25.391,292.480,0.000
1737558523.198,-1000.000,-95.703,-44.922,-933.594,0.000
1737558523.202,-981.445,-95.215,-57.129,-993.652,0.000
1737558523.206,-1000.000,-87.891,-49.316,-1000.000,0.000
1737558523.210,-837.402,-71.289,-40.039,-364.258,0.000
1737558523.214,-795.410,-74.707,-69.336,-29.785,0.000
1737558523.217,-1000.000,-89.355,-84.961,-953.613,0.000
1737558523.221,-995.117,-88.379,-52.246,-1000.000,0.000
1737558523.225,-1000.000,-81.055,-24.414,-1000.000,0.000
1737558523.229,-967.285,-69.824,-23.438,-693.359,0.000
1737558523.233,-943.848,-68.359,-49.316,-408.691,0.000
1737558523.237,-1000.000,-74.707,-67.383,-966.797,0.000
1737558523.241,-986.816,-76.660,-72.266,-996.094,0.000
1737558523.245,-1000.000,-74.219,-77.148,-1000.000,0.000
1737558523.249,-891.602,-62.012,-63.965,-733.398,0.000
1737558523.253,-784.668,-59.082,-49.316,-349.609,0.000
1737558523.257,-1000.000,-74.707,-58.105,-895.996,0.000
1737558523.260,-998.535,-81.055,-73.242,-1000.000,0.000
1737558523.264,-1000.000,-73.242,-75.195,-1000.000,0.000
1737558523.268,-936.035,-65.918,-69.336,-928.223,0.000
1737558523.272,-843.750,-71.777,-75.684,-792.969,0.000
1737558523.276,-997.559,-79.102,-85.449,-982.910,0.000
1737558523.280,-985.840,-80.078,-88.867,-997.559,0.000
1737558523.284,-1000.000,-74.219,-93.750,-1000.000,0.000
1737558523.288,-912.109,-74.707,-95.215,-962.402,0.000
1737558523.292,-454.590,-70.801,-80.566,-470.703,0.000
1737558523.296,-778.809,-78.613,-78.125,-676.758,0.000
1737558523.299,-1000.000,-83.008,-90.332,-1000.000,0.000
1737558523.303,-1000.000,-70.801,-81.055,-1000.000,0.000
1737558523.307,-940.918,-66.406,-49.316,-914.551,0.000
1737558523.311,94.727,-50.293,-22.461,169.434,0.000
1737558523.315,-232.422,-63.965,-44.922,-96.680,0.000
1737558523.319,-1000.000,-83.496,-74.219,-1000.000,0.000
1737558523.323,-984.375,-83.008,-74.219,-1000.000,0.000
1737558523.327,-987.305,-82.031,-64.453,-910.645,0.000
1737558523.331,151.855,-61.035,-47.852,379.883,0.000
1737558523.335,-53.711,-65.918,-45.410,328.613,0.000
1737558523.339,-1000.000,-83.496,-60.547,-965.332,0.000
1737558523.342,-982.422,-77.148,-75.684,-1000.000,0.000
1737558523.346,-1000.000,-67.871,-65.918,-821.289,0.000
1737558523.350,256.348,-50.781,-38.574,491.699,0.000
1737558523.354,133.301,-59.570,-30.762,665.039,0.000
1737558523.358,-1000.000,-83.984,-46.875,-715.820,0.000
1737558523.362,-951.660,-81.055,-61.035,-1000.000,0.000
1737558523.366,-1000.000,-69.336,-53.711,-888.672,0.000
1737558523.370,125.000,-49.316,-52.734,322.266,0.000
1737558523.374,344.727,-57.617,-61.035,790.039,0.000
1737558523.378,-1000.000,-84.961,-78.125,-551.758,0.000
1737558523.382,-969.727,-80.566,-59.082,-1000.000,0.000
1737558523.385,-1000.000,-78.125,-26.367,-879.883,0.000
1737558523.389,42.480,-68.848,-16.113,263.672,0.000
1737558523.393,477.051,-61.035,-23.438,988.770,0.000
1737558523.397,-950.684,-78.613,-58.105,-260.254,0.000
1737558523.401,-976.562,-79.590,-74.707,-1000.000,0.000
1737558523.405,-1000.000,-73.242,-62.500,-988.770,0.000
1737558523.409,-134.277,-67.383,-45.410,74.219,0.000
1737558523.413,627.441,-70.312,-42.480,888.184,0.000
1737558523.417,-794.434,-95.215,-59.570,-420.410,0.000
1737558523.421,-1000.000,-101.074,-73.242,-1000.000,0.000
1737558523.424,-1000.000,-93.750,-59.082,-1000.000,0.000
1737558523.428,-484.863,-75.684,-42.480,-575.684,0.000
1737558523.432,0.000,-67.871,-55.176,391.602,0.000
1737558523.436,0.000,-69.824,-45.410,-437.500,0.000
1737558523.440,0.000,-128.906,-145.020,-1000.000,0.000
1737558523.444,0.000,-185.547,-281.250,-957.031,0.000
1737558523.448,0.000,-135.254,-208.496,-998.047,0.000
1737558523.452,0.000,-92.285,-138.184,-1000.000,0.000
1737558523.456,0.000,-85.449,-128.906,-1000.000,0.000
1737558523.460,0.000,-84.961,-115.234,-1000.000,0.000
1737558523.464,0.000,-73.242,-91.309,-1000.000,0.000
1737558523.467,0.000,-63.965,-52.246,-1000.000,0.000
1737558523.471,0.000,-58.105,-32.715,-1000.000,0.000
1737558523.475,0.000,-63.965,-51.270,-1000.000,0.000
1737558523.479,-977.051,-70.801,-63.477,-997.559,0.000
1737558523.483,-1000.000,-66.895,-53.223,-990.723,0.000
1737558523.487,-995.117,-61.035,-42.969,-1000.000,0.000
1737558523.491,-119.141,-54.199,-33.691,-731.934,0.000
1737558523.495,-265.137,-64.453,-39.062,-724.609,0.000
1737558523.499,-1000.000,-81.543,-57.129,-976.562,0.000
1737558523.503,-933.594,-73.242,-60.547,-1000.000,0.000
1737558523.507,126.465,-59.082,-43.945,-493.652,0.000
1737558523.510,999.512,-55.176,-21.973,912.598,0.000
1737558523.514,920.410,-63.965,-17.578,802.246,0.000
1737558523.518,-388.672,-76.660,-26.855,-490.723,0.000
1737558523.522,-787.109,-71.289,-42.969,-1000.000,0.000
1737558523.526,632.324,-48.828,-46.387,-84.473,0.000
1737558523.530,962.402,-42.480,-43.945,955.566,0.000
1737558523.534,999.512,-55.664,-60.547,999.512,0.000
1737558523.538,186.035,-79.102,-52.246,112.793,0.000
1737558523.542,-581.055,-83.008,-39.062,-833.496,0.000
1737558523.546,804.199,-52.734,-33.203,415.527,0.000
1737558523.549,985.840,-48.828,-9.766,999.512,0.000
1737558523.553,999.512,-58.594,-2.930,999.512,0.000
1737558523.557,557.617,-69.824,-16.113,603.516,0.000
1737558523.561,-630.371,-83.496,-39.062,-590.820,0.000
1737558523.565,356.934,-65.430,-50.293,161.133,0.000
1737558523.569,999.512,-56.152,-11.719,999.512,0.000
1737558523.573,999.512,-66.895,0.977,999.512,0.000
1737558523.577,640.137,-80.566,-16.113,677.246,0.000
1737558523.581,-727.051,-92.285,-28.320,-642.090,0.000
1737558523.585,91.309,-80.566,-28.809,-48.828,0.000
1737558523.589,999.512,-62.012,-25.879,999.512,0.000
1737558523.592,999.512,-54.199,-28.320,999.512,0.000
1737558523.596,655.273,-74.219,-46.875,659.180,0.000
1737558523.600,-820.801,-94.238,-65.918,-784.668,0.000
1737558523.604,-113.281,-67.871,-69.336,-464.844,0.000
1737558523.608,999.512,-56.152,-45.410,881.836,0.000
1737558523.612,948.242,-64.941,-11.719,996.582,0.000
1737558523.616,939.453,-73.730,-1.953,934.082,0.000
1737558523.620,-396.484,-91.797,-1.953,-42.969,0.000
1737558523.624,-166.992,-82.031,-6.836,72.266,0.000
1737558523.628,999.512,-54.688,-33.691,999.512,0.000
1737558523.632,938.477,-55.664,-31.738,929.688,0.000
1737558523.635,984.863,-72.754,2.441,999.512,0.000
1737558523.639,-320.312,-85.449,-9.277,272.949,0.000
1737558523.643,-295.898,-72.266,-6.348,113.770,0.000
1737558523.647,999.512,-52.734,20.508,999.512,0.000
1737558523.651,940.918,-60.547,26.855,937.500,0.000
1737558523.655,999.512,-75.684,6.348,999.512,0.000
1737558523.659,-239.746,-91.797,-34.180,222.656,0.000
1737558523.663,-484.375,-79.102,-49.805,-205.078,0.000
1737558523.667,0.000,-57.617,-45.898,868.164,0.000
1737558523.671,0.000,-62.012,-39.062,958.984,0.000
1737558523.674,0.000,-69.824,-38.086,999.512,0.000
1737558523.678,0.000,-80.078,-42.969,255.371,0.000
1737558523.682,0.000,-80.566,-35.156,-560.547,0.000
1737558523.686,0.000,-66.406,-32.227,579.102,0.000
1737558523.690,0.000,-62.012,-17.578,997.070,0.000
1737558523.694,0.000,-77.148,-9.766,999.512,0.000
1737558523.698,0.000,-93.750,-20.996,461.426,0.000
1737558523.702,0.000,-93.750,-29.297,-354.980,0.000
1737558523.706,0.000,-69.824,-33.203,569.824,0.000
1737558523.710,0.000,-64.453,-21.484,999.512,0.000
1737558523.714,999.512,-70.801,-24.414,999.512,0.000
1737558523.717,111.816,-82.031,-54.199,562.012,0.000
1737558523.721,-1000.000,-90.820,-44.922,-401.855,0.000
1737558523.725,197.754,-70.801,-13.672,401.855,0.000
1737558523.729,999.512,-58.594,0.977,999.512,0.000
1737558523.733,999.512,-57.129,2.930,999.512,0.000
1737558523.737,192.383,-76.172,-24.414,662.598,0.000
1737558523.741,-1000.000,-94.238,-41.504,-486.328,0.000
1737558523.745,-35.156,-66.895,-30.762,162.598,0.000
1737558523.749,999.512,-51.270,-28.320,999.512,0.000
1737558523.753,999.512,-48.340,-35.156,999.512,0.000
1737558523.757,306.152,-62.500,-49.805,725.098,0.000
1737558523.760,0.000,-92.773,-53.711,-647.949,0.000
1737558523.764,0.000,-82.520,-21.973,-218.750,0.000
1737558523.768,0.000,-58.105,0.000,999.512,0.000
1737558523.772,0.000,-65.430,-0.488,974.609,0.000
1737558523.776,0.000,-78.613,-23.926,915.039,0.000
1737558523.780,0.000,-86.914,-44.922,-114.746,0.000
1737558523.784,0.000,-78.613,-42.480,-46.387,0.000
1737558523.788,0.000,-63.477,-34.180,973.633,0.000
1737558523.792,0.000,-63.965,-28.320,971.191,0.000
1737558523.796,0.000,-72.754,-24.414,945.312,0.000
1737558523.799,0.000,-85.449,-32.227,-278.320,0.000
1737558523.803,0.000,-75.684,-48.828,-645.996,0.000
1737558523.807,-1000.000,-55.664,-30.762,681.152,0.000
1737558523.811,-305.664,-60.059,-8.789,999.512,0.000
1737558523.815,959.473,-62.500,-20.020,966.797,0.000
1737558523.819,999.512,-80.078,-43.945,-215.332,0.000
1737558523.823,480.957,-84.961,-51.270,-794.922,0.000
1737558523.827,-961.914,-59.570,-38.574,552.246,0.000
1737558523.831,-475.098,-64.941,-29.297,999.512,0.000
1737558523.835,856.934,-73.730,-37.109,999.512,0.000
1737558523.839,999.512,-89.844,-50.293,-81.543,0.000
1737558523.842,500.488,-92.285,-51.758,-961.426,0.000
1737558523.846,-894.043,-58.105,-38.574,310.547,0.000
1737558523.850,-706.055,-59.570,-24.414,999.512,0.000
1737558523.854,932.617,-73.242,-22.949,999.512,0.000
1737558523.858,-222.656,-84.961,-47.852,76.172,0.000
1737558523.862,-999.512,-92.773,-46.387,-945.312,0.000
1737558523.866,322.754,-66.895,-20.996,276.367,0.000
1737558523.870,999.512,-52.734,-12.695,999.512,0.000
1737558523.874,999.512,-49.316,-36.621,999.512,0.000
1737558523.878,-0.488,-64.941,-68.359,156.738,0.000
1737558523.882,-1000.000,-90.332,-55.176,-1000.000,0.000
1737558523.885,8.789,-82.031,-31.250,-205.078,0.000
1737558523.889,999.512,-65.430,-20.020,919.434,0.000
1737558523.893,999.512,-64.941,-20.020,999.512,0.000
1737558523.897,62.988,-71.777,-44.922,391.113,0.000
1737558523.901,-1000.000,-79.102,-63.477,-908.203,0.000
1737558523.905,-114.258,-62.988,-53.711,19.531,0.000
1737558523.909,999.512,-50.781,-26.855,999.512,0.000
1737558523.913,999.512,-53.223,-5.859,999.512,0.000
1737558523.917,97.656,-69.336,-15.137,610.352,0.000
1737558523.921,-1000.000,-92.773,-55.176,-811.523,0.000
1737558523.924,-499.512,-76.172,-56.152,-500.977,0.000
1737558523.928,786.133,-51.758,-20.020,777.832,0.000
1737558523.932,999.512,-57.617,-15.137,999.512,0.000
1737558523.936,186.523,-86.914,-55.664,519.043,0.000
1737558523.940,-1000.000,-98.145,-86.426,-882.812,0.000
1737558523.944,-562.012,-77.637,-81.055,-641.602,0.000
1737558523.948,723.145,-55.664,-61.035,671.875,0.000
1737558523.952,999.512,-45.898,-26.855,999.512,0.000
1737558523.956,386.230,-67.871,-17.090,726.562,0.000
1737558523.960,-998.047,-97.168,-46.875,-573.242,0.000
1737558523.964,-750.977,-74.707,-76.172,-815.918,0.000
1737558523.967,543.457,-37.598,-66.406,463.867,0.000
1737558523.971,999.512,-38.086,-32.715,999.512,0.000
1737558523.975,491.211,-63.965,-27.344,677.734,0.000
1737558523.979,-871.094,-88.379,-44.434,-586.914,0.000
1737558523.983,-904.297,-84.961,-39.062,-1000.000,0.000
1737558523.987,334.473,-53.223,-29.785,140.137,0.000
1737558523.991,999.512,-45.898,-30.273,999.512,0.000
1737558523.995,666.992,-73.242,-28.809,798.828,0.000
1737558523.999,-653.320,-94.727,-51.270,-408.691,0.000
1737558524.003,-1000.000,-81.543,-69.824,-1000.000,0.000
1737558524.007,204.590,-60.059,-36.133,54.199,0.000
1737558524.010,999.512,-56.641,-6.348,999.512,0.000
1737558524.014,832.031,-54.199,-14.648,912.109,0.000
1737558524.018,-355.469,-75.195,-39.062,-177.246,0.000
1737558524.022,-1000.000,-88.867,-50.293,-1000.000,0.000
1737558524.026,-48.340,-68.359,-54.199,-286.133,0.000
1737558524.030,999.512,-47.852,-60.547,934.570,0.000
1737558524.034,955.566,-64.453,-48.828,999.512,0.000
1737558524.038,-139.648,-88.867,-45.898,-44.922,0.000
1737558524.042,-1000.000,-88.867,-52.734,-1000.000,0.000
1737558524.046,-166.992,-68.848,-54.688,-302.246,0.000
1737558524.049,999.512,-47.852,-28.809,883.301,0.000
1737558524.053,952.637,-52.734,-3.906,999.512,0.000
1737558524.057,-140.137,-76.172,-26.855,90.820,0.000
1737558524.061,-1000.000,-83.496,-51.270,-1000.000,0.000
1737558524.065,-320.312,-63.965,-40.527,-365.723,0.000
1737558524.069,946.777,-58.594,-17.578,814.453,0.000
1737558524.073,999.512,-68.359,-30.273,999.512,0.000
1737558524.077,-66.895,-83.008,-52.734,291.504,0.000
1737558524.081,-1000.000,-95.215,-48.828,-1000.000,0.000
1737558524.085,-457.031,-76.172,-46.875,-452.637,0.000
1737558524.089,828.613,-56.641,-42.480,804.199,0.000
1737558524.092,999.512,-68.359,-20.996,999.512,0.000
1737558524.096,106.445,-81.055,-18.555,595.703,0.000
1737558524.100,-1000.000,-90.820,-39.062,-800.293,0.000
1737558524.104,-713.379,-81.055,-59.082,-635.254,0.000
1737558524.108,567.383,-57.617,-53.223,682.617,0.000
1737558524.112,999.512,-59.082,-33.203,999.512,0.000
1737558524.116,101.074,-87.402,-45.410,566.406,0.000
1737558524.120,-1000.000,-103.516,-57.617,-753.418,0.000
1737558524.124,-940.430,-90.332,-55.176,-925.781,0.000
1737558524.128,190.430,-59.082,-40.527,279.785,0.000
1737558524.132,999.512,-47.852,-29.297,999.512,0.000
1737558524.135,236.816,-65.430,-64.941,515.137,0.000
1737558524.139,-999.512,-87.402,-84.473,-753.906,0.000
1737558524.143,-1000.000,-89.355,-61.035,-1000.000,0.000
1737558524.147,-54.199,-71.777,-38.574,-92.285,0.000
1737558524.151,999.512,-62.500,-24.414,999.512,0.000
1737558524.155,458.008,-76.660,-29.297,690.918,0.000
1737558524.159,-860.840,-97.656,-50.781,-581.055,0.000
1737558524.163,-1000.000,-88.379,-57.617,-1000.000,0.000
1737558524.167,-39.062,-58.594,-38.086,-55.664,0.000
1737558524.171,999.512,-47.852,-19.531,999.512,0.000
1737558524.174,646.973,-56.152,-31.738,846.191,0.000
1737558524.178,-629.883,-71.289,-62.012,-305.664,0.000
1737558524.182,-1000.000,-67.383,-69.336,-1000.000,0.000
1737558524.186,-92.285,-47.363,-60.547,-240.723,0.000
1737558524.190,999.512,-43.457,-30.273,965.332,0.000
1737558524.194,861.816,-60.547,-2.441,956.543,0.000
1737558524.198,-327.148,-82.520,-21.973,-164.551,0.000
1737558524.202,-1000.000,-73.730,-36.133,-1000.000,0.000
1737558524.206,-181.152,-55.664,-33.203,-405.273,0.000
1737558524.210,999.512,-53.223,-32.227,837.402,0.000
1737558524.214,964.355,-57.617,-34.180,999.512,0.000
1737558524.217,-131.348,-76.660,-50.293,-7.324,0.000
1737558524.221,-1000.000,-86.426,-58.594,-1000.000,0.000
1737558524.225,-342.285,-69.824,-43.457,-545.898,0.000
1737558524.229,912.109,-49.805,-12.695,690.918,0.000
1737558524.233,999.512,-49.316,0.977,999.512,0.000
1737558524.237,83.008,-70.801,-25.391,201.172,0.000
1737558524.241,-1000.000,-86.426,-48.340,-1000.000,0.000
1737558524.245,-482.910,-75.684,-57.129,-655.762,0.000
1737558524.249,810.059,-50.781,-49.805,593.262,0.000
1737558524.253,999.512,-56.152,-27.344,999.512,0.000
1737558524.257,159.668,-83.008,-27.832,349.121,0.000
1737558524.260,-1000.000,-86.914,-47.363,-1000.000,0.000
1737558524.264,-602.539,-74.707,-39.551,-737.793,0.000
1737558524.268,691.406,-51.270,-7.324,533.203,0.000
1737558524.272,999.512,-44.434,3.906,999.512,0.000
1737558524.276,284.180,-66.895,-26.367,545.410,0.000
1737558524.280,-1000.000,-80.566,-51.270,-785.156,0.000
1737558524.284,-793.945,-77.148,-49.316,-897.461,0.000
1737558524.288,473.633,-61.035,-23.438,353.027,0.000
1737558524.292,999.512,-51.270,-1.953,999.512,0.000
1737558524.296,558.105,-61.035,-7.812,778.320,0.000
1737558524.299,-792.480,-81.543,-35.645,-472.656,0.000
1737558524.303,-962.402,-85.938,-53.223,-970.215,0.000
1737558524.307,317.383,-63.965,-42.969,283.691,0.000
1737558524.311,999.512,-55.176,-21.484,999.512,0.000
1737558524.315,613.281,-62.500,-15.137,848.633,0.000
1737558524.319,-686.035,-86.914,-46.387,-330.078,0.000
1737558524.323,-1000.000,-92.285,-59.570,-1000.000,0.000
1737558524.327,118.652,-62.500,-30.273,106.934,0.000
1737558524.331,999.512,-48.340,-6.348,999.512,0.000
1737558524.335,802.734,-51.270,-14.648,953.125,0.000
1737558524.339,-438.477,-72.266,-32.715,-159.668,0.000
1737558524.342,-1000.000,-77.637,-27.832,-1000.000,0.000
1737558524.346,96.680,-60.059,-13.184,66.895,0.000
1737558524.350,999.512,-61.035,0.000,999.512,0.000
1737558524.354,874.023,-67.871,-4.395,999.512,0.000
1737558524.358,-275.879,-80.078,-32.715,-18.555,0.000
1737558524.362,-1000.000,-87.891,-43.457,-1000.000,0.000
1737558524.366,-64.453,-63.965,-37.598,-83.984,0.000
1737558524.370,999.512,-47.363,-36.133,985.840,0.000
1737558524.374,971.680,-58.105,-28.809,999.512,0.000
1737558524.378,-79.590,-75.195,-32.715,132.812,0.000
1737558524.382,-1000.000,-85.449,-39.062,-1000.000,0.000
1737558524.385,-256.348,-71.777,-28.320,-403.809,0.000
1737558524.389,979.492,-47.852,-6.836,839.355,0.000
1737558524.393,999.512,-48.828,-11.230,999.512,0.000
1737558524.397,21.484,-72.754,-39.062,122.070,0.000
1737558524.401,-1000.000,-82.520,-46.875,-1000.000,0.000
1737558524.405,-462.402,-68.359,-36.133,-640.137,0.000
1737558524.409,815.430,-56.152,-22.461,595.215,0.000
1737558524.413,999.512,-55.176,-16.113,999.512,0.000
1737558524.417,179.688,-73.242,-30.273,334.961,0.000
1737558524.421,-1000.000,-86.914,-34.668,-1000.000,0.000
1737558524.424,-567.383,-70.801,-24.902,-740.723,0.000
1737558524.428,723.145,-44.922,-9.277,501.465,0.000
1737558524.432,999.512,-43.945,-6.348,999.512,0.000
1737558524.436,282.715,-61.035,-25.879,473.145,0.000
1737558524.440,-1000.000,-80.566,-41.016,-852.051,0.000
1737558524.444,-812.500,-81.543,-40.527,-947.266,0.000
1737558524.448,442.871,-53.223,-34.180,239.258,0.000
1737558524.452,999.512,-42.969,-31.250,999.512,0.000
1737558524.456,303.223,-66.406,-40.527,490.234,0.000
1737558524.460,-987.305,-83.984,-57.617,-796.875,0.000
1737558524.464,-999.512,-74.219,-48.828,-1000.000,0.000
1737558524.467,123.535,-52.734,-32.227,-16.113,0.000
1737558524.471,999.512,-35.156,-18.555,999.512,0.000
1737558524.475,439.941,-58.594,-26.367,575.684,0.000
1737558524.479,-885.254,-86.426,-48.828,-693.848,0.000
1737558524.483,-1000.000,-79.590,-48.828,-1000.000,0.000
1737558524.487,24.902,-61.035,-35.645,-224.121,0.000
1737558524.491,999.512,-49.805,-33.203,999.512,0.000
1737558524.495,615.723,-61.523,-46.875,707.031,0.000
1737558524.499,-669.434,-83.496,-62.012,-549.805,0.000
1737558524.503,-1000.000,-89.355,-59.082,-1000.000,0.000
1737558524.507,-187.988,-63.965,-39.551,-442.871,0.000
1737558524.510,999.512,-41.504,-18.066,887.695,0.000
1737558524.514,776.855,-56.641,-16.113,868.652,0.000
1737558524.518,-473.633,-86.426,-33.203,-362.793,0.000
1737558524.522,-1000.000,-96.680,-36.133,-1000.000,0.000
1737558524.526,-321.777,-68.848,-24.902,-554.199,0.000
1737558524.530,971.191,-39.062,-22.949,743.652,0.000
1737558524.534,947.266,-49.316,-23.438,999.512,0.000
1737558524.538,-229.004,-76.172,-18.555,-145.996,0.000
1737558524.542,-1000.000,-87.891,-21.973,-1000.000,0.000
1737558524.546,-419.434,-70.801,-18.066,-643.066,0.000
1737558524.549,882.812,-53.711,-10.742,608.398,0.000
1737558524.553,999.512,-61.035,-11.230,999.512,0.000
1737558524.557,-97.168,-79.590,-19.531,-22.461,0.000
1737558524.561,-1000.000,-84.473,-26.855,-1000.000,0.000
1737558524.565,-568.359,-62.012,-22.949,-741.699,0.000
1737558524.569,713.867,-43.945,-8.789,437.988,0.000
1737558524.573,999.512,-50.781,-2.930,999.512,0.000
1737558524.577,53.711,-72.754,-17.578,195.801,0.000
1737558524.581,-1000.000,-92.285,-35.156,-1000.000,0.000
1737558524.585,-698.242,-75.195,-33.203,-811.523,0.000
1737558524.589,559.082,-50.293,-11.230,363.281,0.000
1737558524.592,999.512,-45.898,-2.441,999.512,0.000
1737558524.596,161.133,-73.242,-23.438,379.395,0.000
1737558524.600,-1000.000,-104.492,-38.086,-969.238,0.000
1737558524.604,-761.230,-85.449,-19.531,-828.125,0.000
1737558524.608,473.145,-59.570,7.812,377.930,0.000
1737558524.612,999.512,-52.734,8.301,999.512,0.000
1737558524.616,310.547,-71.777,-21.973,588.379,0.000
1737558524.620,-1000.000,-92.773,-43.457,-724.609,0.000
1737558524.624,-931.152,-75.684,-34.180,-978.027,0.000
1737558524.628,256.836,-53.711,-17.090,218.750,0.000
1737558524.632,999.512,-50.293,-3.906,999.512,0.000
1737558524.635,467.773,-62.988,-5.859,721.680,0.000
1737558524.639,-849.609,-85.449,-27.832,-525.391,0.000
1737558524.643,-1000.000,-83.496,-42.969,-1000.000,0.000
1737558524.647,72.754,-58.105,-32.227,106.934,0.000
1737558524.651,999.512,-47.852,-21.484,999.512,0.000
1737558524.655,631.348,-57.129,-33.691,866.211,0.000
1737558524.659,-650.391,-78.125,-43.945,-288.086,0.000
1737558524.663,-1000.000,-89.355,-50.781,-1000.000,0.000
1737558524.667,-43.945,-67.383,-33.203,-59.570,0.000
1737558524.671,999.512,-39.062,-0.977,999.512,0.000
1737558524.674,792.480,-45.898,-0.488,947.754,0.000
1737558524.678,-416.016,-76.172,-32.715,-152.344,0.000
1737558524.682,-1000.000,-81.055,-51.270,-1000.000,0.000
1737558524.686,-160.645,-56.641,-33.691,-197.754,0.000
1737558524.690,999.512,-47.852,-6.836,948.242,0.000
1737558524.694,937.500,-57.129,0.000,999.512,0.000
1737558524.698,-184.570,-70.312,-11.719,48.340,0.000
1737558524.702,-1000.000,-74.219,-25.391,-1000.000,0.000
1737558524.706,-169.922,-51.758,-21.973,-207.031,0.000
1737558524.710,999.512,-43.457,-16.602,921.875,0.000
1737558524.714,999.512,-48.828,-27.832,999.512,0.000
1737558524.717,23.438,-61.523,-39.062,318.359,0.000
1737558524.721,-1000.000,-80.078,-64.941,-1000.000,0.000
1737558524.725,-356.445,-75.195,-74.219,-392.578,0.000
1737558524.729,898.438,-58.594,-7.324,829.590,0.000
1737558524.733,999.512,-51.758,23.926,999.512,0.000
1737558524.737,195.801,-65.430,-5.371,502.441,0.000
1737558524.741,-1000.000,-91.309,-26.855,-902.832,0.000
1737558524.745,-606.934,-76.172,-60.059,-666.992,0.000
1737558524.749,688.477,-40.039,-59.570,636.719,0.000
1737558524.753,999.512,-33.203,-23.438,999.512,0.000
1737558524.757,253.906,-55.664,-13.672,588.379,0.000
1737558524.760,-1000.000,-81.543,-12.207,-816.406,0.000
1737558524.764,-600.098,-71.289,-4.395,-594.727,0.000
1737558524.768,701.172,-44.922,-4.395,751.953,0.000
1737558524.772,999.512,-30.762,-8.301,999.512,0.000
1737558524.776,330.078,-58.594,-34.668,873.535,0.000
1737558524.780,-1000.000,-89.355,-40.039,-412.598,0.000
1737558524.784,-785.645,-74.707,-0.488,-591.309,0.000
1737558524.788,496.094,-55.176,26.855,791.016,0.000
1737558524.792,999.512,-48.340,20.020,999.512,0.000
1737558524.796,462.891,-58.594,-12.207,948.242,0.000
1737558524.799,-839.355,-83.008,-39.062,-205.566,0.000
1737558524.803,-1000.000,-84.961,-59.082,-889.648,0.000
1737558524.807,163.086,-61.523,-57.129,395.020,0.000
1737558524.811,999.512,-40.039,-20.020,999.512,0.000
1737558524.815,534.180,-53.223,-6.836,930.664,0.000
1737558524.819,-763.184,-80.566,-20.020,-220.215,0.000
1737558524.823,-1000.000,-75.684,-20.996,-973.145,0.000
1737558524.827,31.250,-50.781,-17.578,282.227,0.000
1737558524.831,999.512,-38.086,-15.625,999.512,0.000
1737558524.835,696.289,-50.781,-9.766,996.582,0.000
1737558524.839,-520.020,-74.219,-30.762,-15.625,0.000
1737558524.842,-1000.000,-83.496,-48.828,-1000.000,0.000
1737558524.846,-195.801,-61.523,-41.504,-60.059,0.000
1737558524.850,999.512,-34.668,-39.062,986.816,0.000
1737558524.854,893.066,-40.039,-37.109,999.512,0.000
1737558524.858,-236.816,-63.965,-39.551,107.910,0.000
1737558524.862,-1000.000,-77.148,-45.898,-1000.000,0.000
1737558524.866,-355.469,-61.523,-39.551,-382.324,0.000
1737558524.870,951.172,-34.180,-29.785,846.680,0.000
1737558524.874,964.844,-30.273,-1.465,999.512,0.000
1737558524.878,-180.176,-56.152,6.836,64.941,0.000
1737558524.882,-1000.000,-70.312,-6.348,-1000.000,0.000
1737558524.885,-542.480,-49.316,2.441,-648.926,0.000
1737558524.889,748.535,-27.344,11.719,577.148,0.000
1737558524.893,999.512,-31.250,9.277,999.512,0.000
1737558524.897,3.418,-41.504,-4.883,138.672,0.000
1737558524.901,-1000.000,-49.316,-17.090,-1000.000,0.000
1737558524.905,-645.508,-40.527,-18.066,-835.938,0.000
1737558524.909,608.398,-19.531,-3.418,315.430,0.000
1737558524.913,999.512,-18.066,7.324,999.512,0.000
1737558524.917,138.672,-42.480,-7.812,198.242,0.000
1737558524.921,-1000.000,-60.547,-29.785,-1000.000,0.000
1737558524.924,-896.484,-52.246,-22.949,-1000.000,0.000
1737558524.928,253.418,-28.320,5.371,-28.320,0.000
1737558524.932,0.000,-21.973,19.531,999.512,0.000
1737558524.936,0.000,-53.711,7.324,261.719,0.000
1737558524.940,0.000,-71.289,-15.625,-969.238,0.000
1737558524.944,0.000,-54.688,-22.949,-1000.000,0.000
1737558524.948,0.000,-31.738,-21.484,-236.816,0.000
1737558524.952,0.000,-20.020,-12.695,999.512,0.000
1737558524.956,0.000,-39.551,-10.742,367.188,0.000
1737558524.960,0.000,-67.383,-16.113,-917.480,0.000
1737558524.964,0.000,-64.941,-20.020,-1000.000,0.000
1737558524.967,0.000,-43.945,-20.020,-403.809,0.000
1737558524.971,0.000,-27.832,-1.465,965.820,0.000
1737558524.975,0.000,-42.480,2.930,680.176,0.000
1737558524.979,-753.418,-65.918,-18.555,-618.652,0.000
1737558524.983,-1000.000,-72.266,-32.227,-1000.000,0.000
1737558524.987,-183.105,-55.176,-17.090,-450.195,0.000
1737558524.991,999.512,-40.039,0.000,886.230,0.000
1737558524.995,731.445,-43.457,-3.906,805.664,0.000
1737558524.999,-545.898,-61.523,-19.043,-466.797,0.000
1737558525.003,-1000.000,-70.801,-28.320,-1000.000,0.000
1737558525.007,-260.254,-63.965,-29.297,-662.598,0.000
1737558525.010,999.512,-47.363,-21.484,653.809,0.000
1737558525.014,829.590,-44.434,-19.531,876.953,0.000
1737558525.018,-433.105,-69.336,-41.016,-424.316,0.000
1737558525.022,-1000.000,-80.078,-58.105,-1000.000,0.000
1737558525.026,-583.496,-61.523,-66.406,-793.945,0.000
1737558525.030,723.145,-42.969,-40.527,385.254,0.000
1737558525.034,999.512,-48.340,1.953,999.512,0.000
1737558525.038,-192.871,-78.613,-8.789,-17.090,0.000
1737558525.042,-1000.000,-94.727,-24.414,-1000.000,0.000
1737558525.046,-531.738,-68.848,-2.930,-479.004,0.000
1737558525.050,786.621,-48.340,9.766,729.492,0.000
1737558525.053,999.512,-55.664,-1.953,999.512,0.000
1737558525.057,-127.930,-77.637,-34.668,269.531,0.000
1737558525.061,-1000.000,-96.191,-49.316,-1000.000,0.000
1737558525.065,-789.551,-89.355,-34.180,-729.004,0.000
1737558525.069,447.266,-64.941,-35.645,485.352,0.000
1737558525.073,999.512,-50.293,-33.203,999.512,0.000
1737558525.077,-13.184,-66.406,-41.016,429.199,0.000
1737558525.081,-1000.000,-92.773,-74.707,-939.453,0.000
1737558525.085,-864.258,-95.703,-70.312,-738.770,0.000
1737558525.089,313.965,-77.637,-47.363,529.785,0.000
1737558525.092,999.512,-62.012,-41.016,999.512,0.000
1737558525.096,175.293,-82.520,-54.199,705.566,0.000
1737558525.100,-1000.000,-110.840,-74.219,-603.516,0.000
1737558525.104,-895.996,-98.145,-57.617,-743.652,0.000
1737558525.108,272.461,-70.312,-36.133,575.684,0.000
1737558525.112,999.512,-65.430,-28.320,999.512,0.000
1737558525.116,402.832,-76.172,-45.410,959.473,0.000
1737558525.120,-916.504,-95.215,-77.148,-218.750,0.000
1737558525.124,-957.031,-97.656,-76.660,-707.520,0.000
1737558525.128,252.441,-72.754,-55.176,639.648,0.000
1737558525.132,999.512,-65.918,-34.180,999.023,0.000
1737558525.135,561.035,-75.684,-29.785,999.512,0.000
1737558525.139,-708.496,-87.891,-48.828,1.465,0.000
1737558525.143,-1000.000,-86.426,-64.941,-854.980,0.000
1737558525.147,44.434,-70.801,-62.012,363.770,0.000
1737558525.151,999.512,-68.359,-44.434,999.512,0.000
1737558525.155,725.586,-80.078,-50.781,999.512,0.000
1737558525.159,-496.582,-91.797,-68.359,5.371,0.000
1737558525.163,-1000.000,-91.309,-81.055,-1000.000,0.000
1737558525.167,-58.105,-66.895,-83.496,99.609,0.000
1737558525.171,999.512,-54.688,-55.176,999.023,0.000
1737558525.175,933.594,-64.941,-44.922,999.512,0.000
1737558525.178,-175.293,-84.961,-49.316,168.945,0.000
1737558525.182,-1000.000,-87.402,-52.734,-1000.000,0.000
1737558525.186,-103.516,-58.594,-43.457,-28.809,0.000
1737558525.190,999.512,-47.852,-30.273,995.605,0.000
