timestamps,TP9,AF7,AF8,TP10,Right AUX
1737558224.708,-943.848,-14.648,-50.781,-199.219,0.000
1737558224.712,-937.988,-15.625,-53.711,-181.641,0.000
1737558224.716,-999.023,-22.461,-56.641,-82.520,0.000
1737558224.720,-1000.000,-27.344,-58.105,-10.742,0.000
1737558224.724,-969.238,-25.879,-57.129,-94.238,0.000
1737558224.728,-648.926,-8.789,-48.340,-181.152,0.000
1737558224.732,-522.949,-3.418,-43.457,-159.180,0.000
1737558224.736,-821.777,-20.996,-49.316,-99.609,0.000
1737558224.739,-963.867,-34.180,-53.223,-48.828,0.000
1737558224.743,-742.676,-30.762,-50.781,-78.125,0.000
1737558224.747,-399.902,-15.625,-46.387,-167.480,0.000
1737558224.751,-302.246,-9.766,-47.852,-184.082,0.000
1737558224.755,-572.754,-22.949,-48.828,-132.812,0.000
1737558224.759,-771.973,-31.250,-50.293,-55.664,0.000
1737558224.763,-650.879,-28.809,-54.199,-79.102,0.000
1737558224.767,-337.891,-20.508,-52.246,-184.082,0.000
1737558224.771,-185.059,-9.277,-46.875,-199.219,0.000
1737558224.775,-422.363,-9.766,-44.922,-136.230,0.000
1737558224.779,-643.555,-24.902,-46.875,-58.105,0.000
1737558224.782,-544.434,-24.414,-43.945,-70.801,0.000
1737558224.786,-227.051,-10.254,-41.016,-171.387,0.000
1737558224.790,-66.406,-2.441,-42.480,-208.984,0.000
1737558224.794,-291.504,-4.395,-37.598,-145.996,0.000
1737558224.798,-523.438,-13.184,-35.156,-62.988,0.000
1737558224.802,-452.637,-19.531,-36.133,-75.684,0.000
1737558224.806,-141.113,-9.766,-35.645,-166.504,0.000
1737558224.810,58.594,-2.441,-36.621,-206.543,0.000
1737558224.814,-149.414,-11.719,-41.016,-187.500,0.000
1737558224.818,-396.973,-18.066,-43.457,-94.238,0.000
1737558224.822,-339.844,-14.648,-38.574,-42.969,0.000
1737558224.825,-66.895,-12.207,-39.551,-156.738,0.000
1737558224.829,151.855,-12.207,-36.621,-235.352,0.000
1737558224.833,58.105,-15.625,-32.715,-179.688,0.000
1737558224.837,-203.613,-15.625,-39.551,-87.891,0.000
1737558224.841,-209.961,-11.719,-43.457,-56.152,0.000
1737558224.845,77.148,-7.324,-37.598,-155.273,0.000
1737558224.849,343.750,-2.930,-33.691,-231.445,0.000
1737558224.853,270.020,-6.836,-34.668,-195.312,0.000
1737558224.857,-39.062,-19.043,-35.156,-121.094,0.000
1737558224.861,-78.613,-21.973,-37.598,-69.824,0.000
1737558224.864,202.637,-17.090,-33.203,-128.906,0.000
1737558224.868,488.770,-2.441,-26.855,-206.055,0.000
1737558224.872,454.102,-10.742,-36.133,-204.590,0.000
1737558224.876,164.551,-35.156,-46.387,-151.367,0.000
1737558224.880,139.160,-30.273,-38.574,-80.078,0.000
1737558224.884,395.996,-12.695,-33.203,-127.441,0.000
1737558224.888,668.945,-0.488,-32.227,-222.168,0.000
1737558224.892,672.852,-0.977,-28.320,-204.102,0.000
1737558224.896,367.676,-7.324,-30.273,-115.723,0.000
1737558224.900,210.938,-26.367,-35.645,-54.688,0.000
1737558224.904,384.277,-36.621,-39.062,-101.074,0.000
1737558224.907,687.012,-7.324,-24.414,-188.965,0.000
1737558224.911,709.961,14.160,-30.273,-217.773,0.000
1737558224.915,349.609,-2.930,-50.781,-188.477,0.000
1737558224.919,158.203,5.371,-36.133,-124.512,0.000
1737558224.923,255.371,13.184,-15.137,-215.820,0.000
1737558224.927,485.840,13.672,-22.461,-355.469,0.000
1737558224.931,548.340,20.020,-33.691,-359.375,0.000
1737558224.935,152.832,7.324,-15.625,-366.211,0.000
1737558224.939,-115.723,32.227,-3.906,-301.270,0.000
1737558224.943,0.000,30.273,-17.578,-317.871,0.000
1737558224.947,0.000,27.832,-12.695,-478.516,0.000
1737558224.950,0.000,20.020,25.879,-547.852,0.000
1737558224.954,0.000,16.602,32.715,-528.320,0.000
1737558224.958,0.000,59.082,14.160,-420.898,0.000
1737558224.962,0.000,50.293,18.066,-398.926,0.000
1737558224.966,0.000,20.996,12.207,-566.406,0.000
1737558224.970,0.000,77.148,35.645,-553.223,0.000
1737558224.974,0.000,83.984,36.621,-440.430,0.000
1737558224.978,0.000,33.691,17.578,-417.480,0.000
1737558224.982,0.000,21.973,44.434,-413.574,0.000
1737558224.986,0.000,27.344,44.922,-475.098,0.000
1737558224.989,-605.957,16.602,32.715,-529.297,0.000
1737558224.993,-932.129,27.344,44.434,-517.090,0.000
1737558224.997,-1000.000,17.578,65.430,-342.285,0.000
1737558225.001,-1000.000,-64.453,25.879,-324.219,0.000
1737558225.005,-969.727,-18.066,46.387,-420.898,0.000
1737558225.009,-817.383,61.523,63.477,-430.176,0.000
1737558225.013,-920.410,18.555,93.750,-381.348,0.000
1737558225.017,-1000.000,-26.855,123.535,-255.371,0.000
1737558225.021,-1000.000,-58.594,17.578,-377.930,0.000
1737558225.025,-821.777,-28.320,72.266,-376.465,0.000
1737558225.029,-512.695,-33.691,179.199,-274.414,0.000
1737558225.032,-736.816,-48.340,119.629,-364.746,0.000
1737558225.036,-904.297,16.602,118.164,-180.176,0.000
1737558225.040,-913.086,-40.527,145.508,-166.016,0.000
1737558225.044,-710.938,-60.547,164.062,-269.043,0.000
1737558225.048,-470.703,-55.176,138.184,-299.316,0.000
1737558225.052,-506.836,-93.262,105.957,-303.223,0.000
1737558225.056,-621.094,-43.457,111.328,-147.949,0.000
1737558225.060,-642.578,-40.039,180.664,-42.480,0.000
1737558225.064,-459.473,-83.008,211.426,-118.652,0.000
1737558225.068,-36.133,-43.945,157.715,-159.180,0.000
1737558225.072,107.910,-15.625,187.012,-151.367,0.000
1737558225.075,-117.676,-20.508,223.633,-113.281,0.000
1737558225.079,-184.570,-101.074,152.832,-94.238,0.000
1737558225.083,66.406,-149.414,168.457,-152.832,0.000
1737558225.087,361.328,-86.914,209.961,-225.586,0.000
1737558225.091,275.391,-31.250,173.828,-247.070,0.000
1737558225.095,-72.754,15.137,206.055,-155.273,0.000
1737558225.099,-375.488,-114.746,182.129,-184.570,0.000
1737558225.103,-175.781,-146.973,157.227,-228.027,0.000
1737558225.107,362.793,-39.551,215.332,-185.059,0.000
1737558225.111,457.031,-37.598,202.148,-196.777,0.000
1737558225.114,102.051,-59.082,195.801,-199.707,0.000
1737558225.118,-76.172,-65.430,240.723,-115.234,0.000
1737558225.122,-18.066,-107.910,270.508,-177.734,0.000
1737558225.126,325.195,-52.734,265.137,-209.473,0.000
1737558225.130,499.512,-20.996,0.000,-149.902,0.000
1737558225.134,59.570,-94.238,0.000,-221.680,0.000
1737558225.138,-194.336,-140.625,0.000,-132.812,0.000
1737558225.142,-65.918,-85.449,0.000,-52.246,0.000
1737558225.146,135.254,-53.711,0.000,-189.453,0.000
1737558225.150,393.555,-31.738,0.000,-135.742,0.000
1737558225.154,175.293,-73.730,0.000,-98.633,0.000
1737558225.157,-256.836,-96.191,0.000,-154.297,0.000
1737558225.161,-190.918,-43.945,0.000,-76.660,0.000
1737558225.165,23.926,-79.590,0.000,-157.227,0.000
1737558225.169,65.430,-100.098,0.000,-249.512,0.000
1737558225.173,-183.105,-90.820,0.000,-192.383,0.000
1737558225.177,-470.215,-71.777,307.129,-98.145,0.000
1737558225.181,-441.895,-75.195,360.840,-15.137,0.000
1737558225.185,-297.852,-93.750,329.102,-134.277,0.000
1737558225.189,-98.633,-122.559,323.730,-217.285,0.000
1737558225.193,-152.832,-112.305,339.355,-145.996,0.000
1737558225.197,-427.734,-84.473,290.527,-49.316,0.000
1737558225.200,-410.645,-96.680,325.684,1.465,0.000
1737558225.204,-66.895,-82.031,347.656,-29.297,0.000
1737558225.208,106.445,-100.098,304.199,-151.367,0.000
1737558225.212,92.773,-99.609,321.289,-85.938,0.000
1737558225.216,-161.621,-88.379,305.176,8.789,0.000
1737558225.220,-275.391,-122.559,285.156,-1.465,0.000
1737558225.224,66.406,-119.629,281.738,-25.391,0.000
1737558225.228,334.961,-114.258,259.277,-148.438,0.000
1737558225.232,386.719,-84.473,299.316,-107.422,0.000
1737558225.236,275.879,-66.895,324.707,101.074,0.000
1737558225.239,60.059,-98.633,262.207,121.582,0.000
1737558225.243,81.543,-94.727,240.723,-10.254,0.000
1737558225.247,317.871,-84.961,237.793,-115.723,0.000
1737558225.251,372.559,-95.703,224.121,-117.676,0.000
1737558225.255,51.270,-91.797,205.078,-78.125,0.000
1737558225.259,-59.082,-96.191,209.961,36.133,0.000
1737558225.263,153.809,-104.980,206.543,4.883,0.000
1737558225.267,463.379,-42.969,223.145,-58.105,0.000
1737558225.271,433.105,-43.945,196.289,-49.805,0.000
1737558225.275,-140.137,-104.004,125.000,-86.914,0.000
1737558225.279,-417.480,-77.637,93.750,-1.953,0.000
1737558225.282,-237.793,-67.383,100.586,3.906,0.000
1737558225.286,131.836,-72.754,113.770,-64.941,0.000
1737558225.290,301.270,-45.410,76.172,-51.270,0.000
1737558225.294,27.344,-37.109,19.531,-11.230,0.000
1737558225.298,-130.859,-24.902,30.273,119.141,0.000
1737558225.302,2.441,-12.207,53.711,139.648,0.000
1737558225.306,215.820,-17.578,-9.766,-29.785,0.000
1737558225.310,360.840,-5.859,-40.527,-39.551,0.000
1737558225.314,133.789,-4.395,-41.504,50.293,0.000
1737558225.318,-129.395,-30.762,-50.781,102.051,0.000
1737558225.322,44.922,-3.418,-79.102,140.137,0.000
1737558225.325,583.008,72.266,-66.406,185.059,0.000
1737558225.329,787.598,57.129,-84.473,106.445,0.000
1737558225.333,429.199,16.113,-141.602,23.926,0.000
1737558225.337,90.332,7.324,-158.203,99.121,0.000
1737558225.341,111.816,-2.441,-171.875,131.836,0.000
1737558225.345,406.738,9.766,-176.758,69.824,0.000
1737558225.349,583.496,27.344,-186.523,35.645,0.000
1737558225.353,399.902,23.438,-201.660,89.844,0.000
1737558225.357,97.656,9.277,-221.191,222.168,0.000
1737558225.361,17.090,12.695,-238.281,262.207,0.000
1737558225.364,206.055,28.320,-256.348,172.363,0.000
1737558225.368,391.602,40.527,-278.320,131.348,0.000
1737558225.372,258.301,41.504,-304.199,167.480,0.000
1737558225.376,-74.707,31.250,-331.055,237.305,0.000
1737558225.380,-102.051,27.832,-359.863,308.594,0.000
1737558225.384,212.891,39.062,-373.047,287.109,0.000
1737558225.388,520.996,49.316,-380.371,236.816,0.000
1737558225.392,504.395,42.480,-395.020,266.602,0.000
1737558225.396,204.102,28.320,-399.414,351.562,0.000
1737558225.400,105.957,19.043,-396.484,428.711,0.000
1737558225.404,320.312,24.902,-387.695,384.766,0.000
1737558225.407,594.238,32.227,-378.906,300.293,0.000
1737558225.411,0.000,28.320,-371.582,329.102,0.000
1737558225.415,0.000,20.996,-365.723,406.738,0.000
1737558225.419,0.000,5.859,-357.910,445.801,0.000
1737558225.423,0.000,3.906,-351.074,387.207,0.000
1737558225.427,0.000,24.414,-343.262,305.176,0.000
1737558225.431,0.000,35.156,-329.102,308.594,0.000
1737558225.435,0.000,15.625,-320.312,339.844,0.000
1737558225.439,0.000,-3.418,-318.848,372.070,0.000
1737558225.443,0.000,-4.395,-312.988,330.566,0.000
1737558225.447,0.000,-3.418,-299.805,219.727,0.000
1737558225.450,0.000,3.418,-285.156,209.961,0.000
1737558225.454,0.000,2.441,-283.691,270.508,0.000
1737558225.458,270.508,-11.230,-277.344,315.430,0.000
1737558225.462,365.234,-13.672,-264.648,281.250,0.000
1737558225.466,658.691,3.906,-255.371,183.594,0.000
1737558225.470,746.094,16.602,-245.117,161.133,0.000
1737558225.474,447.754,9.277,-241.699,190.430,0.000
1737558225.478,194.824,2.930,-234.375,256.836,0.000
1737558225.482,210.449,3.906,-223.633,243.652,0.000
1737558225.486,431.641,5.859,-213.867,126.953,0.000
1737558225.489,541.504,9.277,-203.613,86.914,0.000
1737558225.493,296.387,11.230,-197.754,133.301,0.000
1737558225.497,17.090,1.465,-192.383,197.754,0.000
1737558225.501,16.602,-6.348,-184.082,188.965,0.000
1737558225.505,271.973,-1.465,-176.270,101.562,0.000
1737558225.509,442.383,2.930,-168.945,56.641,0.000
1737558225.513,266.602,1.465,-164.551,97.656,0.000
1737558225.517,-28.320,-6.836,-162.598,162.109,0.000
1737558225.521,-53.223,-13.184,-159.180,163.086,0.000
1737558225.525,216.797,-3.906,-149.902,86.426,0.000
1737558225.529,400.391,5.371,-139.160,40.527,0.000
1737558225.532,245.605,1.953,-134.766,67.383,0.000
1737558225.536,-63.965,-7.812,-132.812,117.676,0.000
1737558225.540,-147.949,-15.137,-132.324,120.605,0.000
1737558225.544,62.988,-10.254,-129.883,61.035,0.000
1737558225.548,248.047,0.000,-120.117,6.836,0.000
1737558225.552,93.750,6.836,-117.188,4.395,0.000
1737558225.556,-267.578,0.488,-122.559,56.152,0.000
1737558225.560,-386.230,-5.859,-123.047,97.656,0.000
1737558225.564,-209.473,2.930,-118.652,32.715,0.000
1737558225.568,-19.531,14.160,-113.770,-37.598,0.000
1737558225.571,-107.910,13.672,-118.164,-0.977,0.000
1737558225.575,-458.496,-0.977,-131.348,56.641,0.000
1737558225.579,-638.184,-15.625,-134.277,90.332,0.000
1737558225.583,-500.488,-10.254,-125.977,51.270,0.000
1737558225.587,-256.348,3.906,-115.723,-23.438,0.000
1737558225.591,-257.812,10.254,-112.793,-13.184,0.000
1737558225.595,-563.477,1.953,-116.211,48.340,0.000
1737558225.599,-691.895,-10.742,-119.629,107.910,0.000
1737558225.603,-501.465,-1.953,-117.188,65.918,0.000
1737558225.607,-187.988,13.184,-111.328,-6.348,0.000
1737558225.611,-93.262,12.207,-115.234,10.742,0.000
1737558225.614,-395.020,-0.488,-119.629,57.129,0.000
1737558225.618,-577.637,1.465,-116.211,113.770,0.000
1737558225.622,-447.266,4.883,-118.164,70.312,0.000
1737558225.626,-184.570,1.953,-110.352,-30.762,0.000
1737558225.630,-95.215,3.906,-101.562,-29.785,0.000
1737558225.634,-356.445,3.906,-106.445,46.875,0.000
1737558225.638,-582.520,-3.906,-107.910,105.469,0.000
1737558225.642,-532.227,-8.301,-103.516,71.777,0.000
1737558225.646,-266.602,0.977,-105.957,-17.578,0.000
1737558225.650,-112.793,11.230,-104.980,-44.434,0.000
1737558225.654,-348.633,2.441,-104.980,-8.301,0.000
1737558225.657,-582.031,-10.254,-109.863,67.871,0.000
1737558225.661,-469.238,-4.883,-105.469,88.379,0.000
1737558225.665,-156.738,2.441,-104.004,6.348,0.000
1737558225.669,24.902,5.371,-103.027,-29.785,0.000
1737558225.673,-146.973,-0.977,-101.074,7.324,0.000
1737558225.677,-381.836,-16.602,-107.910,65.430,0.000
1737558225.681,-321.289,-22.461,-110.840,76.660,0.000
1737558225.685,-17.578,-13.184,-104.980,-0.488,0.000
1737558225.689,217.285,-2.441,-104.004,-29.297,0.000
1737558225.693,95.215,-3.906,-103.027,9.277,0.000
1737558225.696,-148.926,-8.789,-101.074,69.336,0.000
1737558225.700,-132.812,-14.160,-98.633,87.891,0.000
1737558225.704,134.766,-9.277,-94.238,1.953,0.000
1737558225.708,361.816,-2.441,-92.285,-55.664,0.000
1737558225.712,264.648,-7.324,-89.844,-25.879,0.000
1737558225.716,-26.367,-12.207,-86.426,26.855,0.000
1737558225.720,-81.543,-19.531,-87.402,49.805,0.000
1737558225.724,186.523,-13.672,-83.984,4.883,0.000
1737558225.728,430.664,-1.465,-80.078,-50.781,0.000
1737558225.732,312.012,-4.883,-81.543,-57.129,0.000
1737558225.736,-16.602,-23.438,-80.078,-3.418,0.000
1737558225.739,-109.375,-35.156,-82.520,33.691,0.000
1737558225.743,112.793,-20.996,-87.402,-21.973,0.000
1737558225.747,368.164,-5.859,-81.055,-75.684,0.000
1737558225.751,319.824,-10.254,-77.148,-62.500,0.000
1737558225.755,-6.836,-28.320,-81.055,-22.461,0.000
1737558225.759,-114.746,-33.203,-79.590,33.203,0.000
1737558225.763,74.219,-26.855,-75.195,-6.348,0.000
1737558225.767,332.520,-20.508,-73.242,-89.844,0.000
1737558225.771,375.488,-13.672,-66.895,-76.660,0.000
1737558225.775,46.387,-25.391,-66.895,-36.133,0.000
1737558225.779,-123.047,-36.621,-75.195,6.348,0.000
1737558225.782,50.781,-25.391,-72.266,-6.348,0.000
1737558225.786,306.641,-12.207,-65.918,-74.219,0.000
1737558225.790,320.312,-12.695,-65.918,-88.379,0.000
1737558225.794,-5.371,-20.020,-62.988,-29.297,0.000
1737558225.798,-215.332,-24.414,-61.523,40.527,0.000
1737558225.802,-133.789,-22.461,-60.059,8.301,0.000
1737558225.806,102.539,-10.254,-53.711,-69.824,0.000
1737558225.810,163.086,-1.953,-55.664,-83.984,0.000
1737558225.814,-130.859,-10.254,-54.688,-46.875,0.000
1737558225.818,-359.375,-18.066,-53.711,26.855,0.000
1737558225.821,-312.988,-21.484,-54.199,16.113,0.000
1737558225.825,-73.242,-9.277,-50.781,-72.754,0.000
1737558225.829,62.012,2.441,-51.270,-96.680,0.000
1737558225.833,0.000,-9.766,-52.734,0.000,0.000
1737558225.837,0.000,-20.020,-56.641,0.000,0.000
1737558225.841,0.000,-20.996,-58.105,0.000,0.000
1737558225.845,0.000,-13.672,-55.176,0.000,0.000
1737558225.849,0.000,-1.953,-51.270,0.000,0.000
1737558225.853,0.000,-1.953,-55.176,0.000,0.000
1737558225.857,0.000,-15.625,-54.199,0.000,0.000
1737558225.861,0.000,-24.902,-50.781,0.000,0.000
1737558225.864,0.000,-20.996,-58.594,0.000,0.000
1737558225.868,0.000,-9.766,-56.152,0.000,0.000
1737558225.872,0.000,-9.277,-56.152,0.000,0.000
1737558225.876,0.000,-18.555,-57.129,0.000,0.000
1737558225.880,-522.461,-23.926,-50.781,11.719,0.000
1737558225.884,-277.832,-19.531,-52.246,-53.711,0.000
1737558225.888,-54.688,-7.324,-47.852,-118.164,0.000
1737558225.892,-165.039,-5.371,-38.574,-80.566,0.000
1737558225.896,-476.074,-11.719,-43.945,-16.113,0.000
1737558225.900,-527.832,-14.160,-48.340,5.859,0.000
1737558225.904,-283.203,-8.301,-47.363,-53.711,0.000
1737558225.907,-38.574,-8.789,-46.875,-106.445,0.000
1737558225.911,-85.449,-12.207,-43.945,-91.309,0.000
1737558225.915,-364.746,-15.137,-44.434,-44.434,0.000
1737558225.919,-444.824,-20.508,-46.387,-2.930,0.000
1737558225.923,-236.328,-13.672,-43.457,-41.504,0.000
1737558225.927,39.062,-5.859,-34.668,-99.121,0.000
1737558225.931,35.645,-15.137,-34.180,-94.727,0.000
1737558225.935,-262.207,-30.273,-43.945,-60.547,0.000
1737558225.939,-344.238,-37.109,-47.852,-6.836,0.000
1737558225.943,-130.371,-32.227,-47.852,-41.016,0.000
1737558225.946,153.809,-13.184,-42.969,-114.746,0.000
1737558225.950,237.305,-5.859,-40.039,-96.191,0.000
1737558225.954,-51.758,-20.020,-46.875,-47.363,0.000
1737558225.958,-253.418,-28.320,-44.434,-6.836,0.000
1737558225.962,-127.930,-21.973,-41.504,-54.688,0.000
1737558225.966,137.207,-14.160,-37.598,-138.672,0.000
1737558225.970,230.957,-7.812,-31.250,-127.441,0.000
1737558225.974,-17.090,-10.742,-36.621,-74.707,0.000
1737558225.978,-188.477,-18.066,-38.086,-0.977,0.000
1737558225.982,-75.684,-14.160,-38.574,-5.371,0.000
1737558225.986,193.359,-5.371,-37.598,-89.355,0.000
1737558225.989,312.500,0.488,-31.738,-104.004,0.000
1737558225.993,83.984,-0.488,-31.738,-45.898,0.000
1737558225.997,-146.973,-11.230,-32.715,27.344,0.000
1737558226.001,-94.238,-12.695,-37.109,12.695,0.000
1737558226.005,153.809,-6.836,-36.621,-81.543,0.000
1737558226.009,279.785,-1.465,-31.738,-111.328,0.000
1737558226.013,63.477,-1.953,-30.762,-70.312,0.000
1737558226.017,-199.707,-13.672,-25.391,-14.648,0.000
1737558226.021,-175.293,-19.043,-24.902,-11.719,0.000
1737558226.025,87.402,-15.137,-26.367,-80.078,0.000
1737558226.029,268.066,-5.371,-28.320,-90.820,0.000
1737558226.032,56.641,-9.766,-31.738,-65.430,0.000
1737558226.036,-260.254,-24.902,-32.715,-34.180,0.000
1737558226.040,-273.438,-22.461,-27.832,0.000,0.000
1737558226.044,-49.805,-13.184,-22.461,-64.941,0.000
1737558226.048,123.535,-7.812,-21.484,-125.977,0.000
1737558226.052,-17.578,-4.395,-24.414,-99.609,0.000
1737558226.056,-313.965,-16.602,-30.762,-40.039,0.000
1737558226.060,-363.770,-26.367,-31.250,-1.953,0.000
1737558226.064,-152.832,-20.996,-25.391,-62.500,0.000
1737558226.068,84.961,-4.395,-18.555,-99.609,0.000
1737558226.071,17.578,-1.465,-20.508,-73.730,0.000
1737558226.075,-291.504,-10.742,-24.414,-24.414,0.000
1737558226.079,-386.719,-12.695,-24.902,13.672,0.000
1737558226.083,-163.574,-6.836,-24.414,-32.227,0.000
1737558226.087,101.074,5.859,-23.926,-79.102,0.000
1737558226.091,53.223,6.348,-19.531,-64.453,0.000
1737558226.095,-285.645,-9.277,-23.926,-25.879,0.000
1737558226.099,-413.574,-18.555,-27.344,9.277,0.000
1737558226.103,-226.074,-17.090,-26.367,-33.691,0.000
1737558226.107,22.461,-4.395,-25.391,-99.609,0.000
1737558226.111,21.973,6.836,-24.414,-88.379,0.000
1737558226.114,-284.180,-1.953,-28.320,-36.133,0.000
1737558226.118,-434.082,-11.230,-27.832,19.043,0.000
1737558226.122,-273.926,-6.348,-24.414,-23.926,0.000
1737558226.126,18.555,3.906,-19.043,-85.449,0.000
1737558226.130,91.309,7.812,-20.996,-60.547,0.000
1737558226.134,-188.477,-0.488,-23.926,-19.531,0.000
1737558226.138,-395.996,-16.113,-24.414,9.277,0.000
1737558226.142,-285.156,-23.438,-29.297,-36.133,0.000
1737558226.146,17.090,-12.695,-24.902,-94.727,0.000
1737558226.150,138.672,-2.930,-20.508,-91.309,0.000
1737558226.154,-126.465,-5.859,-25.879,-59.570,0.000
1737558226.157,-359.863,-20.020,-27.832,-2.441,0.000
1737558226.161,-232.422,-17.090,-25.391,2.930,0.000
1737558226.165,58.105,-1.953,-21.484,-77.148,0.000
1737558226.169,181.641,4.395,-14.648,-95.215,0.000
1737558226.173,-28.320,0.000,-16.113,-49.316,0.000
1737558226.177,-261.230,-9.766,-20.996,14.160,0.000
1737558226.181,-204.590,-13.184,-20.508,21.973,0.000
1737558226.185,62.012,-4.395,-18.066,-52.734,0.000
1737558226.189,209.961,-3.418,-17.090,-88.867,0.000
1737558226.193,17.090,-11.719,-19.043,-56.641,0.000
1737558226.196,-256.348,-24.902,-31.738,-8.789,0.000
1737558226.200,-245.117,-26.855,-33.203,-6.836,0.000
1737558226.204,39.551,-11.719,-30.273,-64.941,0.000
1737558226.208,244.629,-1.465,-27.832,-100.586,0.000
1737558226.212,94.727,-4.883,-22.461,-60.547,0.000
1737558226.216,-192.871,-18.066,-23.926,-3.418,0.000
1737558226.220,-205.566,-20.020,-26.855,14.648,0.000
1737558226.224,76.660,-8.301,-26.855,-32.715,0.000
1737558226.228,288.574,6.348,-20.996,-75.195,0.000
1737558226.232,151.367,4.395,-18.066,-66.406,0.000
1737558226.236,-144.043,-10.254,-24.414,-20.996,0.000
1737558226.239,-185.547,-15.137,-25.391,26.367,0.000
1737558226.243,45.898,-8.301,-20.508,-36.621,0.000
1737558226.247,279.785,0.000,-22.461,-102.539,0.000
1737558226.251,215.820,-4.395,-23.926,-69.824,0.000
1737558226.255,-109.375,-13.672,-29.785,-19.043,0.000
1737558226.259,-215.820,-15.137,-29.785,15.625,0.000
1737558226.263,-1.465,-5.859,-26.367,-30.762,0.000
1737558226.267,244.629,1.953,-28.320,-83.496,0.000
1737558226.271,213.867,2.930,-30.273,-61.523,0.000
1737558226.275,-103.516,0.488,-32.227,-7.324,0.000
1737558226.279,-262.695,-14.160,-31.738,25.391,0.000
1737558226.282,-112.793,-15.137,-35.645,-27.344,0.000
1737558226.286,163.574,-1.465,-35.645,-87.891,0.000
1737558226.290,201.172,-3.906,-31.738,-93.750,0.000
1737558226.294,-120.117,-15.625,-33.691,-58.594,0.000
1737558226.298,-291.504,-20.996,-36.621,3.906,0.000
1737558226.302,-120.605,-19.531,-33.203,-20.020,0.000
1737558226.306,161.621,-7.324,-25.391,-89.355,0.000
1737558226.310,223.145,-3.418,-25.879,-90.332,0.000
1737558226.314,-65.918,-19.043,-34.668,-55.176,0.000
1737558226.318,-250.977,-28.809,-30.273,-4.395,0.000
1737558226.321,-100.098,-17.090,-29.297,-5.371,0.000
1737558226.325,160.645,-10.254,-34.668,-84.961,0.000
1737558226.329,269.531,-12.207,-33.691,-103.027,0.000
1737558226.333,37.109,-12.695,-33.691,-55.176,0.000
1737558226.337,-187.988,-19.043,-31.738,5.371,0.000
1737558226.341,-99.609,-16.113,-30.762,9.766,0.000
1737558226.345,177.734,-1.953,-25.879,-49.316,0.000
1737558226.349,310.547,2.441,-23.926,0.000,0.000
1737558226.353,81.543,-3.418,-27.344,0.000,0.000
1737558226.357,-171.875,-15.137,-30.762,0.000,0.000
1737558226.361,-141.113,-19.043,-28.809,0.000,0.000
1737558226.364,132.324,-7.324,-28.320,0.000,0.000
1737558226.368,312.012,3.418,-27.344,0.000,0.000
1737558226.372,106.445,-0.488,-25.879,0.000,0.000
1737558226.376,-182.129,-18.066,-29.785,0.000,0.000
1737558226.380,-180.664,-20.508,-22.949,0.000,0.000
1737558226.384,90.332,-7.324,-22.461,0.000,0.000
1737558226.388,280.762,2.441,-26.855,0.000,0.000
1737558226.392,111.816,-3.906,-28.320,0.000,0.000
1737558226.396,-165.039,-12.695,-31.250,-3.906,0.000
1737558226.400,-199.219,-16.113,-36.133,24.902,0.000
1737558226.404,8.301,-13.672,-34.180,-48.340,0.000
1737558226.407,194.336,-4.883,-29.297,-104.004,0.000
1737558226.411,100.098,7.324,-27.344,-73.242,0.000
1737558226.415,-204.590,-2.441,-28.809,-19.531,0.000
1737558226.419,-303.711,-25.879,-32.715,1.465,0.000
1737558226.423,-82.031,-20.020,-32.227,-48.340,0.000
1737558226.427,186.035,-2.441,-20.996,-96.191,0.000
1737558226.431,148.438,0.000,-17.090,-84.961,0.000
1737558226.435,-172.852,-8.301,-23.438,-38.086,0.000
1737558226.439,-298.340,-18.555,-23.926,9.766,0.000
1737558226.443,-109.863,-15.137,-18.066,-35.156,0.000
1737558226.446,135.742,0.000,-13.672,-107.422,0.000
1737558226.450,119.629,-0.488,-21.973,-102.539,0.000
1737558226.454,-183.105,-16.602,-31.250,-50.293,0.000
1737558226.458,-328.613,-23.438,-33.691,-3.418,0.000
1737558226.462,-160.156,-10.742,-28.809,-22.461,0.000
1737558226.466,125.488,7.812,-23.438,-71.289,0.000
1737558226.470,138.184,9.766,-23.926,-86.426,0.000
1737558226.474,-179.688,-9.277,-25.391,-59.082,0.000
1737558226.478,-352.051,-22.949,-33.203,-18.066,0.000
1737558226.482,-232.422,-20.020,-35.156,-49.805,0.000
1737558226.486,41.016,-6.836,-27.832,-109.375,0.000
1737558226.489,139.160,0.488,-25.879,-112.793,0.000
1737558226.493,-141.113,-8.301,-27.344,-85.938,0.000
1737558226.497,-351.074,-19.043,-30.273,-27.344,0.000
1737558226.501,-221.680,-19.043,-31.738,-28.809,0.000
1737558226.505,73.730,-5.859,-23.438,-87.402,0.000
1737558226.509,190.918,5.859,-18.066,-90.332,0.000
1737558226.513,-71.777,-4.883,-22.949,-66.895,0.000
1737558226.517,-314.453,-20.508,-26.367,-16.113,0.000
1737558226.521,-233.398,-18.555,-22.949,-6.348,0.000
1737558226.525,61.523,-1.953,-20.996,-68.848,0.000
1737558226.529,208.008,0.488,-23.926,-103.027,0.000
1737558226.532,0.000,-9.277,-22.949,-71.289,0.000
1737558226.536,-254.883,-17.578,-21.973,-7.324,0.000
1737558226.540,-242.676,-20.020,-19.531,-5.371,0.000
1737558226.544,22.949,-7.812,-19.531,-86.426,0.000
1737558226.548,217.285,2.930,-19.043,-111.328,0.000
1737558226.552,64.453,4.395,-13.184,-60.059,0.000
1737558226.556,-214.844,-4.395,-14.160,4.395,0.000
1737558226.560,-258.789,-14.648,-16.113,4.883,0.000
1737558226.564,-10.254,-11.719,-16.602,-55.664,0.000
1737558226.568,197.754,-3.906,-21.484,-94.238,0.000
1737558226.571,47.363,-4.395,-24.414,-92.285,0.000
1737558226.575,-231.934,-9.766,-27.832,-22.461,0.000
1737558226.579,-281.738,-14.648,-32.227,6.836,0.000
1737558226.583,-49.805,-10.254,-29.297,-57.617,0.000
1737558226.587,202.637,-0.977,-27.344,-99.609,0.000
1737558226.591,139.160,0.977,-21.484,-67.383,0.000
1737558226.595,-179.199,-7.812,-16.602,-2.930,0.000
1737558226.599,-284.180,-19.043,-22.949,14.160,0.000
1737558226.603,-61.035,-11.230,-21.973,-39.551,0.000
1737558226.607,173.340,1.465,-16.113,-96.191,0.000
1737558226.611,125.977,-0.977,-15.625,-89.355,0.000
1737558226.614,-192.383,-16.113,-16.602,-45.898,0.000
1737558226.618,-316.895,-25.391,-20.020,-7.324,0.000
1737558226.622,-120.605,-16.113,-18.066,-37.598,0.000
1737558226.626,112.793,-8.301,-16.602,-104.980,0.000
1737558226.630,123.535,-5.371,-17.578,-87.891,0.000
1737558226.634,-156.250,-12.695,-19.043,-33.203,0.000
1737558226.638,-294.922,-23.438,-20.996,7.324,0.000
1737558226.642,-120.117,-18.555,-21.973,-19.043,0.000
1737558226.646,152.344,-7.324,-18.066,-82.031,0.000
1737558226.650,216.309,0.488,-13.184,-85.449,0.000
1737558226.654,-70.801,-8.301,-18.066,-60.059,0.000
1737558226.657,-269.531,-26.367,-28.320,-29.785,0.000
1737558226.661,-140.625,-23.438,-25.391,-35.156,0.000
1737558226.665,131.836,-6.348,-16.113,-87.402,0.000
1737558226.669,221.191,3.418,-16.113,-98.145,0.000
1737558226.673,-45.410,-3.906,-17.090,-56.641,0.000
1737558226.677,-278.320,-19.043,-24.902,1.953,0.000
1737558226.681,-207.520,-19.531,-29.297,-11.230,0.000
1737558226.685,62.500,-10.254,-21.973,-86.914,0.000
1737558226.689,201.172,-4.883,-19.531,-103.516,0.000
1737558226.693,-19.531,-7.324,-22.461,-65.918,0.000
1737558226.696,-266.113,-11.719,-20.020,-9.277,0.000
1737558226.700,-206.543,-9.766,-19.531,-3.906,0.000
1737558226.704,55.176,-8.789,-28.809,-83.984,0.000
1737558226.708,215.332,-4.395,-28.809,-107.422,0.000
1737558226.712,38.086,-5.859,-24.902,-52.246,0.000
1737558226.716,-230.469,-18.555,-24.414,0.977,0.000
1737558226.720,-212.891,-17.090,-23.438,12.207,0.000
1737558226.724,22.461,-10.742,-24.414,-59.570,0.000
1737558226.728,184.570,-4.883,-21.484,-105.469,0.000
1737558226.732,33.203,-7.324,-23.926,-77.148,0.000
1737558226.736,-272.461,-20.508,-26.855,-38.574,0.000
1737558226.739,-322.754,-24.902,-25.879,-19.531,0.000
1737558226.743,-62.988,-15.137,-25.391,-63.477,0.000
1737558226.747,139.648,-4.395,-19.531,-109.375,0.000
1737558226.751,15.137,-7.324,-20.996,-92.773,0.000
1737558226.755,-255.859,-14.160,-25.391,-23.438,0.000
1737558226.759,-309.570,-19.531,-24.414,13.672,0.000
1737558226.763,-86.914,-19.043,-27.344,-60.059,0.000
1737558226.767,160.156,-7.812,-23.926,-121.094,0.000
1737558226.771,115.723,-5.859,-20.996,-83.496,0.000
1737558226.775,-165.039,-12.695,-27.344,-31.250,0.000
1737558226.778,-251.953,-21.973,-26.367,-3.906,0.000
1737558226.782,-55.664,-20.996,-21.484,-35.645,0.000
1737558226.786,219.238,-2.441,-14.648,-75.195,0.000
1737558226.790,212.402,3.906,-12.695,-65.430,0.000
1737558226.794,-104.492,-11.719,-19.531,-40.039,0.000
1737558226.798,-221.680,-21.484,-22.949,-11.719,0.000
1737558226.802,-33.203,-22.461,-27.344,-57.617,0.000
1737558226.806,250.488,-14.648,-24.414,-116.211,0.000
1737558226.810,322.266,-4.395,-23.926,-84.961,0.000
1737558226.814,44.922,-4.395,-23.438,-38.086,0.000
1737558226.818,-131.348,-13.184,-22.461,17.090,0.000
1737558226.821,-3.906,-19.531,-24.414,-9.277,0.000
1737558226.825,247.070,-6.836,-21.484,-84.473,0.000
1737558226.829,300.293,7.324,-17.090,-78.125,0.000
1737558226.833,9.277,-3.906,-21.484,-41.504,0.000
1737558226.837,-184.570,-11.719,-25.391,20.508,0.000
1737558226.841,-94.727,-12.207,-24.414,-3.906,0.000
1737558226.845,146.484,-9.766,-25.879,-91.309,0.000
1737558226.849,252.441,-3.906,-21.973,-95.703,0.000
1737558226.853,18.555,-6.348,-18.066,-52.734,0.000
1737558226.857,-234.375,-22.461,-23.926,-11.719,0.000
1737558226.861,-188.477,-25.391,-22.461,-24.414,0.000
1737558226.864,96.191,-10.742,-20.508,-90.820,0.000
1737558226.868,245.605,-2.441,-20.996,-97.656,0.000
1737558226.872,13.672,-8.301,-21.973,-63.965,0.000
1737558226.876,-244.629,-20.508,-28.320,-17.578,0.000
1737558226.880,-195.801,-19.531,-25.391,-10.254,0.000
1737558226.884,81.055,-9.766,-19.531,-77.148,0.000
1737558226.888,271.973,0.977,-17.578,-92.773,0.000
1737558226.892,103.516,-4.395,-19.531,-62.988,0.000
1737558226.896,-152.832,-21.973,-23.926,-14.160,0.000
1737558226.900,-130.859,-22.949,-26.855,11.719,0.000
1737558226.903,102.539,-17.090,-24.414,-72.754,0.000
1737558226.907,303.223,-13.184,-20.508,-118.652,0.000
1737558226.911,186.523,-16.602,0.000,-70.312,0.000
1737558226.915,-125.000,-24.902,0.000,-22.461,0.000
1737558226.919,-174.316,-27.344,0.000,7.812,0.000
1737558226.923,42.480,-20.508,0.000,-57.617,0.000
1737558226.927,249.512,-4.395,0.000,-111.816,0.000
1737558226.931,155.762,0.977,0.000,-72.754,0.000
1737558226.935,-199.707,-20.508,0.000,-23.438,0.000
1737558226.939,-314.453,-37.598,0.000,-2.930,0.000
1737558226.943,-95.703,-27.832,0.000,-47.363,0.000
1737558226.946,139.160,-11.719,0.000,-83.984,0.000
1737558226.950,85.938,-8.301,0.000,-71.289,0.000
1737558226.954,-220.703,-21.484,0.000,-21.973,0.000
1737558226.958,-320.312,-29.785,-21.484,29.785,0.000
1737558226.962,-142.090,-27.344,-24.902,-24.902,0.000
1737558226.966,114.258,-12.695,-18.555,-87.402,0.000
1737558226.970,149.414,-6.348,-13.184,-66.895,0.000
1737558226.974,-145.020,-20.508,-17.578,-26.367,0.000
1737558226.978,-288.574,-24.902,-19.043,20.996,0.000
1737558226.982,-115.723,-20.508,-22.461,-15.137,0.000
1737558226.986,145.508,-12.207,-22.461,-77.148,0.000
1737558226.989,189.941,-9.766,-21.973,-67.383,0.000
1737558226.993,-89.355,-13.672,-20.996,-41.016,0.000
1737558226.997,-256.836,-18.066,-16.602,16.602,0.000
1737558227.001,-132.324,-20.996,-12.695,16.113,0.000
1737558227.005,125.000,-13.184,-16.113,-65.918,0.000
1737558227.009,211.426,-6.836,-17.578,-87.891,0.000
1737558227.013,-51.270,-17.090,-19.531,-45.410,0.000
1737558227.017,-272.949,-23.926,-22.461,6.836,0.000
1737558227.021,-196.289,-24.414,-20.508,-9.277,0.000
1737558227.025,88.867,-9.766,-18.555,-59.082,0.000
1737558227.028,220.215,6.348,-15.625,-54.688,0.000
1737558227.032,-42.480,-2.441,-19.531,-35.156,0.000
1737558227.036,-303.223,-15.625,-24.902,9.277,0.000
1737558227.040,-255.859,-23.926,-27.344,13.184,0.000
1737558227.044,18.066,-18.555,-25.391,-63.965,0.000
1737558227.048,173.828,-10.254,-20.996,-90.820,0.000
1737558227.052,-41.016,-13.184,-22.949,-52.734,0.000
1737558227.056,-308.594,-20.020,-29.297,-5.371,0.000
1737558227.060,-289.062,-21.484,-34.668,-2.441,0.000
1737558227.064,-54.199,-15.625,-30.273,-75.195,0.000
1737558227.068,94.238,-4.395,-25.879,-116.699,0.000
1737558227.071,-75.195,-1.465,-25.391,-88.379,0.000
1737558227.075,-361.328,-18.066,-24.902,-33.691,0.000
1737558227.079,-393.555,-32.227,-31.250,-26.855,0.000
1737558227.083,-134.766,-22.461,-31.250,-101.074,0.000
1737558227.087,91.797,-9.277,-27.832,-143.066,0.000
1737558227.091,-19.531,-13.184,-26.855,-102.539,0.000
1737558227.095,-309.570,-27.832,-25.879,-43.457,0.000
1737558227.099,0.000,-26.367,0.000,-10.742,0.000
1737558227.103,0.000,-16.602,0.000,-68.359,0.000
1737558227.107,0.000,-5.371,0.000,-111.816,0.000
1737558227.111,0.000,-1.953,0.000,-66.895,0.000
1737558227.114,0.000,-12.207,0.000,-17.090,0.000
1737558227.118,0.000,-12.207,0.000,16.113,0.000
1737558227.122,0.000,-9.766,0.000,-32.227,0.000
1737558227.126,0.000,-9.277,0.000,-106.445,0.000
1737558227.130,0.000,-10.742,0.000,-92.773,0.000
1737558227.134,0.000,-22.461,0.000,-52.246,0.000
1737558227.138,0.000,-31.738,0.000,-15.625,0.000
1737558227.142,0.000,-28.320,0.000,-52.246,0.000
1737558227.146,163.574,-13.672,-23.438,-125.000,0.000
1737558227.150,197.754,-11.230,-19.043,-111.328,0.000
1737558227.153,-85.449,-18.555,-19.043,-63.477,0.000
1737558227.157,-235.352,-26.367,-20.020,-16.113,0.000
1737558227.161,-81.543,-32.715,-22.949,-48.828,0.000
1737558227.165,222.656,-15.625,-18.066,-108.398,0.000
1737558227.169,300.293,-7.812,-17.578,-93.750,0.000
1737558227.173,3.418,-21.973,-24.414,-63.477,0.000
1737558227.177,-166.016,-29.785,-28.320,-19.531,0.000
1737558227.181,-40.527,-26.855,-27.344,-32.227,0.000
1737558227.185,192.871,-20.996,-20.508,-101.074,0.000
1737558227.189,273.438,-14.160,-18.555,-113.281,0.000
1737558227.193,0.000,-15.137,-20.020,-71.777,0.000
1737558227.196,0.000,-27.344,-21.484,-9.277,0.000
1737558227.200,0.000,-30.762,-23.438,-28.809,0.000
1737558227.204,0.000,-20.508,-22.461,-94.727,0.000
1737558227.208,0.000,-8.789,-19.043,-90.820,0.000
1737558227.212,0.000,-14.160,-20.508,-53.223,0.000
1737558227.216,0.000,-22.949,-19.531,-15.625,0.000
1737558227.220,0.000,-25.879,-19.531,-41.016,0.000
1737558227.224,0.000,-16.602,-23.438,-121.094,0.000
1737558227.228,0.000,-7.812,-24.902,-144.043,0.000
1737558227.232,0.000,-9.766,-28.809,-111.328,0.000
1737558227.236,0.000,-21.484,-32.227,-71.289,0.000
1737558227.239,-455.566,-24.902,0.000,-75.684,0.000
1737558227.243,-210.938,-17.090,0.000,-139.160,0.000
1737558227.247,8.301,-11.719,0.000,-160.156,0.000
1737558227.251,-120.117,-15.137,0.000,-125.000,0.000
1737558227.255,-409.668,-26.367,0.000,-79.102,0.000
1737558227.259,-414.062,-22.949,0.000,-36.133,0.000
1737558227.263,-168.945,-16.113,0.000,-85.449,0.000
1737558227.267,34.668,-12.207,0.000,-134.766,0.000
1737558227.271,-32.227,-16.602,0.000,-87.402,0.000
1737558227.275,-307.617,-28.320,0.000,-33.203,0.000
1737558227.278,-373.047,-33.203,0.000,-11.230,0.000
1737558227.282,-142.578,-27.344,0.000,-52.734,0.000
1737558227.286,80.566,-14.648,-22.461,-100.586,0.000
1737558227.290,29.297,-8.789,-22.461,-79.102,0.000
1737558227.294,-252.930,-14.160,-25.879,-33.203,0.000
1737558227.298,-355.469,-21.484,-24.902,-2.441,0.000
1737558227.302,-162.109,-16.113,-22.949,-56.152,0.000
1737558227.306,83.496,-2.930,-24.414,-117.188,0.000
1737558227.310,85.938,1.465,-26.367,-85.938,0.000
1737558227.314,-215.820,-12.207,-29.785,-44.922,0.000
1737558227.318,-357.422,-21.973,-29.297,-16.113,0.000
1737558227.321,-197.266,-19.043,-29.785,-44.434,0.000
1737558227.325,74.219,-8.301,-31.250,-102.539,0.000
1737558227.329,131.836,-1.465,-33.691,-101.074,0.000
1737558227.333,0.000,-16.602,-38.086,-74.219,0.000
1737558227.337,0.000,-23.926,-36.133,-24.414,0.000
1737558227.341,0.000,-18.555,-31.250,-38.086,0.000
1737558227.345,0.000,-11.230,-33.691,-113.281,0.000
1737558227.349,0.000,-4.395,-35.645,-97.656,0.000
1737558227.353,0.000,-12.695,-36.621,-46.875,0.000
1737558227.357,0.000,-22.949,-38.086,-3.906,0.000
1737558227.361,0.000,-20.508,-39.062,-10.254,0.000
1737558227.364,0.000,-12.207,-37.109,-81.543,0.000
1737558227.368,0.000,-9.766,-30.762,-109.375,0.000
1737558227.372,0.000,-13.672,-28.320,-55.664,0.000
1737558227.376,0.000,-20.020,-29.785,2.930,0.000
1737558227.380,-120.605,-27.344,-29.297,-2.441,0.000
1737558227.384,166.992,-11.719,-26.367,-45.410,0.000
1737558227.388,320.801,5.859,-24.414,-70.801,0.000
1737558227.392,97.656,-8.789,-26.855,-50.781,0.000
1737558227.396,-159.668,-26.367,-26.367,2.441,0.000
1737558227.400,-125.000,-25.879,-22.949,16.602,0.000
1737558227.403,123.535,-18.555,-20.996,-45.898,0.000
1737558227.407,276.855,-14.648,-24.414,-88.379,0.000
1737558227.411,113.281,-12.695,-27.832,-47.363,0.000
1737558227.415,-152.832,-19.043,-25.879,9.277,0.000
1737558227.419,-166.504,-26.855,-22.461,22.461,0.000
1737558227.423,79.102,-17.090,-24.414,-43.457,0.000
1737558227.427,0.000,-3.906,-25.391,-103.516,0.000
1737558227.431,0.000,-8.301,-25.391,-75.195,0.000
1737558227.435,0.000,-22.949,-23.926,-11.719,0.000
1737558227.439,0.000,-32.227,-26.855,12.695,0.000
1737558227.443,0.000,-24.902,-27.832,-37.598,0.000
1737558227.446,0.000,-5.859,-17.090,-76.172,0.000
1737558227.450,0.000,-8.789,-16.113,-64.453,0.000
1737558227.454,0.000,-28.809,-22.949,-29.785,0.000
1737558227.458,0.000,-28.320,-17.090,16.113,0.000
1737558227.462,0.000,-17.090,-17.090,-15.137,0.000
1737558227.466,0.000,-6.836,-24.414,-83.008,0.000
1737558227.470,0.000,-2.441,-14.648,-71.289,0.000
1737558227.474,274.902,-10.742,0.000,-14.648,0.000
1737558227.478,153.809,-17.578,0.000,41.504,0.000
1737558227.482,-136.230,-17.090,0.000,-18.066,0.000
1737558227.486,-192.871,-6.348,0.000,-91.309,0.000
1737558227.489,28.809,-2.441,0.000,-63.965,0.000
1737558227.493,246.094,-19.043,0.000,-11.230,0.000
1737558227.497,151.367,-27.832,0.000,31.738,0.000
1737558227.501,-168.945,-20.020,0.000,-8.789,0.000
1737558227.505,-233.398,-5.371,0.000,-74.707,0.000
1737558227.509,-13.184,0.488,0.000,-70.312,0.000
1737558227.513,205.078,-15.137,0.000,-34.668,0.000
1737558227.517,160.156,-24.414,0.000,20.508,0.000
1737558227.521,-144.531,-22.949,-11.230,-4.883,0.000
1737558227.525,-259.766,-16.602,-12.207,-83.984,0.000
1737558227.528,-96.680,-7.812,-17.090,-74.707,0.000
1737558227.532,156.738,-16.602,-19.043,-41.992,0.000
1737558227.536,175.293,-27.832,-20.508,1.465,0.000
1737558227.540,-114.258,-21.484,-21.484,7.324,0.000
1737558227.544,-234.375,-9.766,-19.531,-67.871,0.000
1737558227.548,-76.172,-7.324,-18.066,-87.402,0.000
1737558227.552,177.246,-15.137,-19.531,-47.363,0.000
1737558227.556,233.398,-25.391,-21.973,5.859,0.000
1737558227.560,-49.805,-25.879,-25.391,7.324,0.000
1737558227.564,-248.535,-19.531,-20.508,-62.012,0.000
1737558227.568,-145.996,-10.254,0.000,-72.266,0.000
1737558227.571,112.305,-8.301,0.000,-33.203,0.000
1737558227.575,229.004,-18.555,0.000,-2.930,0.000
1737558227.579,-18.066,-21.973,0.000,-0.977,0.000
1737558227.583,-222.656,-13.672,0.000,-44.434,0.000
1737558227.587,-121.094,-3.906,0.000,-78.613,0.000
1737558227.591,133.301,-11.719,0.000,-72.266,0.000
1737558227.595,241.699,-22.461,0.000,-43.457,0.000
1737558227.599,24.414,-21.973,0.000,-34.180,0.000
1737558227.603,-205.566,-17.578,0.000,-79.102,0.000
1737558227.607,-155.762,-11.230,0.000,-111.816,0.000
1737558227.610,99.121,-5.371,0.000,-91.309,0.000
1737558227.614,-228.027,-11.719,-28.320,-45.898,0.000
1737558227.618,-295.898,-23.926,-28.320,-23.926,0.000
1737558227.622,-75.195,-20.020,-25.879,-71.777,0.000
1737558227.626,159.180,-6.348,-26.367,-117.676,0.000
1737558227.630,87.402,-5.371,-23.926,-97.168,0.000
1737558227.634,-201.660,-13.184,-25.879,-47.363,0.000
1737558227.638,-280.273,-21.484,-31.738,-6.836,0.000
1737558227.642,-108.887,-24.414,-32.715,-63.477,0.000
1737558227.646,122.559,-17.578,-30.762,-139.160,0.000
1737558227.650,136.719,-15.137,-28.320,-113.770,0.000
1737558227.653,-174.316,-23.926,-29.297,-65.918,0.000
1737558227.657,-323.730,-33.691,-33.691,-25.391,0.000
1737558227.661,-125.488,-24.902,-24.414,0.000,0.000
1737558227.665,145.996,-11.230,-20.996,0.000,0.000
1737558227.669,164.551,-6.348,-21.973,0.000,0.000
1737558227.673,-118.652,-11.230,-21.484,0.000,0.000
1737558227.677,-248.047,-18.066,-24.902,0.000,0.000
1737558227.681,-104.004,-9.766,-27.344,0.000,0.000
1737558227.685,129.883,-4.883,-27.832,0.000,0.000
1737558227.689,202.637,-2.441,-23.438,0.000,0.000
1737558227.693,-61.523,-9.277,-22.949,0.000,0.000
1737558227.696,-258.301,-24.414,-27.344,0.000,0.000
1737558227.700,-136.719,-21.484,-31.738,0.000,0.000
1737558227.704,115.723,-10.254,-27.344,0.000,0.000
1737558227.708,0.000,-10.254,0.000,-102.051,0.000
1737558227.712,0.000,-12.695,0.000,-61.035,0.000
1737558227.716,0.000,-13.184,0.000,18.066,0.000
1737558227.720,0.000,-20.508,0.000,21.484,0.000
1737558227.724,0.000,-13.184,0.000,-45.898,0.000
1737558227.728,0.000,-2.930,0.000,-70.801,0.000
1737558227.732,0.000,-6.836,0.000,-38.574,0.000
1737558227.735,0.000,-19.531,0.000,24.902,0.000
1737558227.739,0.000,-30.762,0.000,7.324,0.000
1737558227.743,0.000,-24.902,0.000,-83.496,0.000
1737558227.747,0.000,-8.301,0.000,-111.328,0.000
1737558227.751,0.000,-2.441,0.000,-73.242,0.000
1737558227.755,208.008,-16.113,-23.438,-11.230,0.000
1737558227.759,-5.371,-20.996,-26.855,14.160,0.000
1737558227.763,-199.707,-13.672,-23.438,-59.570,0.000
1737558227.767,-133.301,-12.207,-20.996,-120.605,0.000
1737558227.771,139.648,-17.090,-25.391,-91.797,0.000
1737558227.775,295.410,-24.414,-22.949,-29.785,0.000
1737558227.778,80.566,-31.250,-23.926,-16.113,0.000
1737558227.782,-176.758,-22.949,-29.785,-62.012,0.000
1737558227.786,-158.691,-12.695,-35.645,-87.402,0.000
1737558227.790,76.660,-21.973,-32.227,-87.402,0.000
1737558227.794,229.492,-28.320,-31.738,-59.082,0.000
1737558227.798,45.898,-24.902,-27.832,-4.395,0.000
1737558227.802,-243.652,-19.043,-22.461,-39.551,0.000
1737558227.806,-250.977,-13.184,-27.832,-107.910,0.000
1737558227.810,-11.230,-18.066,-30.762,-101.562,0.000
1737558227.814,164.062,-27.344,-33.203,-52.734,0.000
1737558227.817,30.762,-29.297,-38.086,-5.371,0.000
1737558227.821,-226.074,-21.484,-38.086,-43.457,0.000
1737558227.825,-263.672,-11.230,-35.156,-118.164,0.000
1737558227.829,-43.457,-13.184,-33.691,-127.930,0.000
1737558227.833,179.688,-22.949,-31.250,-72.266,0.000
1737558227.837,76.660,-28.320,-33.691,-17.578,0.000
1737558227.841,-235.352,-23.438,-42.480,-48.340,0.000
1737558227.845,-293.945,-13.184,-40.527,-97.656,0.000
1737558227.849,-74.707,-8.789,-28.809,-98.633,0.000
1737558227.853,132.324,-20.996,-29.785,-67.871,0.000
1737558227.857,66.895,-30.762,-34.668,-21.484,0.000
1737558227.860,-252.441,-21.973,-38.086,-51.758,0.000
1737558227.864,-349.609,-5.371,-33.691,-120.605,0.000
1737558227.868,-145.996,1.465,-31.250,-115.234,0.000
1737558227.872,70.312,-11.230,-30.273,-81.543,0.000
1737558227.876,48.828,-19.043,-25.879,-41.504,0.000
1737558227.880,-216.309,-16.113,-28.320,-47.363,0.000
1737558227.884,-339.355,-12.207,-32.715,-116.699,0.000
1737558227.888,-202.148,-0.977,-28.809,-131.348,0.000
1737558227.892,51.270,-1.465,-27.832,-88.379,0.000
1737558227.896,-281.250,-10.742,-14.648,-13.672,0.000
1737558227.900,-208.496,-16.602,-12.207,-4.395,0.000
1737558227.903,2.441,-20.508,-22.461,-100.586,0.000
1737558227.907,139.160,-7.324,-25.391,-127.930,0.000
1737558227.911,-6.836,-2.441,-21.973,-64.453,0.000
1737558227.915,-241.699,-16.602,-21.973,-2.441,0.000
1737558227.919,-222.656,-18.555,-22.461,9.766,0.000
1737558227.923,14.160,-11.719,-18.555,-85.938,0.000
1737558227.927,195.312,-9.277,-19.043,-145.996,0.000
1737558227.931,69.336,-8.301,-28.320,-98.145,0.000
1737558227.935,-156.250,-17.090,-30.762,-28.809,0.000
1737558227.939,-158.691,-23.926,-24.902,-11.230,0.000
1737558227.942,40.039,-14.648,-23.926,-68.359,0.000
1737558227.946,252.441,-1.953,-24.414,-96.680,0.000
1737558227.950,161.621,-2.930,-17.578,-71.289,0.000
1737558227.954,-117.188,-12.207,-18.555,-12.695,0.000
1737558227.958,-160.645,-19.531,-25.391,3.906,0.000
1737558227.962,76.172,-18.555,-23.926,-55.176,0.000
1737558227.966,302.734,-7.324,-21.484,-98.145,0.000
1737558227.970,203.613,-13.672,-24.414,-92.285,0.000
1737558227.974,-100.098,-35.645,-27.344,-42.480,0.000
1737558227.978,-153.320,-29.297,-19.043,38.574,0.000
1737558227.982,46.875,-15.625,-17.578,4.395,0.000
1737558227.985,270.996,-6.836,-20.996,-86.426,0.000
1737558227.989,229.492,-10.742,-27.832,-100.586,0.000
1737558227.993,-61.035,-20.996,-38.574,-46.875,0.000
1737558227.997,-127.441,-24.902,-30.273,28.809,0.000
1737558228.001,15.137,-31.250,-29.785,-0.977,0.000
1737558228.005,226.562,-21.484,-28.320,-71.289,0.000
1737558228.009,254.883,-8.789,-21.484,-72.754,0.000
1737558228.013,-57.617,-20.996,-29.785,-35.156,0.000
1737558228.017,-223.633,-36.133,-35.156,-1.953,0.000
1737558228.021,-75.195,-23.926,-28.809,-34.180,0.000
1737558228.025,205.078,-5.371,-21.484,-69.336,0.000
1737558228.028,258.789,-8.301,-15.137,-48.340,0.000
1737558228.032,-70.801,-17.090,-16.113,-22.949,0.000
1737558228.036,0.000,-20.996,-26.855,20.020,0.000
1737558228.040,0.000,-19.531,-31.250,23.438,0.000
1737558228.044,0.000,-13.672,-30.762,-57.129,0.000
1737558228.048,0.000,-9.766,-28.320,-95.215,0.000
1737558228.052,0.000,-11.719,-32.715,-55.176,0.000
1737558228.056,0.000,-16.113,-30.273,25.879,0.000
1737558228.060,0.000,-26.855,-16.113,12.207,0.000
1737558228.064,0.000,-21.484,-21.484,-79.590,0.000
1737558228.067,0.000,-6.348,-31.738,-98.145,0.000
1737558228.071,0.000,-5.859,-32.227,-68.848,0.000
1737558228.075,0.000,-18.066,-22.949,-18.555,0.000
1737558228.079,0.000,-27.832,-21.973,-21.484,0.000
1737558228.083,-37.598,-7.812,0.000,-74.219,0.000
1737558228.087,114.258,1.465,0.000,-91.309,0.000
1737558228.091,-58.594,-14.160,0.000,-65.918,0.000
1737558228.095,-310.547,-17.578,0.000,0.000,0.000
1737558228.099,-312.988,-16.602,0.000,13.184,0.000
1737558228.103,-58.105,-13.672,0.000,-62.988,0.000
1737558228.107,148.438,-1.465,0.000,-106.445,0.000
1737558228.110,18.066,-11.719,0.000,-83.008,0.000
1737558228.114,-251.465,-29.785,0.000,-29.785,0.000
1737558228.118,-281.250,-28.809,0.000,-4.883,0.000
1737558228.122,-39.551,-17.090,0.000,-49.316,0.000
1737558228.126,173.340,-14.160,0.000,-100.586,0.000
1737558228.130,103.516,-14.648,-21.973,-62.988,0.000
1737558228.134,-168.945,-15.137,-27.832,7.812,0.000
1737558228.138,-255.859,-22.461,-32.227,28.320,0.000
1737558228.142,-70.312,-25.391,-32.715,-56.152,0.000
1737558228.146,192.383,-15.137,-35.156,-109.863,0.000
1737558228.150,166.016,-13.184,-41.504,-82.031,0.000
1737558228.153,-131.348,-24.414,-39.551,-37.598,0.000
1737558228.157,-216.797,-31.250,-31.250,12.207,0.000
1737558228.161,-34.668,-32.227,-27.344,-43.945,0.000
1737558228.165,205.078,-20.996,-32.227,-118.652,0.000
1737558228.169,219.727,-18.066,-30.762,-95.215,0.000
1737558228.173,-41.016,-28.809,-30.762,-38.574,0.000
1737558228.177,0.000,-35.156,-34.668,-0.488,0.000
1737558228.181,0.000,-38.574,-33.203,-24.414,0.000
1737558228.185,0.000,-22.949,-31.738,-61.035,0.000
1737558228.189,0.000,-6.836,-23.438,-66.895,0.000
1737558228.192,0.000,-19.531,-21.484,-48.828,0.000
1737558228.196,0.000,-22.461,-29.785,6.836,0.000
1737558228.200,0.000,-20.020,-33.203,-30.762,0.000
1737558228.204,0.000,-26.367,-34.180,-128.906,0.000
1737558228.208,0.000,-27.832,-36.133,-112.793,0.000
1737558228.212,0.000,-27.832,-36.621,-46.875,0.000
1737558228.216,0.000,-26.855,-36.133,-4.883,0.000
1737558228.220,0.000,-24.414,-37.598,-29.785,0.000
1737558228.224,76.660,-21.484,-34.180,-106.934,0.000
1737558228.228,157.715,-18.555,-33.203,-121.582,0.000
1737558228.232,-94.238,-22.461,-37.109,-95.703,0.000
1737558228.235,-313.965,-32.715,-39.551,-53.223,0.000
1737558228.239,-232.422,-21.484,-35.645,-37.598,0.000
1737558228.243,4.883,-5.371,-31.738,-89.844,0.000
1737558228.247,62.988,-6.836,-32.715,-122.559,0.000
1737558228.251,-189.453,-18.555,-34.668,-110.840,0.000
1737558228.255,-464.355,-31.738,-33.203,-75.684,0.000
1737558228.259,-458.008,-29.785,-29.785,-80.078,0.000
1737558228.263,-174.316,-12.695,-23.438,-107.422,0.000
1737558228.267,34.668,-5.859,-17.090,-110.352,0.000
1737558228.271,-137.695,-6.348,-23.438,-85.938,0.000
1737558228.275,-443.848,-15.625,-33.203,-41.504,0.000
1737558228.278,-459.473,-15.137,-29.297,-24.414,0.000
1737558228.282,-221.191,-9.277,-30.762,-87.402,0.000
1737558228.286,-14.648,-8.301,-34.668,-139.160,0.000
1737558228.290,-100.586,-8.301,-33.691,-100.586,0.000
1737558228.294,-383.789,-7.812,-38.086,-39.551,0.000
1737558228.298,-456.055,-18.066,-33.691,-27.832,0.000
1737558228.302,-232.910,-18.066,-27.832,-77.637,0.000
1737558228.306,-3.418,-3.906,-29.297,-113.770,0.000
1737558228.310,-87.891,-6.348,-25.879,-92.285,0.000
1737558228.314,-402.832,-20.996,-28.809,-61.035,0.000
1737558228.317,-462.402,-27.344,-27.832,-17.578,0.000
1737558228.321,-230.957,-17.090,-25.879,-46.387,0.000
1737558228.325,4.395,-9.277,-23.438,-123.047,0.000
1737558228.329,1.465,-2.441,-16.602,-105.469,0.000
1737558228.333,-273.438,-9.277,-24.414,-52.734,0.000
1737558228.337,-365.234,-19.531,-27.344,-11.230,0.000
1737558228.341,-155.762,-8.301,-24.902,-24.414,0.000
1737558228.345,76.172,-1.465,-26.367,-90.332,0.000
1737558228.349,80.566,-7.812,-29.785,-108.887,0.000
1737558228.353,-204.590,-23.926,-31.738,-87.891,0.000
1737558228.357,-344.238,-26.855,-30.273,-26.855,0.000
1737558228.360,-188.477,-13.672,-30.762,-32.227,0.000
1737558228.364,67.383,-5.859,-26.855,-95.703,0.000
1737558228.368,135.742,-5.371,-18.066,-100.586,0.000
1737558228.372,-130.859,-17.090,-22.461,-76.172,0.000
1737558228.376,-296.387,-30.762,-32.715,-45.410,0.000
1737558228.380,-125.977,-28.809,-27.832,-46.387,0.000
1737558228.384,160.156,-8.301,-20.508,-86.426,0.000
1737558228.388,250.000,-0.488,-20.996,-98.633,0.000
1737558228.392,41.504,-10.742,-21.973,-62.988,0.000
1737558228.396,-149.902,-20.508,-25.879,-8.301,0.000
1737558228.400,-90.332,-24.414,-26.367,-20.020,0.000
1737558228.403,170.898,-15.137,-26.855,-86.914,0.000
1737558228.407,305.664,-5.371,-19.043,-100.098,0.000
1737558228.411,89.355,-5.859,-10.742,-45.410,0.000
1737558228.415,-157.227,-14.160,-18.066,8.789,0.000
1737558228.419,-138.184,-24.902,-29.785,-16.113,0.000
1737558228.423,98.145,-16.602,-26.855,-94.238,0.000
1737558228.427,264.648,-0.488,-17.578,-111.816,0.000
1737558228.431,78.125,-11.230,-20.020,-82.520,0.000
1737558228.435,-199.219,-30.762,-24.902,-41.016,0.000
1737558228.439,-214.355,-37.598,-29.785,-49.805,0.000
1737558228.442,34.668,-28.809,-33.203,-103.027,0.000
1737558228.446,217.773,-19.531,-33.691,-124.023,0.000
1737558228.450,50.293,-15.137,-30.273,-90.820,0.000
1737558228.454,-244.629,-25.879,-28.809,-52.246,0.000
1737558228.458,-266.602,-32.715,0.000,-25.879,0.000
1737558228.462,-39.062,-20.508,0.000,-58.105,0.000
1737558228.466,110.352,-11.230,0.000,-116.211,0.000
1737558228.470,-6.836,-8.789,0.000,-93.262,0.000
1737558228.474,-311.035,-18.555,0.000,-54.199,0.000
1737558228.478,-390.137,-27.344,0.000,-32.715,0.000
1737558228.482,-170.410,-16.602,0.000,-88.379,0.000
1737558228.485,73.730,-7.812,0.000,-140.137,0.000
1737558228.489,26.367,-20.508,0.000,-104.980,0.000
1737558228.493,-279.785,-28.320,0.000,-59.082,0.000
1737558228.497,-374.023,-28.809,0.000,-29.297,0.000
1737558228.501,-202.148,-24.414,0.000,-72.266,0.000
1737558228.505,65.918,-11.230,-32.715,-109.375,0.000
1737558228.509,100.098,-4.883,-24.902,-85.938,0.000
1737558228.513,-193.848,-14.648,-32.227,-50.781,0.000
1737558228.517,-333.984,-24.414,-35.156,-6.836,0.000
1737558228.521,-183.594,-23.438,-33.691,-33.691,0.000
1737558228.525,82.520,-13.184,-31.738,-94.238,0.000
1737558228.528,114.258,-12.695,-37.109,-94.238,0.000
1737558228.532,-167.969,-24.414,-40.527,-64.941,0.000
1737558228.536,-306.152,-35.156,-39.551,-15.625,0.000
1737558228.540,-180.664,-35.156,-39.551,-45.410,0.000
1737558228.544,62.012,-23.926,-38.086,-112.305,0.000
1737558228.548,134.277,-20.020,-36.133,-105.957,0.000
1737558228.552,0.000,-28.809,-42.480,-79.590,0.000
1737558228.556,0.000,-34.180,-47.852,-33.691,0.000
1737558228.560,0.000,-31.250,-45.898,-36.133,0.000
1737558228.564,0.000,-25.879,-39.062,-100.586,0.000
1737558228.567,0.000,-16.602,-32.227,-98.633,0.000
1737558228.571,0.000,-11.230,-31.738,-29.297,0.000
1737558228.575,0.000,-16.602,-32.227,19.531,0.000
1737558228.579,0.000,-26.367,-33.203,-13.184,0.000
1737558228.583,0.000,-23.438,-33.203,-81.543,0.000
1737558228.587,0.000,-14.648,-27.832,-108.887,0.000
1737558228.591,0.000,-18.555,-28.809,-86.426,0.000
1737558228.595,0.000,-28.809,-32.227,-22.461,0.000
1737558228.599,-165.527,-25.391,-26.367,6.348,0.000
1737558228.603,94.238,-19.531,-29.297,-62.988,0.000
1737558228.607,264.160,-11.719,-33.691,-96.680,0.000
1737558228.610,111.816,-14.648,-29.785,-44.922,0.000
1737558228.614,-165.039,-28.809,-30.273,3.906,0.000
1737558228.618,-182.129,-30.273,-34.180,27.832,0.000
1737558228.622,63.477,-26.855,-35.156,-34.180,0.000
1737558228.626,245.117,-19.043,-27.344,-91.309,0.000
1737558228.630,133.789,-19.531,-24.414,-56.152,0.000
1737558228.634,-114.746,-27.832,-27.832,2.930,0.000
1737558228.638,-150.879,-30.273,-31.738,25.391,0.000
1737558228.642,65.918,-26.855,-34.180,-28.809,0.000
1737558228.646,273.926,-20.508,-29.297,-83.984,0.000
1737558228.649,194.824,-22.461,-32.715,-71.777,0.000
1737558228.653,-85.938,-26.367,-33.203,-17.090,0.000
1737558228.657,-151.855,-26.367,-27.832,32.715,0.000
1737558228.661,39.062,-20.020,-26.367,-13.184,0.000
1737558228.665,270.508,-9.277,-23.438,-66.406,0.000
1737558228.669,242.188,-12.207,-19.043,-42.969,0.000
1737558228.673,-55.176,-20.508,-23.926,-3.906,0.000
1737558228.677,-162.109,-25.879,-22.949,31.738,0.000
1737558228.681,-0.488,-25.391,-15.137,-8.301,0.000
1737558228.685,218.262,-16.113,-19.043,-71.289,0.000
1737558228.689,228.516,-10.742,-20.020,-67.383,0.000
1737558228.692,0.000,-18.555,-15.137,0.977,0.000
1737558228.696,0.000,-27.832,-17.090,62.012,0.000
1737558228.700,0.000,-21.484,-18.555,28.809,0.000
1737558228.704,0.000,-10.742,-14.160,-34.668,0.000
1737558228.708,0.000,-11.230,-15.625,-33.691,0.000
1737558228.712,0.000,-12.207,-25.879,7.324,0.000
1737558228.716,0.000,-15.137,-23.438,72.266,0.000
1737558228.720,0.000,-14.160,-16.602,62.500,0.000
1737558228.724,0.000,-4.883,-16.602,-28.320,0.000
1737558228.728,0.000,0.000,-14.648,-57.129,0.000
1737558228.732,0.000,-6.348,-13.184,-19.531,0.000
1737558228.735,0.000,-20.020,-20.508,22.461,0.000
1737558228.739,-140.625,-22.949,0.000,17.090,0.000
1737558228.743,139.648,-8.301,0.000,-36.133,0.000
1737558228.747,249.512,-2.441,0.000,-53.223,0.000
1737558228.751,27.344,-11.230,0.000,-6.348,0.000
1737558228.755,-207.520,-21.484,0.000,34.180,0.000
1737558228.759,-184.570,-18.555,0.000,17.090,0.000
1737558228.763,89.355,-6.348,0.000,-41.016,0.000
1737558228.767,230.469,-10.254,0.000,-75.684,0.000
1737558228.771,13.672,-21.484,0.000,-47.852,0.000
1737558228.774,-262.207,-36.133,0.000,-4.395,0.000
1737558228.778,-265.137,-43.945,0.000,-6.348,0.000
1737558228.782,3.906,-29.297,0.000,-53.223,0.000
1737558228.786,0.000,-14.648,-26.855,-73.730,0.000
1737558228.790,0.000,-16.602,-24.902,-49.316,0.000
1737558228.794,0.000,-30.273,-28.320,-10.742,0.000
1737558228.798,0.000,-34.668,-35.156,-0.977,0.000
1737558228.802,0.000,-28.809,-34.668,-56.152,0.000
1737558228.806,0.000,-13.184,-31.738,-87.402,0.000
1737558228.810,0.000,-15.137,-34.668,-67.383,0.000
1737558228.814,0.000,-36.621,-38.574,-34.180,0.000
1737558228.817,0.000,-38.086,-37.109,-8.789,0.000
1737558228.821,0.000,-28.809,-33.691,-49.805,0.000
1737558228.825,0.000,-16.113,-27.344,-90.820,0.000
1737558228.829,0.000,-10.742,-26.855,-64.941,0.000
1737558228.833,203.613,-17.578,-29.297,-25.879,0.000
1737558228.837,41.016,-23.926,-28.809,-8.789,0.000
1737558228.841,-258.301,-20.508,-27.832,-50.293,0.000
1737558228.845,-300.781,-8.301,-29.785,-92.773,0.000
1737558228.849,-71.777,-3.906,-27.344,-65.918,0.000
1737558228.853,147.461,-14.160,-21.973,-22.949,0.000
1737558228.857,40.527,-27.344,-26.855,7.812,0.000
1737558228.860,-264.160,-24.414,-29.297,-30.762,0.000
1737558228.864,-339.355,-16.113,-25.879,-83.496,0.000
1737558228.868,-131.836,-17.090,-30.273,-87.402,0.000
1737558228.872,117.188,-21.484,-31.738,-56.152,0.000
1737558228.876,89.355,-30.273,-35.645,-10.254,0.000
1737558228.880,-232.910,-33.691,-37.109,-47.363,0.000
1737558228.884,-367.188,-20.020,-25.879,-110.352,0.000
1737558228.888,-157.227,-7.812,-24.902,-100.098,0.000
1737558228.892,103.027,-9.277,-31.250,-57.129,0.000
1737558228.896,106.445,-23.926,-32.227,-17.090,0.000
1737558228.899,-170.410,-22.461,-28.320,-31.738,0.000
1737558228.903,-315.430,-9.766,-25.879,-86.426,0.000
1737558228.907,-152.344,-9.766,-26.855,-114.746,0.000
1737558228.911,117.676,-16.602,-25.879,-82.520,0.000
1737558228.915,123.535,-22.949,-27.344,-26.855,0.000
1737558228.919,-158.203,-21.484,-29.785,-28.320,0.000
1737558228.923,-292.969,-20.996,-28.809,-95.703,0.000
1737558228.927,224.609,-16.602,-26.367,-118.652,0.000
1737558228.931,41.504,-5.859,-24.902,-64.453,0.000
1737558228.935,-228.516,-18.555,-28.809,-20.020,0.000
1737558228.939,-214.844,-29.785,-28.809,-41.504,0.000
1737558228.942,47.852,-19.043,-24.414,-105.957,0.000
1737558228.946,209.961,-6.348,-21.973,-125.000,0.000
1737558228.950,44.434,-2.930,-27.832,-94.238,0.000
1737558228.954,-244.629,-14.648,-30.762,-60.059,0.000
1737558228.958,-287.109,-24.414,-27.832,-44.922,0.000
1737558228.962,-52.246,-10.742,-26.367,-102.539,0.000
1737558228.966,149.902,3.418,-20.996,-126.465,0.000
1737558228.970,22.461,-3.418,-17.578,-97.656,0.000
1737558228.974,-283.203,-16.113,-22.461,-54.199,0.000
1737558228.978,-338.867,-17.090,-26.367,-20.508,0.000
1737558228.982,-120.605,-14.648,-27.832,-83.008,0.000
1737558228.985,86.426,-11.719,-27.344,-125.488,0.000
1737558228.989,9.277,-9.277,-21.973,-83.496,0.000
1737558228.993,-288.086,-13.672,-21.484,-33.691,0.000
1737558228.997,-407.715,-20.996,-27.832,-23.926,0.000
1737558229.001,-249.023,-20.020,-25.879,-88.867,0.000
1737558229.005,-32.715,-11.230,-20.508,-141.113,0.000
1737558229.009,-84.961,-12.695,-21.484,-126.465,0.000
1737558229.013,-388.672,-26.367,-27.344,-86.426,0.000
1737558229.017,-487.305,-33.691,-28.320,-49.316,0.000
1737558229.021,-316.895,-28.320,-23.438,-78.125,0.000
1737558229.024,-97.168,-22.949,-22.461,-134.766,0.000
1737558229.028,-91.797,-15.625,-20.508,-126.953,0.000
1737558229.032,-362.305,-17.090,-21.484,-74.707,0.000
1737558229.036,-500.488,-21.973,-23.438,-26.367,0.000
1737558229.040,-330.566,-17.578,-19.531,-40.039,0.000
1737558229.044,-79.102,-16.602,-17.578,-103.516,0.000
1737558229.048,-38.086,-11.230,-14.648,-115.723,0.000
1737558229.052,-283.691,-18.555,-18.066,-78.125,0.000
1737558229.056,-447.754,-27.344,-21.484,-21.484,0.000
1737558229.060,-352.539,-24.414,-22.949,-42.480,0.000
1737558229.064,-93.750,-18.066,-20.508,-126.465,0.000
1737558229.067,19.043,-13.184,-12.207,-123.047,0.000
1737558229.071,-220.703,-14.648,-12.695,-67.871,0.000
1737558229.075,-439.453,-26.367,-21.973,-27.832,0.000
1737558229.079,-362.305,-29.297,-19.531,-45.898,0.000
1737558229.083,-108.887,-17.578,-20.508,-120.605,0.000
1737558229.087,-23.926,-11.719,-23.438,-163.086,0.000
1737558229.091,-283.203,-24.414,-30.762,-153.809,0.000
1737558229.095,-518.555,-35.645,-35.156,-117.676,0.000
1737558229.099,-440.430,-31.738,-34.180,-120.117,0.000
1737558229.103,-150.879,-22.461,-34.180,-168.457,0.000
1737558229.107,35.645,-13.672,-33.691,-184.570,0.000
1737558229.110,-105.957,-17.578,-32.715,-154.785,0.000
1737558229.114,-333.496,-29.297,-32.715,-104.492,0.000
1737558229.118,-287.598,-33.691,-34.180,-79.102,0.000
1737558229.122,6.348,-25.391,-32.715,-120.117,0.000
1737558229.126,228.516,-16.602,-27.832,-136.230,0.000
1737558229.130,129.883,-16.113,-22.949,-82.031,0.000
1737558229.134,-120.117,-22.461,-26.367,-24.414,0.000
1737558229.138,-132.812,-27.344,-29.297,-7.324,0.000
1737558229.142,113.281,-22.461,-23.926,-66.406,0.000
1737558229.146,333.496,-11.230,-18.066,-108.887,0.000
1737558229.149,247.559,-12.207,-19.531,-70.312,0.000
1737558229.153,-29.785,-18.066,-22.461,-10.254,0.000
1737558229.157,-102.051,-18.066,-25.879,0.000,0.000
1737558229.161,118.652,-14.648,-27.832,-51.758,0.000
1737558229.165,327.148,-14.648,-32.715,-107.910,0.000
1737558229.169,242.676,-19.043,-30.273,-99.121,0.000
1737558229.173,-31.738,-32.715,-29.297,-39.062,0.000
1737558229.177,-115.234,-39.062,-35.156,12.695,0.000
1737558229.181,80.566,-29.785,-32.715,-20.996,0.000
1737558229.185,327.637,-20.020,-27.344,-76.172,0.000
1737558229.189,295.410,-19.043,-28.320,-55.664,0.000
1737558229.192,-2.441,-26.367,-32.227,-17.090,0.000
1737558229.196,-120.117,-28.809,-32.227,36.133,0.000
1737558229.200,39.062,-19.531,-31.250,0.977,0.000
1737558229.204,274.902,-15.137,-30.762,-72.754,0.000
1737558229.208,288.574,-16.113,0.000,0.000,0.000
1737558229.212,-14.648,-23.438,0.000,0.000,0.000
1737558229.216,-185.059,-27.344,0.000,0.000,0.000
1737558229.220,-50.781,-22.461,0.000,0.000,0.000
1737558229.224,204.590,-15.625,0.000,0.000,0.000
1737558229.228,280.273,-3.418,0.000,0.000,0.000
1737558229.232,15.137,-9.277,0.000,0.000,0.000
1737558229.235,-186.523,-23.926,0.000,0.000,0.000
1737558229.239,-104.492,-28.320,0.000,0.000,0.000
1737558229.243,149.414,-17.578,0.000,0.000,0.000
1737558229.247,274.414,-10.254,0.000,0.000,0.000
1737558229.251,27.832,-14.648,0.000,0.000,0.000
1737558229.255,-208.496,-20.996,-18.066,47.852,0.000
1737558229.259,-149.414,-22.461,-20.020,36.133,0.000
1737558229.263,105.469,-16.113,-19.531,-39.551,0.000
1737558229.267,218.750,-7.812,-19.043,-50.781,0.000
1737558229.271,-8.789,-10.254,-22.949,-6.836,0.000
1737558229.274,-250.000,-21.484,-22.461,51.270,0.000
1737558229.278,-218.262,-21.484,-15.625,49.805,0.000
1737558229.282,36.133,-18.555,-13.672,-24.902,0.000
1737558229.286,190.918,-16.113,-17.578,-52.734,0.000
1737558229.290,9.766,-14.160,-17.578,-12.695,0.000
1737558229.294,-239.258,-22.949,-23.438,32.715,0.000
1737558229.298,-227.539,-30.273,-31.250,36.133,0.000
1737558229.302,0.000,-23.926,-29.785,-16.602,0.000
1737558229.306,0.000,-14.160,-24.902,-44.434,0.000
1737558229.310,0.000,-19.531,-27.344,-19.043,0.000
1737558229.314,0.000,-27.344,-33.203,21.484,0.000
1737558229.317,0.000,-26.367,-28.320,31.250,0.000
1737558229.321,0.000,-13.672,-22.461,-13.672,0.000
1737558229.325,0.000,-4.883,-23.438,-50.293,0.000
1737558229.329,0.000,-8.301,-27.832,-23.438,0.000
1737558229.333,0.000,-15.625,-27.344,36.621,0.000
1737558229.337,0.000,-22.949,-24.902,59.570,0.000
1737558229.341,0.000,-23.926,-24.414,-5.859,0.000
1737558229.345,0.000,-11.230,-20.996,-54.199,0.000
1737558229.349,235.352,-6.836,0.000,-21.973,0.000
1737558229.353,-72.754,-21.973,0.000,15.137,0.000
1737558229.356,-190.918,-30.762,0.000,42.480,0.000
1737558229.360,-13.184,-30.273,0.000,8.301,0.000
1737558229.364,235.840,-16.602,0.000,-60.547,0.000
1737558229.368,240.723,-6.348,0.000,-55.176,0.000
1737558229.372,-50.781,-19.043,0.000,0.000,0.000
1737558229.376,-175.781,-28.320,0.000,34.180,0.000
1737558229.380,-16.113,-18.555,0.000,10.254,0.000
1737558229.384,229.980,-13.672,0.000,-26.855,0.000
1737558229.388,286.133,-15.625,0.000,-3.418,0.000
1737558229.392,38.574,-22.461,0.000,31.250,0.000
1737558229.396,-136.719,-31.738,-33.203,58.594,0.000
1737558229.399,-49.316,-31.250,-32.715,36.133,0.000
1737558229.403,179.688,-22.949,-27.832,-33.691,0.000
1737558229.407,260.742,-15.625,-27.832,-31.250,0.000
1737558229.411,0.000,-21.484,-33.691,0.000,0.000
1737558229.415,-220.215,-25.879,-32.715,30.762,0.000
1737558229.419,-125.488,-24.414,-32.715,14.160,0.000
1737558229.423,115.723,-20.020,-30.762,-54.688,0.000
1737558229.427,239.258,-9.766,-27.832,-59.082,0.000
1737558229.431,17.578,-15.137,-31.738,-8.301,0.000
1737558229.435,-248.535,-23.438,-34.668,36.133,0.000
1737558229.439,-216.797,-26.367,-29.785,-7.324,0.000
1737558229.442,0.000,-20.020,0.000,-84.961,0.000
1737558229.446,0.000,-8.789,0.000,-70.801,0.000
1737558229.450,0.000,-17.090,0.000,-20.996,0.000
1737558229.454,0.000,-26.855,0.000,14.160,0.000
1737558229.458,0.000,-21.973,0.000,25.391,0.000
1737558229.462,0.000,-13.672,0.000,-37.598,0.000
1737558229.466,0.000,-10.742,0.000,-79.102,0.000
1737558229.470,0.000,-18.066,0.000,-46.875,0.000
1737558229.474,0.000,-28.809,0.000,3.418,0.000
1737558229.478,0.000,-34.668,0.000,2.441,0.000
1737558229.481,0.000,-27.832,0.000,-61.035,0.000
1737558229.485,0.000,-17.090,0.000,-109.863,0.000
1737558229.489,-1.953,-19.043,-28.809,-72.266,0.000
1737558229.493,-271.973,-29.785,-36.621,-14.648,0.000
1737558229.497,-342.773,-37.109,-42.480,-4.883,0.000
1737558229.501,-140.137,-31.250,-40.527,-66.406,0.000
1737558229.505,108.398,-19.531,-31.250,-98.633,0.000
1737558229.509,56.641,-13.184,-29.785,-56.152,0.000
1737558229.513,-248.047,-21.484,-31.738,-22.461,0.000
1737558229.517,-355.957,-31.738,-31.738,-6.348,0.000
1737558229.521,-177.246,-28.809,-31.738,-47.363,0.000
1737558229.524,60.059,-21.484,-31.250,-100.098,0.000
1737558229.528,43.945,-18.066,-33.691,-87.402,0.000
1737558229.532,-260.254,-22.461,-30.762,-36.133,0.000
1737558229.536,0.000,-22.949,-25.879,-6.348,0.000
1737558229.540,0.000,-21.484,-28.809,-65.430,0.000
1737558229.544,0.000,-16.602,-32.227,-123.047,0.000
1737558229.548,0.000,-12.695,-29.785,-89.844,0.000
1737558229.552,0.000,-19.531,-30.762,-35.645,0.000
1737558229.556,0.000,-21.973,-31.250,-0.977,0.000
1737558229.560,0.000,-23.438,-33.691,-49.805,0.000
1737558229.564,0.000,-19.043,-29.297,-100.098,0.000
1737558229.567,0.000,-16.113,-22.461,-81.055,0.000
1737558229.571,0.000,-19.043,-20.020,-46.875,0.000
1737558229.575,0.000,-27.344,-25.879,0.488,0.000
1737558229.579,0.000,-29.785,-37.109,-26.367,0.000
1737558229.583,101.074,-20.020,-33.691,-108.398,0.000
1737558229.587,179.688,-17.090,-27.832,-113.770,0.000
1737558229.591,-37.109,-22.461,-29.785,-73.242,0.000
1737558229.595,-237.793,-28.809,-27.832,-30.762,0.000
1737558229.599,-162.109,-28.809,-25.879,-34.668,0.000
1737558229.603,121.582,-15.625,-31.738,-82.031,0.000
1737558229.606,254.883,-11.719,-26.367,-95.215,0.000
1737558229.610,63.965,-19.531,-19.043,-71.289,0.000
1737558229.614,-166.504,-29.297,-29.785,-27.832,0.000
1737558229.618,-128.418,-28.320,-32.715,-28.809,0.000
1737558229.622,143.066,-14.160,-25.391,-87.402,0.000
1737558229.626,306.152,-11.230,-26.367,-109.863,0.000
1737558229.630,151.855,-16.602,-30.273,-75.195,0.000
1737558229.634,-114.258,-28.809,-33.691,-30.273,0.000
1737558229.638,-123.047,-28.320,-34.180,-22.461,0.000
1737558229.642,124.023,-16.602,-30.762,-80.566,0.000
1737558229.646,298.828,-11.230,-31.250,-112.793,0.000
1737558229.649,168.945,-9.277,-32.227,-77.148,0.000
1737558229.653,-117.676,-18.555,-30.762,-27.832,0.000
1737558229.657,-187.012,-29.785,-34.180,-20.020,0.000
1737558229.661,24.902,-24.414,-31.250,-79.590,0.000
1737558229.665,232.422,-14.160,-29.785,-105.957,0.000
1737558229.669,150.879,-14.648,-32.715,-77.148,0.000
1737558229.673,-153.809,-23.926,-37.598,-63.965,0.000
1737558229.677,0.000,-22.949,-38.086,-36.133,0.000
1737558229.681,0.000,-17.090,-27.344,-75.195,0.000
1737558229.685,0.000,-12.207,-23.926,-119.141,0.000
1737558229.689,0.000,-18.555,-28.809,-92.285,0.000
1737558229.692,0.000,-27.344,-31.738,-35.645,0.000
1737558229.696,0.000,-27.344,-30.762,0.977,0.000
1737558229.700,0.000,-22.461,-28.809,-47.363,0.000
1737558229.704,0.000,-13.672,-28.320,-100.098,0.000
1737558229.708,0.000,-9.766,-23.926,-97.656,0.000
1737558229.712,0.000,-19.043,-23.438,-69.336,0.000
1737558229.716,0.000,-29.297,-26.855,-14.648,0.000
1737558229.720,0.000,-23.926,-30.273,-26.367,0.000
1737558229.724,49.805,-12.695,-23.926,-101.562,0.000
1737558229.728,66.895,-10.254,-20.508,-89.355,0.000
1737558229.731,-194.824,-18.066,-27.344,-31.738,0.000
1737558229.735,-361.816,-20.020,-30.273,-2.441,0.000
1737558229.739,-264.160,-19.043,-26.855,-48.340,0.000
1737558229.743,-2.930,-11.719,-23.438,-91.309,0.000
1737558229.747,90.332,-12.207,-25.879,-70.312,0.000
1737558229.751,-184.570,-29.297,-32.715,-63.477,0.000
1737558229.755,-401.855,-29.785,-35.645,-29.785,0.000
1737558229.759,-316.895,-24.902,-28.320,-33.691,0.000
1737558229.763,-44.434,-15.137,-22.461,-83.496,0.000
1737558229.767,69.824,-5.371,-26.855,-86.426,0.000
1737558229.771,-167.969,-17.090,-26.855,-63.477,0.000
1737558229.774,-382.812,-29.297,-24.414,-14.648,0.000
1737558229.778,-296.875,-22.461,-17.578,-5.371,0.000
1737558229.782,-31.738,-14.648,-17.578,-77.148,0.000
1737558229.786,86.914,-13.672,-24.414,-107.422,0.000
1737558229.790,-90.332,-10.254,-24.414,-61.035,0.000
1737558229.794,-332.520,-16.113,-25.391,-5.371,0.000
1737558229.798,-346.191,-24.902,-25.391,-12.695,0.000
1737558229.802,-108.887,-20.508,-25.879,-90.332,0.000
1737558229.806,92.773,-9.766,-24.414,-104.492,0.000
1737558229.810,-22.461,-9.277,-20.996,-51.758,0.000
1737558229.814,-290.527,-18.066,-20.020,-19.531,0.000
1737558229.817,0.000,-17.090,-20.020,-18.555,0.000
1737558229.821,0.000,-7.812,-18.555,-66.895,0.000
1737558229.825,0.000,2.441,-19.043,-95.703,0.000
1737558229.829,0.000,-2.441,-21.973,-60.547,0.000
1737558229.833,0.000,-18.066,-27.344,-17.090,0.000
1737558229.837,0.000,-20.020,-28.809,-4.395,0.000
1737558229.841,0.000,-18.555,-27.832,-54.688,0.000
1737558229.845,0.000,-15.625,-29.785,-99.121,0.000
1737558229.849,0.000,-12.695,-24.414,-92.285,0.000
1737558229.853,0.000,-23.926,-28.320,-44.922,0.000
1737558229.856,0.000,-28.320,-29.785,-1.953,0.000
1737558229.860,0.000,-22.949,-23.438,-44.922,0.000
1737558229.864,183.105,-15.137,-26.367,-83.496,0.000
1737558229.868,175.781,-15.137,-27.344,-66.406,0.000
1737558229.872,-102.051,-21.484,-27.832,-19.043,0.000
1737558229.876,-236.328,-26.855,-28.320,13.672,0.000
1737558229.880,-59.570,-21.973,-29.785,-22.461,0.000
1737558229.884,231.934,-5.859,-29.785,-71.289,0.000
1737558229.888,237.793,-4.883,-31.250,-61.035,0.000
1737558229.892,-78.125,-20.508,-33.691,-26.367,0.000
1737558229.896,-221.191,-25.391,-33.203,7.324,0.000
1737558229.899,-68.359,-23.438,-32.715,-21.484,0.000
1737558229.903,192.871,-13.184,-28.320,-83.984,0.000
1737558229.907,274.902,1.953,-27.344,-71.289,0.000
1737558229.911,2.930,-13.184,-30.273,-38.574,0.000
1737558229.915,-191.406,-32.227,-29.785,-1.465,0.000
1737558229.919,-86.914,-25.391,-28.809,-18.555,0.000
1737558229.923,148.926,-11.719,-26.855,-72.754,0.000
1737558229.927,250.977,-5.859,-24.902,-57.129,0.000
1737558229.931,28.809,-9.766,-27.832,-28.809,0.000
1737558229.935,-174.805,-20.996,-29.297,1.953,0.000
1737558229.939,-83.496,-20.020,-26.855,0.000,0.000
1737558229.942,167.480,-11.719,-25.879,-57.129,0.000
1737558229.946,282.715,-9.277,-24.902,-71.777,0.000
1737558229.950,79.102,-11.719,-27.832,-37.598,0.000
1737558229.954,-178.223,-22.949,-24.902,-4.883,0.000
1737558229.958,0.000,-25.879,0.000,0.000,0.000
1737558229.962,0.000,-16.113,0.000,0.000,0.000
1737558229.966,0.000,-4.395,0.000,0.000,0.000
1737558229.970,0.000,-10.742,0.000,0.000,0.000
1737558229.974,0.000,-19.531,0.000,0.000,0.000
1737558229.978,0.000,-11.719,0.000,0.000,0.000
1737558229.981,0.000,-9.766,0.000,0.000,0.000
1737558229.985,0.000,-12.207,0.000,0.000,0.000
1737558229.989,0.000,-16.602,0.000,0.000,0.000
1737558229.993,0.000,-23.926,0.000,0.000,0.000
1737558229.997,0.000,-26.855,0.000,0.000,0.000
1737558230.001,0.000,-19.531,0.000,0.000,0.000
1737558230.005,214.844,-10.742,-19.043,-70.312,0.000
1737558230.009,115.234,-15.625,-18.555,-40.527,0.000
1737558230.013,-199.219,-26.855,-21.484,-18.066,0.000
1737558230.017,-270.020,-30.762,-25.391,1.953,0.000
1737558230.021,-53.711,-20.996,-19.531,-19.043,0.000
1737558230.024,154.297,-8.301,-20.508,-67.871,0.000
1737558230.028,101.562,-6.836,-22.949,-64.453,0.000
1737558230.032,-172.852,-14.648,-19.531,-14.160,0.000
1737558230.036,-317.871,-24.414,-22.949,4.883,0.000
1737558230.040,-144.043,-23.438,-20.996,-44.434,0.000
1737558230.044,122.559,-15.625,-17.578,-83.008,0.000
1737558230.048,105.469,-14.160,-17.578,-66.895,0.000
1737558230.052,-211.914,-25.879,-18.066,-20.508,0.000
1737558230.056,-372.559,-36.621,-21.973,15.137,0.000
1737558230.060,-208.496,-24.414,-21.484,-25.879,0.000
1737558230.064,65.918,-12.207,-15.625,-69.336,0.000
1737558230.067,107.910,-7.812,-15.137,-58.594,0.000
1737558230.071,-174.805,-11.719,-17.578,-32.715,0.000
1737558230.075,-339.355,-24.902,-22.949,-0.977,0.000
1737558230.079,-206.055,-26.855,-26.855,-34.668,0.000
1737558230.083,48.828,-16.113,-22.461,-97.168,0.000
1737558230.087,133.301,-13.184,-20.508,-85.449,0.000
1737558230.091,-88.867,-20.996,-27.832,-49.805,0.000
1737558230.095,-258.301,-26.367,-27.832,-6.348,0.000
1737558230.099,0.000,-27.344,-25.391,-15.625,0.000
1737558230.103,0.000,-19.531,-27.344,-79.102,0.000
1737558230.106,0.000,-10.254,-24.414,-83.496,0.000
1737558230.110,0.000,-12.207,-26.855,-38.086,0.000
1737558230.114,0.000,-18.066,-28.320,1.465,0.000
1737558230.118,0.000,-19.043,-33.203,-23.926,0.000
1737558230.122,0.000,-15.625,-34.180,-88.379,0.000
1737558230.126,0.000,-13.184,-25.879,-96.191,0.000
1737558230.130,0.000,-19.531,-25.391,-58.594,0.000
1737558230.134,0.000,-22.949,-29.297,-11.719,0.000
1737558230.138,0.000,-20.996,-32.227,-0.977,0.000
1737558230.142,0.000,-14.648,-29.785,-63.965,0.000
1737558230.146,261.719,0.488,-25.391,-85.449,0.000
1737558230.149,108.887,-1.953,-24.414,-49.805,0.000
1737558230.153,-169.922,-15.625,-25.391,-11.230,0.000
1737558230.157,-244.629,-23.438,-26.855,-27.344,0.000
1737558230.161,-22.461,-19.531,-27.344,-89.355,0.000
1737558230.165,228.516,0.000,-23.438,-92.285,0.000
1737558230.169,105.469,-1.953,-18.066,-56.641,0.000
1737558230.173,-201.660,-24.414,-20.020,-20.996,0.000
1737558230.177,-246.582,-26.855,-22.949,10.742,0.000
1737558230.181,-35.645,-21.973,-24.414,-44.434,0.000
1737558230.185,184.082,-14.648,-22.949,-86.426,0.000
1737558230.189,99.121,-7.812,-18.555,-58.105,0.000
1737558230.192,-196.289,-15.625,-20.508,-47.852,0.000
1737558230.196,-255.859,-22.461,-22.949,-31.738,0.000
1737558230.200,-51.270,-13.184,-22.461,-62.988,0.000
1737558230.204,187.500,-2.930,-20.996,-100.586,0.000
1737558230.208,165.527,-4.395,-22.461,-86.914,0.000
1737558230.212,-121.582,-14.160,-28.809,-40.039,0.000
1737558230.216,-267.090,-24.414,-33.691,-8.789,0.000
1737558230.220,-119.141,-22.461,-29.785,-56.152,0.000
1737558230.224,125.000,-14.160,-26.855,-96.680,0.000
1737558230.228,138.672,-12.207,-24.414,-81.055,0.000
1737558230.231,-122.070,-15.137,-25.391,-34.180,0.000
1737558230.235,-283.203,-21.484,-27.344,11.230,0.000
1737558230.239,-163.086,-22.461,-23.926,-13.672,0.000
1737558230.243,89.355,-11.719,-21.484,-71.289,0.000
1737558230.247,142.578,-6.348,-21.484,-75.684,0.000
1737558230.251,-107.422,-15.137,-26.367,-33.691,0.000
1737558230.255,-301.758,-23.926,-24.414,20.020,0.000
1737558230.259,-206.055,-16.113,-24.902,1.465,0.000
1737558230.263,35.156,-7.812,-26.367,-83.008,0.000
1737558230.267,103.516,-9.277,-25.879,-91.309,0.000
1737558230.271,-158.691,-18.066,-28.320,-34.668,0.000
1737558230.274,-371.094,-24.414,-35.156,1.953,0.000
1737558230.278,-296.387,-27.344,-36.133,-9.766,0.000
1737558230.282,-52.246,-21.484,-31.738,-78.613,0.000
1737558230.286,91.797,-8.301,-29.785,-100.098,0.000
1737558230.290,-90.332,-12.695,-22.949,-50.293,0.000
1737558230.294,-333.008,-24.414,-25.879,-5.371,0.000
1737558230.298,-309.082,-23.438,-31.250,-8.789,0.000
1737558230.302,-31.738,-12.695,-28.809,-62.500,0.000
1737558230.306,136.719,-3.906,-24.902,-75.684,0.000
1737558230.310,-30.762,-4.883,-31.250,-34.180,0.000
1737558230.314,-272.461,-16.602,-31.250,6.836,0.000
1737558230.317,-290.039,-23.926,-23.438,-4.395,0.000
1737558230.321,-69.336,-18.066,-20.020,-72.754,0.000
1737558230.325,106.934,-5.859,-12.695,-98.145,0.000
1737558230.329,-38.086,-5.859,-18.555,-71.777,0.000
1737558230.333,0.000,-15.137,-26.367,-33.691,0.000
1737558230.337,0.000,-18.555,-28.320,-25.391,0.000
1737558230.341,0.000,-16.113,-27.344,-83.008,0.000
1737558230.345,0.000,-8.301,-24.414,-119.629,0.000
1737558230.349,0.000,-7.812,-27.344,-85.938,0.000
1737558230.353,0.000,-15.625,-28.809,-32.227,0.000
1737558230.356,0.000,-20.508,-28.809,-6.836,0.000
1737558230.360,0.000,-21.484,-28.320,-54.688,0.000
1737558230.364,0.000,-16.602,-27.832,-100.098,0.000
1737558230.368,0.000,-14.160,-24.414,-71.289,0.000
1737558230.372,0.000,-16.113,-22.461,-16.113,0.000
1737558230.376,0.000,-20.996,-20.020,3.906,0.000
1737558230.380,-307.129,-22.949,-20.996,0.000,0.000
1737558230.384,-326.660,-13.184,-26.367,0.000,0.000
1737558230.388,-63.965,-9.766,-29.297,0.000,0.000
1737558230.392,167.480,-17.090,-27.344,0.000,0.000
1737558230.396,101.562,-21.973,-28.320,0.000,0.000
1737558230.399,-146.973,-22.949,-29.297,0.000,0.000
1737558230.403,-207.520,-17.578,-26.855,0.000,0.000
1737558230.407,3.906,-16.602,-25.391,0.000,0.000
1737558230.411,244.141,-22.949,-27.344,0.000,0.000
1737558230.415,219.238,-28.809,-31.738,0.000,0.000
1737558230.419,-46.875,-27.344,-32.227,0.000,0.000
1737558230.423,-153.809,-17.090,-28.320,0.000,0.000
1737558230.427,5.371,-9.277,-26.855,-74.707,0.000
1737558230.431,253.906,-12.695,-27.344,-32.227,0.000
1737558230.435,277.832,-22.949,-25.391,14.648,0.000
1737558230.438,5.859,-22.461,-23.438,-11.719,0.000
1737558230.442,-107.910,-13.184,-23.926,-85.938,0.000
1737558230.446,20.020,-9.277,-20.020,-80.566,0.000
1737558230.450,223.145,-15.137,-19.531,-31.250,0.000
1737558230.454,237.305,-26.367,-25.391,2.930,0.000
1737558230.458,-52.734,-20.996,-30.762,13.184,0.000
1737558230.462,-221.191,-11.719,-22.461,-47.363,0.000
1737558230.466,-104.492,-8.789,-17.578,-96.191,0.000
1737558230.470,133.789,-9.277,-25.879,-50.293,0.000
1737558230.474,-336.914,-15.137,-18.555,15.625,0.000
1737558230.478,-332.520,-20.996,-20.020,4.395,0.000
1737558230.481,-98.145,-21.484,-27.344,-65.430,0.000
1737558230.485,76.660,-18.066,-26.367,-94.727,0.000
1737558230.489,-94.238,-21.484,-28.809,-71.777,0.000
1737558230.493,-322.266,-23.438,-27.832,-0.977,0.000
1737558230.497,-310.059,-22.461,-26.367,27.344,0.000
1737558230.501,-99.121,-18.066,-25.391,-56.152,0.000
1737558230.505,99.121,-9.766,-22.949,-96.191,0.000
1737558230.509,3.418,-11.719,-25.879,-66.406,0.000
1737558230.513,-249.512,-16.602,-28.809,-23.926,0.000
1737558230.517,-304.688,-19.531,-30.273,-5.859,0.000
1737558230.521,-80.078,-20.508,-32.227,-41.504,0.000
1737558230.524,160.156,-13.184,-30.762,-83.496,0.000
1737558230.528,89.355,-11.719,-29.297,-66.406,0.000
1737558230.532,-210.938,-24.902,-30.762,-30.273,0.000
1737558230.536,-269.531,-25.879,-25.391,0.977,0.000
1737558230.540,-53.223,-16.113,-23.438,-28.320,0.000
1737558230.544,168.945,-11.230,-26.367,-62.012,0.000
1737558230.548,150.391,-14.648,-27.832,-37.598,0.000
1737558230.552,-100.098,-22.461,-28.320,-15.137,0.000
1737558230.556,-203.125,-27.832,-24.902,5.371,0.000
1737558230.560,-57.129,-26.367,-25.879,-33.691,0.000
1737558230.563,179.688,-16.113,-26.367,-91.797,0.000
1737558230.567,217.773,-10.254,-26.855,-67.871,0.000
1737558230.571,-40.527,-14.160,-28.809,-25.879,0.000
1737558230.575,-172.852,-22.461,-29.785,3.906,0.000
1737558230.579,-24.414,-20.020,-28.320,-29.785,0.000
1737558230.583,221.191,-14.648,-26.367,-95.703,0.000
1737558230.587,282.227,-11.719,-31.250,-76.660,0.000
1737558230.591,24.902,-15.625,-35.156,-30.273,0.000
1737558230.595,-154.785,-21.973,-31.738,4.883,0.000
1737558230.599,-46.387,-20.508,-30.273,-18.066,0.000
1737558230.603,209.961,-13.184,-27.832,-84.961,0.000
1737558230.606,288.574,-7.812,-25.391,-85.449,0.000
1737558230.610,47.363,-13.672,-28.320,-39.551,0.000
1737558230.614,-160.156,-21.973,-27.832,8.301,0.000
1737558230.618,-97.656,-23.438,-29.785,-24.414,0.000
1737558230.622,160.645,-11.719,-32.227,-86.426,0.000
1737558230.626,273.926,-1.465,-33.203,-80.566,0.000
1737558230.630,33.203,-10.742,-37.598,-48.828,0.000
1737558230.634,-205.566,-19.531,-35.156,1.465,0.000
1737558230.638,-176.758,-21.973,-32.715,7.812,0.000
1737558230.642,16.113,-17.090,-31.250,-76.172,0.000
1737558230.646,128.418,-7.812,-33.203,-123.047,0.000
1737558230.649,-34.180,-9.766,-40.039,-75.195,0.000
1737558230.653,-287.109,-20.020,-40.039,-12.695,0.000
1737558230.657,-287.598,-25.879,-34.180,-6.348,0.000
1737558230.661,-47.363,-19.043,-28.809,-52.734,0.000
1737558230.665,114.258,-8.301,-28.320,-62.500,0.000
1737558230.669,-34.180,-9.766,-30.762,-37.109,0.000
1737558230.673,-311.035,-18.555,-28.320,-8.789,0.000
1737558230.677,-353.027,-19.043,-24.414,-4.395,0.000
1737558230.681,-134.766,-13.672,-26.855,-56.641,0.000
1737558230.685,45.410,-5.859,-33.203,-91.797,0.000
1737558230.688,-61.035,-10.254,-34.180,-78.125,0.000
1737558230.692,-341.309,-25.879,-33.691,-42.480,0.000
1737558230.696,-418.457,-30.273,-35.645,-12.207,0.000
1737558230.700,-226.562,-23.926,-32.227,-55.664,0.000
1737558230.704,7.324,-11.719,-28.320,-95.703,0.000
1737558230.708,-33.691,-8.301,-26.855,-68.848,0.000
1737558230.712,-317.383,-18.066,-29.785,-38.086,0.000
1737558230.716,-392.578,-23.926,-33.691,-15.625,0.000
1737558230.720,-198.242,-20.996,-28.320,-47.363,0.000
1737558230.724,43.457,-13.672,-31.738,-103.027,0.000
1737558230.728,59.570,-9.277,-32.715,-86.914,0.000
1737558230.731,-220.215,-20.508,-26.855,-40.039,0.000
1737558230.735,-343.750,-32.227,-31.250,-0.977,0.000
1737558230.739,-169.434,-31.250,-32.227,-33.691,0.000
1737558230.743,72.754,-23.926,-25.879,-95.703,0.000
1737558230.747,140.625,-16.113,-23.926,-75.195,0.000
1737558230.751,-105.957,-20.020,-32.227,-32.227,0.000
1737558230.755,-265.137,-28.320,-33.203,8.789,0.000
1737558230.759,-121.094,-24.414,-26.855,0.977,0.000
1737558230.763,108.887,-13.672,-23.438,-54.199,0.000
1737558230.767,146.484,-15.625,-28.809,-73.242,0.000
1737558230.771,-97.168,-30.273,-42.480,-56.641,0.000
1737558230.774,-237.305,-30.762,-38.574,-1.465,0.000
1737558230.778,-113.281,-20.020,-33.203,-1.953,0.000
1737558230.782,139.160,-18.555,-36.621,-64.941,0.000
1737558230.786,280.273,-16.113,-32.715,-70.312,0.000
1737558230.790,67.871,-20.020,-35.156,-41.504,0.000
1737558230.794,-176.758,-22.461,-38.086,0.000,0.000
1737558230.798,-123.047,-20.020,-31.738,-11.719,0.000
1737558230.802,0.000,-13.184,-23.926,-65.918,0.000
1737558230.806,0.000,-8.301,-24.414,-75.684,0.000
1737558230.810,0.000,-16.602,-31.250,-52.734,0.000
1737558230.813,0.000,-26.367,-33.203,-8.789,0.000
1737558230.817,0.000,-27.832,-38.574,0.977,0.000
1737558230.821,0.000,-20.020,-41.016,-57.129,0.000
1737558230.825,0.000,-10.742,-33.203,-73.242,0.000
1737558230.829,0.000,-16.602,-27.832,-46.387,0.000
1737558230.833,0.000,-23.438,-24.414,-5.371,0.000
1737558230.837,0.000,-21.973,-24.902,1.953,0.000
1737558230.841,0.000,-23.926,-30.762,-72.266,0.000
1737558230.845,0.000,-14.160,-27.344,-114.746,0.000
1737558230.849,148.438,-10.254,-28.320,-79.102,0.000
1737558230.853,290.527,-21.484,-30.273,-17.578,0.000
1737558230.856,97.168,-26.367,-29.785,-0.977,0.000
1737558230.860,-136.719,-15.137,-25.879,-57.129,0.000
1737558230.864,-91.309,-6.836,-18.555,-90.820,0.000
1737558230.868,142.090,-5.371,-22.949,-59.570,0.000
1737558230.872,271.973,-19.043,-31.738,-19.531,0.000
1737558230.876,128.418,-38.086,-36.621,-5.371,0.000
1737558230.880,-107.422,-27.832,-27.832,-28.809,0.000
1737558230.884,-116.699,-15.137,-24.414,-81.543,0.000
1737558230.888,81.055,-17.578,-26.855,-93.750,0.000
1737558230.892,271.973,-20.996,-30.762,-32.715,0.000
1737558230.896,-188.965,-25.391,-33.203,26.855,0.000
1737558230.899,-37.598,-23.438,-30.762,-7.812,0.000
1737558230.903,185.547,-19.531,-29.785,-66.406,0.000
1737558230.907,190.430,-12.695,-26.855,-50.781,0.000
1737558230.911,-97.656,-19.043,-25.879,-13.184,0.000
1737558230.915,-231.445,-20.020,-26.855,32.227,0.000
1737558230.919,-114.746,-18.555,-28.320,-0.488,0.000
1737558230.923,60.059,-18.066,-23.926,-81.055,0.000
1737558230.927,97.656,-10.742,-19.043,-70.801,0.000
1737558230.931,-171.875,-17.578,-20.996,-34.668,0.000
1737558230.935,-368.164,-24.902,-26.367,-2.930,0.000
1737558230.938,-268.066,-26.855,-31.738,-18.555,0.000
1737558230.942,-45.410,-21.973,-28.809,-89.844,0.000
1737558230.946,29.297,-8.789,-23.438,-87.402,0.000
1737558230.950,-194.336,-13.672,-28.809,-35.645,0.000
1737558230.954,-408.203,-24.414,-32.715,10.742,0.000
1737558230.958,-351.562,-24.902,-33.203,-6.348,0.000
1737558230.962,-103.516,-16.113,-32.715,-80.566,0.000
1737558230.966,22.949,-8.301,-29.785,-86.914,0.000
1737558230.970,-166.016,-15.137,-26.855,-44.434,0.000
1737558230.974,-376.465,-21.484,-26.367,2.930,0.000
1737558230.978,-353.027,-29.297,-29.297,-15.625,0.000
1737558230.981,-101.074,-19.043,-29.785,-64.941,0.000
1737558230.985,80.566,-9.277,-31.738,-64.941,0.000
1737558230.989,-71.777,-17.578,-29.297,-49.316,0.000
1737558230.993,-300.293,-25.391,-26.855,0.977,0.000
1737558230.997,-275.391,-27.832,-31.250,8.789,0.000
1737558231.001,-18.066,-17.578,-28.320,-56.152,0.000
1737558231.005,157.227,-11.719,-26.367,-77.637,0.000
1737558231.009,40.527,-9.766,-20.020,-29.297,0.000
1737558231.013,-200.195,-16.602,-20.996,18.555,0.000
1737558231.017,-230.957,-25.879,-23.926,4.395,0.000
1737558231.020,14.160,-21.973,-22.461,-43.945,0.000
1737558231.024,240.234,-11.719,-20.020,-73.730,0.000
1737558231.028,154.785,-11.230,-13.184,-60.547,0.000
1737558231.032,-122.559,-22.949,-18.066,-15.137,0.000
1737558231.036,-176.758,-29.785,-22.461,15.137,0.000
1737558231.040,44.434,-24.414,-21.484,-30.762,0.000
1737558231.044,259.277,-17.578,-24.414,-84.961,0.000
1737558231.048,197.754,-17.578,-19.531,-75.684,0.000
1737558231.052,-73.242,-20.996,-19.043,-21.484,0.000
1737558231.056,-149.902,-23.438,-20.996,27.344,0.000
1737558231.060,21.484,-24.414,-19.531,-20.020,0.000
1737558231.063,238.770,-19.531,-20.996,-95.215,0.000
1737558231.067,227.051,-22.949,-28.320,-85.938,0.000
1737558231.071,-57.617,-28.809,-29.297,-41.992,0.000
1737558231.075,-209.961,-29.297,-23.438,-1.953,0.000
1737558231.079,-82.520,-27.344,-24.414,-35.645,0.000
1737558231.083,160.645,-17.090,-23.438,-96.191,0.000
1737558231.087,180.176,-12.207,-23.438,-81.543,0.000
1737558231.091,-102.539,-16.113,-26.367,-29.785,0.000
1737558231.095,-260.254,-18.555,-27.832,4.883,0.000
1737558231.099,-163.086,-17.578,-26.367,-38.574,0.000
1737558231.103,63.965,-8.301,-19.043,-87.891,0.000
1737558231.106,141.602,-4.883,-16.602,-70.312,0.000
1737558231.110,-103.027,-18.066,-22.949,-40.527,0.000
1737558231.114,-296.387,-29.785,-27.832,-11.230,0.000
1737558231.118,-202.148,-24.902,-26.855,-29.297,0.000
1737558231.122,12.207,-14.648,-25.391,-104.004,0.000
1737558231.126,84.473,-12.695,-26.367,-109.375,0.000
1737558231.130,-124.512,-20.020,-26.367,-75.195,0.000
1737558231.134,-340.820,-26.855,-27.832,-25.879,0.000
1737558231.138,-277.344,-22.461,-23.926,-3.906,0.000
1737558231.142,-41.016,-17.578,-23.438,-85.938,0.000
1737558231.145,75.195,-11.719,-23.926,-105.957,0.000
1737558231.149,-87.402,-3.906,-22.461,-44.434,0.000
1737558231.153,-324.707,-18.066,-19.531,-2.441,0.000
1737558231.157,-333.496,-35.156,-25.391,-8.789,0.000
1737558231.161,-99.609,-28.320,-28.809,-82.520,0.000
1737558231.165,75.195,-13.672,-24.414,-105.957,0.000
1737558231.169,-42.969,-8.789,-25.879,-54.199,0.000
1737558231.173,-305.664,-20.020,-26.367,-7.812,0.000
1737558231.177,-337.402,-24.902,-22.461,7.812,0.000
1737558231.181,-84.961,-15.137,-16.602,-34.668,0.000
1737558231.185,138.184,-0.488,-11.230,-58.594,0.000
1737558231.188,24.414,0.000,-13.672,-18.555,0.000
1737558231.192,-259.766,-13.184,-19.531,18.555,0.000
1737558231.196,-285.645,-12.207,-23.438,16.602,0.000
1737558231.200,-87.891,-9.277,-25.879,-43.457,0.000
1737558231.204,118.164,-4.395,-17.578,-70.801,0.000
1737558231.208,73.242,-7.812,-13.184,-40.039,0.000
1737558231.212,-179.688,-19.531,-19.043,-8.789,0.000
1737558231.216,-244.141,-23.438,-24.414,27.832,0.000
1737558231.220,-54.199,-20.996,-25.391,-6.348,0.000
1737558231.224,197.266,-9.277,-26.855,-49.316,0.000
1737558231.228,202.148,-8.301,-27.344,-32.715,0.000
1737558231.231,-67.383,-17.578,-25.879,-2.441,0.000
1737558231.235,-174.316,-17.090,-24.902,41.992,0.000
1737558231.239,-21.973,-14.648,-22.949,-1.465,0.000
1737558231.243,226.074,-10.254,-20.508,-57.617,0.000
1737558231.247,252.930,-9.766,-24.414,-37.598,0.000
1737558231.251,-18.555,-21.484,-31.738,-6.348,0.000
1737558231.255,-145.996,-26.855,-32.227,31.738,0.000
1737558231.259,-21.484,-19.531,-36.621,-12.695,0.000
1737558231.263,218.262,-12.207,-32.715,-63.965,0.000
1737558231.267,290.527,-11.719,-28.320,-46.387,0.000
1737558231.270,34.180,-17.578,-33.691,-19.531,0.000
1737558231.274,-155.762,-24.414,-34.668,20.020,0.000
1737558231.278,-49.316,-18.555,-28.809,10.742,0.000
1737558231.282,215.332,-3.418,-27.344,-40.039,0.000
1737558231.286,293.457,-5.859,-24.902,-50.293,0.000
1737558231.290,93.262,-12.207,-20.020,-5.371,0.000
1737558231.294,-83.496,-20.020,-24.414,40.039,0.000
1737558231.298,-50.293,-22.461,-25.879,19.531,0.000
1737558231.302,173.828,-11.719,-29.297,-50.293,0.000
1737558231.306,295.410,-8.789,-29.785,-73.730,0.000
1737558231.310,106.445,-12.207,-23.926,-33.203,0.000
1737558231.313,-136.230,-19.043,-25.879,14.160,0.000
1737558231.317,-137.207,-25.391,-31.738,6.836,0.000
1737558231.321,104.980,-17.090,-22.461,-37.598,0.000
1737558231.325,264.648,-4.883,-18.066,-56.152,0.000
1737558231.329,104.004,-11.230,-26.855,-32.715,0.000
1737558231.333,-121.582,-19.531,-25.391,18.555,0.000
1737558231.337,-139.160,-17.578,-24.902,25.879,0.000
1737558231.341,47.363,-12.695,-26.367,-49.316,0.000
1737558231.345,208.984,-7.812,-26.367,-88.379,0.000
1737558231.349,66.895,-17.090,-31.250,-53.711,0.000
1737558231.353,-198.242,-27.832,-34.180,-3.418,0.000
1737558231.356,-240.234,-29.297,-32.227,6.348,0.000
1737558231.360,-54.199,-28.320,-27.832,-59.082,0.000
1737558231.364,145.996,-16.602,-26.367,-100.098,0.000
1737558231.368,70.312,-10.254,-21.973,-62.012,0.000
1737558231.372,-209.473,-20.508,-20.020,2.441,0.000
1737558231.376,-304.199,-27.832,-27.344,20.508,0.000
1737558231.380,-121.582,-20.020,-28.320,-27.832,0.000
1737558231.384,117.188,-1.465,-21.973,-51.758,0.000
1737558231.388,58.594,-2.441,-22.949,-40.039,0.000
1737558231.392,-250.000,-14.648,-26.367,-9.277,0.000
1737558231.395,-363.281,-18.555,-25.391,13.184,0.000
1737558231.399,-205.078,-22.461,-26.855,-27.344,0.000
1737558231.403,30.762,-13.184,-26.367,-67.383,0.000
1737558231.407,37.109,-5.859,-26.367,-69.336,0.000
1737558231.411,0.000,-15.625,0.000,-36.621,0.000
1737558231.415,0.000,-24.902,0.000,11.230,0.000
1737558231.419,0.000,-17.578,0.000,-22.949,0.000
1737558231.423,0.000,-4.395,0.000,-92.773,0.000
1737558231.427,0.000,0.000,0.000,-80.566,0.000
1737558231.431,0.000,-6.836,0.000,-18.066,0.000
1737558231.435,0.000,-15.625,0.000,29.297,0.000
1737558231.438,0.000,-15.137,0.000,-17.090,0.000
1737558231.442,0.000,-11.230,0.000,-86.426,0.000
1737558231.446,0.000,-8.789,0.000,-68.848,0.000
1737558231.450,0.000,-10.742,0.000,-12.207,0.000
1737558231.454,0.000,-13.672,0.000,35.156,0.000
1737558231.458,-251.953,-15.137,-20.996,8.301,0.000
1737558231.462,-393.555,-9.277,-20.508,-55.664,0.000
1737558231.466,-238.770,-0.488,-17.578,-60.059,0.000
1737558231.470,-10.254,-5.371,-20.508,-23.926,0.000
1737558231.474,38.574,-17.090,-24.414,25.879,0.000
1737558231.478,-187.500,-9.766,-20.020,26.367,0.000
1737558231.481,-331.055,0.977,-19.531,-57.129,0.000
1737558231.485,-219.727,0.488,-20.020,-91.309,0.000
1737558231.489,27.832,-3.418,-15.137,-37.109,0.000
1737558231.493,118.652,-13.672,-16.602,7.812,0.000
1737558231.497,-117.188,-19.043,-22.461,-12.695,0.000
1737558231.501,-304.688,-14.160,-20.020,-65.430,0.000
1737558231.505,212.402,-4.883,-13.672,-69.824,0.000
1737558231.509,92.285,-2.930,-17.578,-26.367,0.000
1737558231.513,-167.480,-10.254,-19.043,11.719,0.000
1737558231.517,-217.285,-18.066,-18.555,7.812,0.000
1737558231.520,2.930,-17.578,-24.414,-47.363,0.000
1737558231.524,220.703,-9.277,-27.344,-79.102,0.000
1737558231.528,109.863,-8.301,-24.902,-61.035,0.000
1737558231.532,-169.922,-22.949,-27.832,-31.738,0.000
1737558231.536,-201.660,-28.809,-28.320,-15.625,0.000
1737558231.540,11.719,-18.555,-22.949,-42.480,0.000
1737558231.544,225.098,-5.371,-22.949,-64.941,0.000
1737558231.548,149.414,-4.395,-21.973,-52.734,0.000
1737558231.552,0.000,-16.113,0.000,-13.184,0.000
1737558231.556,0.000,-25.391,0.000,-2.930,0.000
1737558231.560,0.000,-19.531,0.000,-51.758,0.000
1737558231.563,0.000,-9.766,0.000,-74.707,0.000
1737558231.567,0.000,-1.465,0.000,-49.316,0.000
1737558231.571,0.000,-8.789,0.000,-23.926,0.000
1737558231.575,0.000,-23.926,0.000,-2.930,0.000
1737558231.579,0.000,-20.020,0.000,-31.250,0.000
1737558231.583,0.000,-11.230,0.000,-72.754,0.000
1737558231.587,0.000,-5.859,0.000,-53.223,0.000
1737558231.591,0.000,-11.230,0.000,-5.859,0.000
1737558231.595,0.000,-21.484,0.000,21.484,0.000
1737558231.599,-126.465,-18.555,-23.926,-16.113,0.000
1737558231.602,-187.988,-9.766,-28.809,-78.613,0.000
1737558231.606,8.789,-6.836,-26.855,-69.824,0.000
1737558231.610,221.191,-13.672,-23.438,-35.156,0.000
1737558231.614,198.730,-19.531,-27.344,6.836,0.000
1737558231.618,-69.824,-13.184,-26.367,2.930,0.000
1737558231.622,-207.520,-6.348,-27.344,-54.199,0.000
1737558231.626,-52.734,-6.348,-31.738,-68.359,0.000
1737558231.630,197.266,-18.555,-26.367,-43.945,0.000
1737558231.634,240.723,-29.785,-20.996,4.883,0.000
1737558231.638,-22.461,-28.320,-20.020,-7.812,0.000
1737558231.642,-179.199,-18.555,-19.531,-76.660,0.000
1737558231.645,144.531,-9.277,-19.043,-92.773,0.000
1737558231.649,-38.574,-11.719,-20.020,-37.598,0.000
1737558231.653,-278.809,-19.531,-19.531,10.742,0.000
1737558231.657,-263.672,-22.461,-17.090,-1.953,0.000
1737558231.661,-33.691,-22.461,-17.578,-58.105,0.000
1737558231.665,133.789,-11.230,-16.113,-70.312,0.000
1737558231.669,-7.324,-11.230,-18.555,-33.691,0.000
1737558231.673,-277.344,-24.414,-23.926,3.418,0.000
1737558231.677,-286.621,-21.973,-24.414,7.324,0.000
1737558231.681,-74.707,-14.648,-24.902,-62.012,0.000
1737558231.685,76.660,-5.859,-24.414,-105.469,0.000
1737558231.688,-42.480,-5.371,-26.855,-70.801,0.000
1737558231.692,-291.016,-17.578,-30.273,-36.133,0.000
1737558231.696,-340.332,-25.391,-25.879,-37.598,0.000
1737558231.700,-134.277,-21.484,-22.461,-80.566,0.000
1737558231.704,100.586,-10.254,-17.578,-101.562,0.000
1737558231.708,39.551,-10.742,-16.113,-81.055,0.000
1737558231.712,-225.098,-15.625,-17.090,-28.320,0.000
1737558231.716,-278.320,-20.508,-19.043,5.859,0.000
1737558231.720,-63.965,-20.996,-21.973,-49.805,0.000
1737558231.724,181.152,-10.254,-21.484,-83.008,0.000
1737558231.727,162.109,-6.348,-11.230,-41.016,0.000
1737558231.731,-96.680,-15.137,-5.859,12.695,0.000
1737558231.735,-187.012,-20.020,-9.766,39.062,0.000
1737558231.739,-6.836,-12.695,-12.695,0.977,0.000
1737558231.743,228.027,-3.906,-18.066,-55.176,0.000
1737558231.747,225.586,-6.348,-15.625,-57.617,0.000
1737558231.751,-50.781,-13.672,-14.648,-10.742,0.000
1737558231.755,-198.730,-25.391,-23.438,-0.977,0.000
1737558231.759,-40.527,-25.391,-25.879,-34.180,0.000
1737558231.763,192.383,-12.695,-23.438,-75.684,0.000
1737558231.767,210.938,-8.301,-26.367,-92.773,0.000
1737558231.770,-53.711,-16.113,-27.832,-42.480,0.000
1737558231.774,-235.840,-27.344,-24.902,4.395,0.000
1737558231.778,-125.977,-28.320,-26.855,-36.133,0.000
1737558231.782,140.137,-20.508,-28.320,-91.797,0.000
1737558231.786,247.559,-11.719,-24.414,-64.941,0.000
1737558231.790,19.043,-12.207,-23.926,-17.090,0.000
1737558231.794,-159.180,-26.367,-32.715,10.254,0.000
1737558231.798,-78.613,-34.180,-39.062,-28.320,0.000
1737558231.802,120.605,-26.855,-34.668,-99.121,0.000
1737558231.806,219.238,-14.648,-28.809,-93.750,0.000
1737558231.810,10.254,-12.207,-30.273,-50.293,0.000
1737558231.813,-219.238,-23.926,-34.180,-13.184,0.000
1737558231.817,-167.480,-25.391,-31.738,-12.695,0.000
1737558231.821,91.797,-15.137,-28.809,-78.613,0.000
1737558231.825,224.609,-15.137,-32.227,-99.121,0.000
1737558231.829,18.066,-25.879,-36.133,-66.895,0.000
1737558231.833,0.000,-31.250,0.000,-23.438,0.000
1737558231.837,0.000,-30.762,0.000,-16.113,0.000
1737558231.841,0.000,-21.484,0.000,-67.383,0.000
1737558231.845,0.000,-15.625,0.000,-78.125,0.000
1737558231.849,0.000,-19.531,0.000,-44.434,0.000
1737558231.852,0.000,-21.973,0.000,2.441,0.000
1737558231.856,0.000,-27.832,0.000,3.418,0.000
1737558231.860,0.000,-26.367,0.000,-57.617,0.000
1737558231.864,0.000,-14.648,0.000,-91.797,0.000
1737558231.868,0.000,-12.207,0.000,-60.547,0.000
1737558231.872,0.000,-22.461,0.000,-2.930,0.000
1737558231.876,0.000,-33.691,0.000,-1.465,0.000
1737558231.880,-211.914,-30.273,-37.598,-67.871,0.000
1737558231.884,-182.129,-11.719,-32.715,-83.496,0.000
1737558231.888,56.641,-5.859,-29.785,-59.570,0.000
1737558231.892,217.285,-13.672,-31.250,-40.527,0.000
1737558231.895,68.848,-19.043,-34.668,-5.859,0.000
1737558231.899,-188.477,-16.113,-34.668,-32.715,0.000
1737558231.903,-233.887,-11.230,-34.180,-86.914,0.000
1737558231.907,-25.879,-15.137,-32.715,-74.219,0.000
1737558231.911,172.363,-18.555,-32.227,-23.438,0.000
1737558231.915,79.102,-20.020,-28.809,2.930,0.000
1737558231.919,-193.848,-20.996,-29.297,-41.992,0.000
1737558231.923,-284.180,-15.625,-31.738,-92.285,0.000
1737558231.927,75.684,-7.812,-32.715,-55.664,0.000
1737558231.931,-175.781,-13.672,-31.738,-5.371,0.000
1737558231.935,-347.168,-22.461,-26.855,12.207,0.000
1737558231.938,-254.883,-28.320,-39.062,-40.527,0.000
1737558231.942,-10.254,-22.461,-44.434,-91.309,0.000
1737558231.946,69.336,-15.137,-36.133,-83.008,0.000
1737558231.950,-169.922,-21.973,-34.668,-51.758,0.000
1737558231.954,-346.191,-27.832,-34.668,-15.625,0.000
1737558231.958,-231.934,-25.391,-30.762,-25.879,0.000
1737558231.962,14.160,-19.043,-31.250,-79.590,0.000
1737558231.966,108.887,-15.625,-33.203,-81.055,0.000
1737558231.970,-103.027,-18.066,-34.668,-47.852,0.000
1737558231.974,-301.758,-27.344,-32.715,-23.438,0.000
1737558231.977,-228.516,-32.715,-30.273,-35.645,0.000
1737558231.981,-16.113,-28.320,-31.738,-108.887,0.000
1737558231.985,103.516,-21.484,-29.297,-133.789,0.000
1737558231.989,-30.762,-15.625,-28.809,-63.477,0.000
1737558231.993,-233.398,-16.602,-31.738,1.953,0.000
1737558231.997,-228.027,-27.832,-36.621,-27.832,0.000
1737558232.001,-8.789,-29.785,-36.621,-93.750,0.000
1737558232.005,171.387,-19.531,-29.297,-107.910,0.000
1737558232.009,22.949,-22.949,-30.762,-77.637,0.000
1737558232.013,-239.746,-33.203,-33.203,-41.992,0.000
1737558232.017,-237.793,-32.715,-30.762,-31.250,0.000
1737558232.020,-0.488,-20.508,-31.738,0.000,0.000
1737558232.024,179.688,-9.766,-30.762,0.000,0.000
1737558232.028,71.777,-12.695,-25.879,0.000,0.000
1737558232.032,-160.156,-23.438,-27.344,0.000,0.000
1737558232.036,-162.109,-25.391,-31.738,0.000,0.000
1737558232.040,55.176,-16.602,-34.180,0.000,0.000
1737558232.044,207.031,-10.742,-28.320,0.000,0.000
1737558232.048,90.332,-12.207,-32.227,0.000,0.000
1737558232.052,-169.434,-20.996,-33.203,0.000,0.000
1737558232.056,-225.586,-22.461,-27.832,0.000,0.000
1737558232.059,-31.738,-13.672,-29.297,0.000,0.000
1737558232.063,175.293,-1.465,-30.273,0.000,0.000
1737558232.067,130.371,-0.488,-30.273,-101.562,0.000
1737558232.071,-140.137,-13.672,-28.809,-48.340,0.000
1737558232.075,-229.492,-19.531,-30.273,-9.277,0.000
1737558232.079,-54.199,-15.625,-31.250,-58.594,0.000
1737558232.083,177.246,-3.906,-26.367,-99.609,0.000
1737558232.087,181.152,2.930,-20.996,-69.824,0.000
1737558232.091,-109.375,-10.742,-17.578,-21.973,0.000
1737558232.095,-260.742,-18.555,-18.555,12.695,0.000
1737558232.099,-132.324,-14.160,-23.438,-40.039,0.000
1737558232.102,83.984,-12.207,-26.855,-112.305,0.000
1737558232.106,152.832,-5.371,-20.996,-87.402,0.000
1737558232.110,-90.820,-11.719,-17.578,-37.109,0.000
1737558232.114,-291.504,-22.461,-26.367,3.418,0.000
1737558232.118,-187.012,-20.020,-31.250,-7.812,0.000
1737558232.122,87.402,-6.348,-25.879,-63.477,0.000
1737558232.126,167.969,-4.395,-23.438,-71.289,0.000
1737558232.130,-74.707,-16.113,-23.926,-28.809,0.000
1737558232.134,-266.602,-20.020,-26.367,17.090,0.000
1737558232.138,-184.082,-24.414,-33.691,5.859,0.000
1737558232.142,60.059,-21.484,-32.715,-63.477,0.000
1737558232.145,148.438,-18.066,-31.738,-93.750,0.000
1737558232.149,-52.734,-22.949,-31.738,-41.992,0.000
1737558232.153,-253.906,-22.949,-28.320,13.184,0.000
1737558232.157,-191.895,-19.531,-26.367,-3.906,0.000
1737558232.161,50.781,-8.789,-20.508,-39.062,0.000
1737558232.165,160.156,-4.883,-16.602,-54.688,0.000
1737558232.169,-26.855,-8.301,-20.508,-38.574,0.000
1737558232.173,-252.930,-14.160,-24.414,10.742,0.000
1737558232.177,-245.117,-19.043,-22.949,16.113,0.000
1737558232.181,-4.395,-11.230,-22.461,-24.902,0.000
1737558232.185,175.293,-5.859,-19.531,-50.781,0.000
1737558232.188,26.367,-11.719,-17.090,-46.387,0.000
1737558232.192,-226.074,-23.438,-22.461,-13.184,0.000
1737558232.196,-248.047,-26.855,-26.855,16.113,0.000
1737558232.200,-34.180,-19.531,-27.344,-30.273,0.000
1737558232.204,158.691,-15.625,-25.391,-75.684,0.000
1737558232.208,71.289,-22.949,-27.832,-45.898,0.000
1737558232.212,-173.828,-28.809,-30.273,7.812,0.000
1737558232.216,-220.215,-28.320,-28.320,31.250,0.000
1737558232.220,-23.926,-22.949,-27.344,-22.461,0.000
1737558232.224,184.570,-11.230,-20.996,-76.172,0.000
1737558232.227,148.438,-6.836,-13.184,-56.641,0.000
1737558232.231,-113.770,-17.090,-14.648,-13.184,0.000
1737558232.235,-203.125,-29.297,-14.648,13.184,0.000
1737558232.239,-4.883,-21.973,-16.602,-20.020,0.000
1737558232.243,236.328,-7.324,-14.648,-66.406,0.000
1737558232.247,248.047,-5.859,-12.695,-48.828,0.000
1737558232.251,-4.395,-14.160,-18.066,-7.324,0.000
1737558232.255,-139.648,-21.973,-15.625,29.297,0.000
1737558232.259,13.672,-19.531,-14.160,-11.230,0.000
1737558232.263,276.855,-8.789,-15.137,-71.289,0.000
1737558232.267,300.781,-5.371,-9.766,-54.199,0.000
1737558232.270,11.230,-5.859,-10.742,-14.648,0.000
1737558232.274,-129.395,-8.301,-12.695,26.367,0.000
1737558232.278,-0.977,-9.766,-18.555,-4.395,0.000
1737558232.282,232.422,-6.348,-17.090,-74.707,0.000
1737558232.286,293.945,-6.836,-17.090,-74.707,0.000
1737558232.290,43.457,-10.254,-21.973,-31.250,0.000
1737558232.294,-128.906,-15.137,-21.973,20.996,0.000
1737558232.298,-29.297,-13.672,-22.461,3.906,0.000
1737558232.302,0.000,1.953,0.000,-43.945,0.000
1737558232.306,0.000,9.766,0.000,-37.109,0.000
1737558232.309,0.000,5.859,0.000,-10.742,0.000
1737558232.313,0.000,-6.836,0.000,24.414,0.000
1737558232.317,0.000,-16.602,0.000,6.836,0.000
1737558232.321,0.000,-4.395,0.000,-48.340,0.000
1737558232.325,0.000,0.000,0.000,-74.219,0.000
1737558232.329,0.000,-12.207,0.000,-50.781,0.000
1737558232.333,0.000,-23.926,0.000,2.930,0.000
1737558232.337,0.000,-25.879,0.000,1.953,0.000
1737558232.341,0.000,-23.926,0.000,-65.918,0.000
1737558232.345,0.000,-18.555,0.000,-87.402,0.000
1737558232.349,206.055,-16.602,-26.855,-43.457,0.000
1737558232.352,291.992,-24.414,-25.391,4.883,0.000
1737558232.356,63.965,-22.949,-23.926,16.113,0.000
1737558232.360,-165.527,-17.090,-22.949,-47.852,0.000
1737558232.364,-127.441,-3.906,-22.461,-60.059,0.000
1737558232.368,115.234,-2.930,-27.832,-20.508,0.000
1737558232.372,226.562,-19.531,-33.203,-6.836,0.000
1737558232.376,13.184,-29.785,-33.691,-15.137,0.000
1737558232.380,-230.469,-27.832,-29.297,-73.242,0.000
1737558232.384,-213.379,-19.043,-26.367,-125.977,0.000
1737558232.388,-0.488,-13.672,-19.043,-83.496,0.000
1737558232.392,138.184,-20.996,-18.555,-14.648,0.000
1737558232.395,-333.496,-27.832,-27.344,6.836,0.000
1737558232.399,-144.043,-20.020,-25.879,-39.062,0.000
1737558232.403,80.566,-10.742,-20.996,-100.586,0.000
1737558232.407,50.293,-13.672,-20.508,-86.426,0.000
1737558232.411,-207.031,-20.508,-19.531,-17.090,0.000
1737558232.415,-297.363,-21.973,-17.578,27.344,0.000
1737558232.419,-129.883,-19.043,-22.949,-35.645,0.000
1737558232.423,96.680,-12.207,-25.879,-88.379,0.000
1737558232.427,115.723,-9.277,-24.414,-54.688,0.000
1737558232.431,-151.855,-16.602,-27.344,-12.695,0.000
1737558232.434,-295.410,-20.996,-31.250,7.324,0.000
1737558232.438,-156.250,-20.508,-30.762,-29.785,0.000
1737558232.442,93.750,-13.184,-24.414,-58.105,0.000
1737558232.446,129.395,-7.812,-17.090,-62.500,0.000
1737558232.450,-147.949,-17.090,-21.973,-59.082,0.000
1737558232.454,-293.457,-20.508,-21.484,-13.672,0.000
1737558232.458,-161.133,-12.695,-15.137,-5.371,0.000
1737558232.462,66.406,-6.348,-16.113,-60.547,0.000
1737558232.466,150.391,-6.348,-16.113,-83.008,0.000
1737558232.470,-77.637,-12.207,-18.066,-62.988,0.000
1737558232.474,-274.414,-19.531,-21.484,-20.020,0.000
1737558232.477,-195.312,-20.508,-22.949,-24.902,0.000
1737558232.481,47.363,-10.254,-21.484,-79.102,0.000
1737558232.485,161.621,-1.953,-19.531,-95.215,0.000
1737558232.489,-18.066,-6.836,-25.391,-67.871,0.000
1737558232.493,-208.008,-18.555,-25.879,-10.254,0.000
1737558232.497,-171.875,-20.508,-23.926,-10.742,0.000
1737558232.501,69.336,-8.789,-23.926,-69.336,0.000
1737558232.505,228.516,2.441,-20.508,-69.336,0.000
1737558232.509,49.805,0.977,-20.996,-41.504,0.000
1737558232.513,-188.477,-17.090,-24.414,-7.324,0.000
1737558232.517,-161.133,-24.902,-27.832,-7.812,0.000
1737558232.520,76.172,-15.137,-30.762,-63.477,0.000
1737558232.524,226.562,-8.301,-25.391,-85.938,0.000
1737558232.528,98.145,-5.371,-20.996,-45.898,0.000
1737558232.532,-134.766,-14.160,-20.508,1.465,0.000
1737558232.536,-165.527,-24.902,-24.414,0.000,0.000
1737558232.540,57.617,-14.648,-29.297,0.000,0.000
1737558232.544,252.930,-5.859,-26.367,0.000,0.000
1737558232.548,135.742,-9.766,-23.926,0.000,0.000
1737558232.552,-118.164,-15.137,-19.531,0.000,0.000
1737558232.556,-186.523,-11.719,-19.043,0.000,0.000
1737558232.559,-11.719,-7.324,-23.438,0.000,0.000
1737558232.563,207.031,-5.371,-24.414,0.000,0.000
1737558232.567,153.320,-6.348,-23.438,0.000,0.000
1737558232.571,-121.582,-17.090,-25.391,0.000,0.000
1737558232.575,-195.312,-17.090,-22.461,0.000,0.000
1737558232.579,-29.297,-11.719,-23.926,0.000,0.000
1737558232.583,162.598,-4.883,-29.297,-91.797,0.000
1737558232.587,145.020,-6.836,-29.297,-67.871,0.000
1737558232.591,-116.211,-19.531,-32.715,-31.738,0.000
1737558232.595,-227.051,-22.461,-35.156,4.395,0.000
1737558232.599,-63.965,-13.672,-31.250,-17.090,0.000
1737558232.602,166.504,-1.465,-25.879,-74.219,0.000
1737558232.606,201.172,-0.488,-23.438,-64.941,0.000
1737558232.610,-55.664,-9.277,-23.926,-28.320,0.000
1737558232.614,-216.797,-19.531,-27.344,-7.812,0.000
1737558232.618,-105.469,-22.949,-28.320,-48.340,0.000
1737558232.622,104.004,-7.812,-26.367,-88.867,0.000
1737558232.626,144.531,-2.930,-32.715,-81.055,0.000
1737558232.630,0.000,-11.719,-30.762,-40.527,0.000
1737558232.634,0.000,-18.555,-27.344,1.465,0.000
1737558232.638,0.000,-19.531,-27.832,-22.949,0.000
1737558232.642,0.000,-10.254,-23.926,-65.430,0.000
1737558232.645,0.000,0.000,-20.996,-61.523,0.000
1737558232.649,0.000,-0.977,-17.578,-23.926,0.000
1737558232.653,0.000,-6.836,-15.625,13.672,0.000
1737558232.657,0.000,-12.207,-13.184,-3.906,0.000
1737558232.661,0.000,-11.719,-17.578,-58.594,0.000
1737558232.665,0.000,-3.418,-17.578,-64.453,0.000
1737558232.669,0.000,-11.719,-15.625,-40.039,0.000
1737558232.673,0.000,-22.461,-13.672,-6.348,0.000
1737558232.677,-271.484,-19.531,-13.672,-5.859,0.000
1737558232.681,-30.762,-12.207,-16.113,-52.734,0.000
1737558232.684,129.395,1.465,-17.090,-77.148,0.000
1737558232.688,-32.227,-0.977,-19.531,-66.406,0.000
1737558232.692,-282.227,-9.277,-16.602,-20.996,0.000
1737558232.696,-287.598,-10.254,-17.578,7.324,0.000
1737558232.700,-80.566,-16.113,-28.320,-39.062,0.000
1737558232.704,92.773,-15.137,-28.809,-74.707,0.000
1737558232.708,5.859,-6.348,-24.902,-56.152,0.000
1737558232.712,-247.070,-7.324,-26.855,-4.395,0.000
1737558232.716,-293.457,-10.742,-28.809,22.461,0.000
1737558232.720,-91.797,-6.836,-28.809,-37.109,0.000
1737558232.724,123.535,8.301,-21.973,-65.430,0.000
1737558232.727,61.035,8.789,-20.508,-45.410,0.000
1737558232.731,-224.121,-5.371,-25.879,-10.254,0.000
1737558232.735,-294.434,-16.113,-28.320,15.137,0.000
1737558232.739,-89.844,-12.695,-28.320,-49.316,0.000
1737558232.743,147.461,4.395,-26.367,-85.938,0.000
1737558232.747,117.676,5.859,-24.414,-54.199,0.000
1737558232.751,-148.926,-9.277,-22.461,-22.949,0.000
1737558232.755,-238.770,-14.648,-24.414,-3.906,0.000
1737558232.759,-59.082,-12.695,-27.832,-33.203,0.000
1737558232.763,190.430,-7.324,-23.926,-65.430,0.000
1737558232.767,223.633,-0.488,-20.996,-52.734,0.000
1737558232.770,-26.367,-7.324,-21.484,-14.160,0.000
1737558232.774,-175.293,-18.555,-22.949,27.344,0.000
1737558232.778,-41.992,-16.113,-22.949,0.977,0.000
1737558232.782,181.152,-11.719,-17.578,-67.383,0.000
1737558232.786,219.727,-14.160,-14.160,-81.055,0.000
1737558232.790,0.977,-13.672,-18.066,-28.320,0.000
1737558232.794,-163.574,-24.414,-27.344,4.395,0.000
1737558232.798,-49.805,-24.414,-25.879,-25.391,0.000
1737558232.802,203.125,-7.812,-24.902,-63.477,0.000
1737558232.806,289.062,-2.441,-22.461,-60.547,0.000
1737558232.809,90.820,-5.859,-16.113,-34.180,0.000
1737558232.813,-119.629,-16.602,-20.508,-2.441,0.000
1737558232.817,0.000,-22.949,0.000,-20.996,0.000
1737558232.821,0.000,-12.207,0.000,-76.172,0.000
1737558232.825,0.000,0.000,0.000,-75.684,0.000
1737558232.829,0.000,-1.465,0.000,-41.992,0.000
1737558232.833,0.000,-9.277,0.000,5.859,0.000
1737558232.837,0.000,-7.812,0.000,12.207,0.000
1737558232.841,0.000,-11.230,0.000,-72.266,0.000
1737558232.845,0.000,-9.766,0.000,-99.121,0.000
1737558232.849,0.000,-7.812,0.000,-44.434,0.000
1737558232.852,0.000,-20.508,0.000,-10.254,0.000
1737558232.856,0.000,-16.602,0.000,3.418,0.000
1737558232.860,0.000,-5.371,0.000,-28.809,0.000
1737558232.864,262.207,-1.953,-21.484,-62.988,0.000
1737558232.868,91.309,-7.324,-22.949,-38.574,0.000
1737558232.872,-168.945,-18.555,-27.832,7.812,0.000
1737558232.876,-210.449,-24.902,-29.785,4.395,0.000
1737558232.880,-11.230,-17.578,-25.879,-52.734,0.000
1737558232.884,176.270,-9.277,-20.508,-78.613,0.000
1737558232.888,89.844,-6.836,-12.695,-40.039,0.000
1737558232.892,-183.105,-15.137,-16.113,2.441,0.000
1737558232.895,-264.648,-24.902,-23.926,14.648,0.000
1737558232.899,-66.895,-15.137,-23.438,-27.832,0.000
1737558232.903,136.719,-4.395,-21.484,-62.500,0.000
1737558232.907,75.195,-7.324,-23.926,-51.758,0.000
1737558232.911,-205.566,-15.625,-30.273,0.000,0.000
1737558232.915,-304.199,-17.578,-30.762,0.000,0.000
1737558232.919,-125.488,-18.555,-26.855,0.000,0.000
1737558232.923,82.031,-9.277,-28.809,0.000,0.000
1737558232.927,46.875,-4.883,-26.367,0.000,0.000
1737558232.931,-219.238,-11.719,-26.855,0.000,0.000
1737558232.934,-371.094,-20.508,-33.691,0.000,0.000
1737558232.938,-249.512,-24.414,-32.715,0.000,0.000
1737558232.942,-9.766,-12.207,-31.250,0.000,0.000
1737558232.946,29.785,-6.836,-31.738,0.000,0.000
1737558232.950,-229.004,-13.672,-29.785,0.000,0.000
1737558232.954,-393.555,-22.461,-28.809,0.000,0.000
1737558232.958,0.000,-21.484,-30.762,-46.387,0.000
1737558232.962,0.000,-10.742,-28.320,-91.309,0.000
1737558232.966,0.000,-7.324,-20.508,-83.984,0.000
1737558232.970,0.000,-16.602,-18.555,-51.758,0.000
1737558232.974,0.000,-24.414,-20.996,0.977,0.000
1737558232.977,0.000,-23.926,-23.438,-13.184,0.000
1737558232.981,0.000,-15.625,-22.949,-83.496,0.000
1737558232.985,0.000,-11.230,-23.438,-100.098,0.000
1737558232.989,0.000,-16.113,-26.855,-59.570,0.000
1737558232.993,0.000,-28.320,-29.297,-35.156,0.000
1737558232.997,0.000,-25.879,-21.484,-28.809,0.000
1737558233.001,0.000,-12.695,-22.949,-63.477,0.000
1737558233.005,191.406,-5.371,-24.902,-104.492,0.000
1737558233.009,12.207,-0.488,-20.508,-76.660,0.000
1737558233.013,-213.867,-7.812,-27.832,-21.484,0.000
1737558233.017,-189.941,-12.207,-26.367,-3.906,0.000
1737558233.020,51.270,-9.277,-26.367,-67.871,0.000
1737558233.024,231.934,1.465,-23.438,-89.844,0.000
1737558233.028,84.961,-2.930,-20.508,-58.594,0.000
1737558233.032,-161.133,-26.367,-25.391,-17.090,0.000
1737558233.036,-146.973,-28.320,-24.902,7.324,0.000
1737558233.040,94.727,-19.043,-24.414,-51.270,0.000
1737558233.044,284.180,-11.230,-23.926,-82.520,0.000
1737558233.048,159.180,-15.625,-25.879,-65.918,0.000
1737558233.052,-99.609,-23.926,-24.414,-18.066,0.000
1737558233.056,-132.324,-19.043,-24.414,10.742,0.000
1737558233.059,92.285,-17.090,-28.809,-43.945,0.000
1737558233.063,288.574,-15.137,-21.484,-63.965,0.000
1737558233.067,206.543,-16.602,-19.531,-33.691,0.000
1737558233.071,-32.715,-20.020,-21.973,2.930,0.000
1737558233.075,-138.672,-28.809,-24.902,6.348,0.000
1737558233.079,3.906,-32.227,-25.879,-47.852,0.000
1737558233.083,231.445,-21.973,-23.926,-71.777,0.000
1737558233.087,187.500,-21.484,-24.902,-62.012,0.000
1737558233.091,-98.633,-23.926,-21.484,-28.809,0.000
1737558233.095,-203.125,-27.832,-24.902,10.254,0.000
1737558233.099,-44.434,-24.414,-29.785,-43.945,0.000
1737558233.102,166.992,-13.672,-26.855,-93.262,0.000
1737558233.106,158.203,-17.578,-25.391,-74.707,0.000
1737558233.110,-117.676,-26.367,-30.762,-41.504,0.000
1737558233.114,-252.930,-27.344,-29.297,10.742,0.000
1737558233.118,-119.629,-22.949,-22.461,-10.742,0.000
1737558233.122,81.055,-19.531,-24.414,-84.473,0.000
1737558233.126,106.934,-20.020,-22.461,-91.797,0.000
1737558233.130,-131.348,-25.391,-26.367,-46.387,0.000
1737558233.134,-299.805,-32.227,-30.273,10.254,0.000
1737558233.138,-211.426,-26.367,-32.715,-20.020,0.000
1737558233.141,32.227,-15.137,-31.250,-97.656,0.000
1737558233.145,122.070,-14.648,-18.066,-76.660,0.000
1737558233.149,-111.816,-19.531,-19.043,-24.414,0.000
1737558233.153,-296.875,-20.020,-27.832,17.090,0.000
1737558233.157,-251.953,-25.879,-36.621,-9.277,0.000
1737558233.161,-37.109,-32.715,-37.598,-100.586,0.000
1737558233.165,106.445,-20.996,-30.762,-86.914,0.000
1737558233.169,-56.641,-15.625,-32.715,-16.113,0.000
1737558233.173,-288.574,-30.762,-37.598,19.043,0.000
1737558233.177,-273.438,-34.668,-33.691,12.695,0.000
1737558233.181,-28.320,-20.996,-25.391,-47.363,0.000
1737558233.184,110.352,-11.230,-27.344,-75.684,0.000
1737558233.188,-43.457,-18.066,-28.809,-42.969,0.000
1737558233.192,-247.070,-21.484,-31.250,6.836,0.000
1737558233.196,-215.332,-10.742,-35.156,14.648,0.000
1737558233.200,11.719,-3.906,-30.762,-38.574,0.000
1737558233.204,166.504,-4.395,-24.902,-70.801,0.000
1737558233.208,40.039,-6.836,-25.879,-39.062,0.000
1737558233.212,-194.824,-15.137,-31.738,19.531,0.000
1737558233.216,-237.793,-19.531,-32.227,15.625,0.000
1737558233.220,-52.246,-17.578,-32.227,-58.594,0.000
1737558233.224,173.340,-3.906,-33.203,-68.848,0.000
1737558233.227,104.004,-4.883,-28.809,-44.922,0.000
1737558233.231,-180.176,-33.691,-24.414,-27.344,0.000
1737558233.235,-217.285,-32.227,-22.949,11.230,0.000
1737558233.239,10.742,-12.207,-25.879,-27.832,0.000
1737558233.243,231.445,-5.859,-21.973,-77.637,0.000
1737558233.247,171.387,-9.766,-24.902,-55.664,0.000
1737558233.251,-110.352,-24.414,-32.227,-17.090,0.000
1737558233.255,-188.965,-23.438,-31.250,12.207,0.000
1737558233.259,13.672,-7.812,-24.414,-2.930,0.000
1737558233.263,247.559,-6.836,-20.020,-45.898,0.000
1737558233.266,203.613,-16.113,-19.531,-56.641,0.000
1737558233.270,-62.988,-25.879,-23.926,-13.184,0.000
1737558233.274,-167.969,-33.691,-24.902,12.695,0.000
1737558233.278,-34.180,-25.391,-19.043,-23.438,0.000
1737558233.282,217.285,-4.883,-14.160,-51.270,0.000
1737558233.286,259.277,-7.324,-10.742,-27.832,0.000
1737558233.290,-16.113,-29.785,-20.020,-7.324,0.000
1737558233.294,-157.715,-29.785,-20.020,23.926,0.000
1737558233.298,-12.695,-16.113,-13.184,-0.488,0.000
1737558233.302,225.586,-11.230,-9.277,-66.406,0.000
1737558233.306,295.898,-7.324,-8.789,-75.684,0.000
1737558233.309,59.570,-15.625,-17.578,-46.875,0.000
1737558233.313,-148.438,-26.367,-21.973,0.977,0.000
1737558233.317,-63.965,-25.391,-22.949,4.395,0.000
1737558233.321,176.758,-14.648,-25.391,-61.523,0.000
1737558233.325,251.465,-10.254,-22.461,-92.285,0.000
1737558233.329,48.828,-17.578,-16.113,-49.805,0.000
1737558233.333,-156.250,-27.344,-14.648,0.977,0.000
1737558233.337,-115.234,-29.297,-18.555,-5.371,0.000
1737558233.341,142.090,-15.625,-20.508,-46.875,0.000
1737558233.345,253.418,-14.160,-23.438,-65.430,0.000
1737558233.349,41.504,-27.832,-26.367,-43.945,0.000
1737558233.352,-182.617,-34.180,-28.809,-15.137,0.000
1737558233.356,-145.996,-28.809,-23.438,-18.555,0.000
1737558233.360,88.867,-14.648,-20.996,-49.805,0.000
1737558233.364,213.379,-1.953,-21.484,-46.387,0.000
1737558233.368,41.504,-4.883,-19.531,-19.531,0.000
1737558233.372,-194.824,-12.695,-22.461,-1.465,0.000
1737558233.376,-222.168,-18.555,-25.879,-12.207,0.000
1737558233.380,-6.836,-17.090,-20.996,-57.129,0.000
1737558233.384,195.312,-2.441,-17.578,-76.172,0.000
1737558233.388,48.828,-1.465,-16.602,-46.387,0.000
1737558233.391,-250.000,-20.996,-20.996,-17.090,0.000
1737558233.395,-302.246,-28.809,-27.344,-2.930,0.000
1737558233.399,-109.863,-23.438,-25.391,-54.199,0.000
1737558233.403,83.496,-11.719,-23.438,-100.586,0.000
1737558233.407,-8.301,-13.672,-25.879,-78.613,0.000
1737558233.411,-285.156,-33.203,-26.855,-39.062,0.000
1737558233.415,-335.938,-31.738,-20.020,-5.371,0.000
1737558233.419,-163.086,-22.949,-23.926,-31.250,0.000
1737558233.423,2.441,-15.625,-26.855,-77.637,0.000
1737558233.427,-43.945,-13.184,-25.879,-88.379,0.000
1737558233.431,-299.805,-17.090,-28.809,-36.621,0.000
1737558233.434,-377.930,-22.461,-23.926,9.766,0.000
1737558233.438,-200.195,-24.414,-23.438,-34.180,0.000
1737558233.442,15.625,-11.230,-19.531,-93.262,0.000
1737558233.446,22.461,-3.418,-21.484,-77.148,0.000
1737558233.450,-218.262,-13.184,-37.109,-41.016,0.000
1737558233.454,-340.332,-19.531,-40.527,-18.066,0.000
1737558233.458,-219.238,-15.137,-37.109,-35.156,0.000
1737558233.462,11.719,-6.836,-33.203,-74.707,0.000
1737558233.466,80.566,-1.953,-28.320,-82.031,0.000
1737558233.470,-154.297,-13.184,-27.344,-56.152,0.000
1737558233.474,-295.410,-15.625,-27.344,9.277,0.000
1737558233.477,-171.875,-15.625,-27.344,3.418,0.000
1737558233.481,47.363,-21.484,-29.297,-80.566,0.000
1737558233.485,145.020,-17.578,-28.809,-86.914,0.000
1737558233.489,-16.602,-14.160,-22.461,-20.996,0.000
1737558233.493,-175.293,-16.113,-22.461,41.992,0.000
1737558233.497,-113.281,-13.184,-22.949,43.457,0.000
1737558233.501,103.027,-4.883,-21.973,-37.598,0.000
1737558233.505,221.191,-2.930,-17.578,-80.078,0.000
1737558233.509,45.410,-16.113,-20.996,-39.551,0.000
1737558233.513,-153.320,-19.531,-23.438,32.715,0.000
1737558233.516,-138.672,-22.461,-27.344,6.836,0.000
1737558233.520,91.309,-18.555,-25.879,-93.750,0.000
1737558233.524,228.027,-3.418,-20.020,-100.586,0.000
1737558233.528,54.199,-4.395,-23.926,-47.363,0.000
1737558233.532,-153.320,-8.789,-23.438,8.301,0.000
1737558233.536,-133.301,-7.812,-20.508,29.297,0.000
1737558233.540,102.539,0.977,-14.648,-14.648,0.000
1737558233.544,244.141,-0.488,-19.043,-76.172,0.000
1737558233.548,105.469,-12.695,-21.484,-62.500,0.000
1737558233.552,-131.836,-16.113,-18.555,-8.301,0.000
1737558233.556,-150.879,-18.066,-23.438,9.766,0.000
1737558233.559,67.383,-14.160,-25.391,-35.645,0.000
1737558233.563,235.840,-11.230,-23.926,-80.078,0.000
1737558233.567,153.809,-12.207,-25.879,-62.012,0.000
1737558233.571,-88.867,-15.137,-26.367,-6.836,0.000
1737558233.575,-178.223,-20.020,-26.367,23.438,0.000
1737558233.579,-11.230,-13.184,-29.297,-35.645,0.000
1737558233.583,197.266,-4.883,-30.762,-87.891,0.000
1737558233.587,167.480,-5.859,-34.668,-54.199,0.000
1737558233.591,-111.816,-13.672,-37.598,-21.973,0.000
1737558233.595,-208.496,-17.090,-24.414,-9.277,0.000
1737558233.599,-19.531,-10.254,-18.066,-21.484,0.000
1737558233.602,215.332,-3.418,-22.949,-63.965,0.000
1737558233.606,189.453,-4.883,-25.391,-81.543,0.000
1737558233.610,-72.754,-7.812,-22.461,-45.898,0.000
1737558233.614,-187.988,-21.973,-18.555,0.488,0.000
1737558233.618,-78.613,-26.855,-20.508,-43.945,0.000
1737558233.622,157.227,-4.883,-19.531,-83.008,0.000
1737558233.626,207.031,0.488,-13.672,-60.547,0.000
1737558233.630,-41.016,-7.812,-18.066,-36.133,0.000
1737558233.634,-212.891,-14.160,-20.996,8.301,0.000
1737558233.638,-125.977,-21.973,-24.902,-17.578,0.000
1737558233.641,86.914,-10.254,-25.879,-87.891,0.000
1737558233.645,152.344,3.906,-14.648,-75.195,0.000
1737558233.649,-76.172,-8.301,-11.719,-34.180,0.000
1737558233.653,-264.648,-16.602,-16.602,-3.906,0.000
1737558233.657,-191.406,-16.113,-20.996,-26.855,0.000
1737558233.661,25.391,-11.719,-27.344,-81.543,0.000
1737558233.665,111.816,-2.930,-18.066,-75.684,0.000
1737558233.669,-116.699,-7.324,-13.184,-53.223,0.000
1737558233.673,-342.773,-23.438,-17.578,-21.973,0.000
1737558233.677,-275.879,-20.020,-16.113,-9.277,0.000
1737558233.681,-80.078,-10.742,-16.113,-74.707,0.000
1737558233.684,19.531,-9.766,-9.277,-78.613,0.000
1737558233.688,-122.070,-4.395,-11.230,-27.344,0.000
