timestamps,TP9,AF7,AF8,TP10,Right AUX
1737556182.551,-0.488,-1.953,-20.996,369.141,0.000
1737556182.555,-73.242,-13.184,-36.133,21.973,0.000
1737556182.559,-108.887,-34.668,-36.621,-50.781,0.000
1737556182.563,-83.496,-39.062,-11.230,70.312,0.000
1737556182.567,-27.832,-28.809,4.395,324.219,0.000
1737556182.571,0.488,-20.508,3.906,397.949,0.000
1737556182.575,-63.965,-28.809,5.859,54.199,0.000
1737556182.578,-118.164,-46.875,-18.066,-74.219,0.000
1737556182.582,-87.891,-35.645,-25.391,62.500,0.000
1737556182.586,-39.062,-16.113,-2.930,310.547,0.000
1737556182.590,-15.137,-13.184,-0.488,395.508,0.000
1737556182.594,-66.895,-23.438,-20.020,76.172,0.000
1737556182.594,-66.895,-23.438,-20.020,76.172,0.000
1737556182.598,-114.746,-37.109,-20.020,-37.109,0.000
1737556182.602,-90.820,-49.805,-14.648,28.320,0.000
1737556182.606,-49.805,-32.227,-7.812,250.488,0.000
1737556182.610,-13.672,1.465,-0.488,417.480,0.000
1737556182.614,-64.941,-20.508,-13.184,123.047,0.000
1737556182.618,-110.352,-34.668,-18.555,-41.992,0.000
1737556182.621,-84.961,-26.855,-21.484,-1.953,0.000
1737556182.625,-59.082,-27.832,-14.160,176.270,0.000
1737556182.629,-33.691,-26.367,-11.719,361.328,0.000
1737556182.633,-63.477,-31.738,-18.555,162.598,0.000
1737556182.637,-86.426,-35.156,-23.438,-20.508,0.000
1737556182.641,-83.496,-32.715,-23.926,-15.137,0.000
1737556182.645,-53.711,-22.949,-16.602,178.711,0.000
1737556182.649,1.953,-8.301,-10.254,404.785,0.000
1737556182.653,-29.785,-10.742,-9.766,200.195,0.000
1737556182.657,-66.895,-32.715,-13.672,-31.250,0.000
1737556182.661,-52.734,-22.461,-6.348,-6.836,0.000
1737556182.664,-41.992,-7.812,-11.230,142.578,0.000
1737556182.668,12.695,2.441,-9.277,373.047,0.000
1737556182.672,-17.578,-11.230,-9.766,201.660,0.000
1737556182.676,-87.891,-46.875,-31.738,-90.332,0.000
1737556182.680,-80.078,-46.387,-30.762,-97.656,0.000
1737556182.684,-50.781,-20.508,-26.367,59.570,0.000
1737556182.688,-14.160,-15.137,-21.973,323.242,0.000
1737556182.692,-9.277,-23.438,-4.883,268.066,0.000
1737556182.696,-52.734,-22.949,-13.184,-18.066,0.000
1737556182.700,-76.172,-34.668,-25.391,-84.961,0.000
1737556182.704,-58.594,-38.086,-25.391,42.480,0.000
1737556182.707,-24.902,-28.809,-13.672,304.688,0.000
1737556182.711,-4.883,-8.789,2.441,346.191,0.000
1737556182.715,-58.594,-11.719,-21.484,-11.719,0.000
1737556182.719,-97.168,-36.133,-23.926,-111.816,0.000
1737556182.723,-57.617,-16.113,-15.137,62.500,0.000
1737556182.727,-4.883,-7.812,-9.766,260.254,0.000
1737556182.731,0.000,-15.137,-4.395,315.430,0.000
1737556182.734,-50.293,-29.297,-20.996,16.602,0.000
1737556182.734,-50.293,-29.297,-20.996,16.602,0.000
1737556182.739,-81.543,-52.246,-22.949,-145.508,0.000
1737556182.743,-70.312,-52.734,-32.227,-90.820,0.000
1737556182.747,-13.672,-25.879,-30.762,198.730,0.000
1737556182.750,13.184,-11.719,-16.113,311.523,0.000
1737556182.754,-40.039,-24.414,-13.184,-6.348,0.000
1737556182.758,-62.988,-13.184,-10.254,-79.102,0.000
1737556182.762,-30.762,5.859,-26.855,40.527,0.000
1737556182.766,3.906,0.977,-16.113,234.375,0.000
1737556182.770,9.766,-1.953,-2.930,341.309,0.000
1737556182.774,-52.246,-24.902,-11.719,73.242,0.000
1737556182.777,-71.289,-41.992,-20.020,-54.688,0.000
1737556182.781,-45.410,-26.367,-22.949,-43.457,0.000
1737556182.786,-5.859,-5.371,-15.625,181.152,0.000
1737556182.790,10.742,-13.184,-18.555,375.977,0.000
1737556182.793,-39.551,-29.297,-24.414,107.910,0.000
1737556182.797,-75.195,-30.762,-19.531,-86.914,0.000
1737556182.801,-65.918,-31.738,-23.438,-42.969,0.000
1737556182.805,-36.621,-18.066,-19.043,177.246,0.000
1737556182.809,6.348,-5.859,-16.602,359.863,0.000
1737556182.813,-17.090,-14.648,-12.695,148.438,0.000
1737556182.817,-61.523,-24.902,-27.832,-60.059,0.000
1737556182.820,-71.289,-41.992,-45.410,-67.871,0.000
1737556182.824,-22.949,-24.414,-31.738,138.184,0.000
1737556182.828,35.156,12.207,-7.812,406.250,0.000
1737556182.833,-18.066,-8.301,-16.113,223.145,0.000
1737556182.836,-82.520,-25.879,-23.438,-38.574,0.000
1737556182.840,-86.914,-31.250,-26.367,-73.730,0.000
1737556182.844,-54.688,-30.762,-13.184,127.441,0.000
1737556182.848,13.672,-3.906,3.418,433.105,0.000
1737556182.852,4.883,6.348,-20.508,327.637,0.000
1737556182.856,-53.711,-18.066,-26.367,23.438,0.000
1737556182.860,-51.758,-46.875,-20.996,-21.484,0.000
1737556182.863,-23.438,-27.832,-10.254,122.559,0.000
1737556182.867,30.273,-0.977,-0.488,384.277,0.000
1737556182.871,31.250,0.000,-0.977,372.559,0.000
1737556182.875,-30.762,-3.906,-4.883,71.777,0.000
1737556182.875,-30.762,-3.906,-4.883,71.777,0.000
1737556182.880,-48.828,-30.273,-26.855,-27.832,0.000
1737556182.883,-30.273,-29.785,-9.277,141.602,0.000
1737556182.887,22.949,4.395,20.020,427.734,0.000
1737556182.891,41.504,16.113,22.461,417.480,0.000
1737556182.895,-26.367,-9.766,13.672,91.797,0.000
1737556182.899,-67.383,-27.832,-8.301,12.207,0.000
1737556182.903,-40.527,-9.766,0.488,117.676,0.000
1737556182.907,-7.324,-20.020,7.812,302.246,0.000
1737556182.910,11.719,-19.531,6.348,413.574,0.000
1737556182.914,-29.297,-8.789,-2.441,76.172,0.000
1737556182.918,-77.637,-32.715,-5.859,-92.285,0.000
1737556182.922,-77.637,-40.527,0.000,35.645,0.000
1737556182.926,-25.879,-17.578,-9.277,259.277,0.000
1737556182.930,19.043,-5.859,-3.906,375.488,0.000
1737556182.934,-25.391,-11.719,-2.441,119.629,0.000
1737556182.938,-65.918,-22.461,-13.672,-28.320,0.000
1737556182.942,-54.688,-18.555,-16.113,32.227,0.000
1737556182.946,0.488,8.789,-11.719,296.387,0.000
1737556182.950,43.945,26.855,-7.324,449.707,0.000
1737556182.953,-26.855,-8.789,-7.812,137.207,0.000
1737556182.957,-72.754,-46.875,-26.855,-42.969,0.000
1737556182.961,-43.945,-23.438,-24.414,28.320,0.000
1737556182.965,-7.812,-8.789,-2.441,211.426,0.000
1737556182.969,17.578,-16.602,-5.859,373.535,0.000
1737556182.973,-4.883,-17.578,-7.812,187.500,0.000
1737556182.977,-61.035,-25.879,-19.531,0.488,0.000
1737556182.981,-74.707,-31.250,-35.156,-19.043,0.000
1737556182.985,-19.043,-14.160,-16.113,186.035,0.000
1737556182.989,32.715,4.883,-0.977,435.059,0.000
1737556182.993,26.367,12.695,-1.465,292.480,0.000
1737556182.996,-19.531,-13.184,-27.344,31.738,0.000
1737556183.000,-60.059,-38.086,-25.879,8.301,0.000
1737556183.004,-37.109,-21.973,8.789,179.688,0.000
1737556183.008,5.371,-6.836,15.137,419.434,0.000
1737556183.012,-17.578,-10.254,0.977,313.477,0.000
1737556183.016,-60.059,-20.996,-19.531,29.297,0.000
1737556183.016,-60.059,-20.996,-19.531,29.297,0.000
1737556183.020,-66.406,-24.902,-11.719,8.789,0.000
1737556183.024,-45.898,-20.508,7.324,160.645,0.000
1737556183.028,0.000,-7.812,20.020,400.391,0.000
1737556183.032,-5.859,-14.648,16.113,347.168,0.000
1737556183.036,-71.289,-35.645,2.930,33.691,0.000
1737556183.039,-59.570,-24.902,-3.906,17.578,0.000
1737556183.043,-0.977,-4.395,-2.441,162.598,0.000
1737556183.047,31.738,-1.465,3.418,369.141,0.000
1737556183.051,-5.859,-15.137,-0.977,299.316,0.000
1737556183.055,-82.031,-39.062,-19.531,-24.902,0.000
1737556183.059,-92.285,-37.109,-27.344,-108.398,0.000
1737556183.063,-56.152,-12.695,-21.484,-29.785,0.000
1737556183.067,-41.992,2.930,-37.109,156.738,0.000
1737556183.071,-77.148,-18.066,-72.754,83.008,0.000
1737556183.075,-122.559,-31.738,-99.609,-218.262,0.000
1737556183.079,-154.297,-45.410,-125.977,-322.266,0.000
1737556183.082,-155.273,-45.410,-145.996,-262.207,0.000
1737556183.086,-97.656,-28.320,-134.766,9.277,0.000
1737556183.090,-66.406,-29.785,-143.066,46.387,0.000
1737556183.094,-135.254,-51.758,-174.805,-279.297,0.000
1737556183.098,-166.016,-67.383,-176.758,-366.699,0.000
1737556183.102,-160.645,-60.547,-163.086,-298.828,0.000
1737556183.106,-128.906,-45.410,-170.410,-114.746,0.000
1737556183.109,-110.352,-42.969,-148.438,27.344,0.000
1737556183.114,-145.020,-42.480,-111.328,-166.992,0.000
1737556183.118,-164.551,-46.387,-111.816,-292.480,0.000
1737556183.122,-159.180,-54.199,-116.211,-221.680,0.000
1737556183.126,-129.883,-52.734,-102.539,-20.996,0.000
1737556183.129,-118.164,-39.062,-83.496,232.910,0.000
1737556183.133,-119.629,-11.230,-81.543,90.820,0.000
1737556183.137,-175.293,-24.414,-80.078,-166.016,0.000
1737556183.141,-206.543,-41.016,-65.430,-147.949,0.000
1737556183.145,-167.480,-24.902,-51.758,116.699,0.000
1737556183.149,-109.375,-8.301,-26.855,370.117,0.000
1737556183.153,-96.680,-20.508,8.301,168.457,0.000
1737556183.156,-125.977,-30.762,12.695,-62.988,0.000
1737556183.156,-125.977,-30.762,12.695,-62.988,0.000
1737556183.161,-139.648,-29.785,-2.930,-68.359,0.000
1737556183.165,-105.957,-22.949,7.812,132.812,0.000
1737556183.169,-50.781,-10.254,31.738,397.461,0.000
1737556183.172,-46.875,-12.695,37.109,262.207,0.000
1737556183.176,-64.941,-20.996,15.137,17.090,0.000
1737556183.180,-48.340,-5.371,14.648,36.621,0.000
1737556183.184,-8.789,5.371,40.527,188.477,0.000
1737556183.188,46.387,-0.977,64.453,450.195,0.000
1737556183.192,56.152,-6.348,63.965,392.090,0.000
1737556183.196,11.719,-20.996,42.969,76.660,0.000
1737556183.199,0.488,-21.484,37.598,29.297,0.000
1737556183.203,53.223,-7.812,41.992,152.832,0.000
1737556183.208,102.051,-1.465,52.246,383.301,0.000
1737556183.212,85.938,-9.766,58.105,344.238,0.000
1737556183.215,57.129,-18.066,38.574,55.664,0.000
1737556183.219,53.711,-15.625,26.367,23.926,0.000
1737556183.223,95.215,6.348,32.227,146.973,0.000
1737556183.227,122.070,22.461,47.363,409.668,0.000
1737556183.231,98.633,7.324,48.828,395.996,0.000
1737556183.235,53.711,-6.348,38.086,102.051,0.000
1737556183.239,29.785,-7.324,23.438,34.668,0.000
1737556183.242,42.969,-11.719,15.137,101.562,0.000
1737556183.246,89.355,0.488,24.902,342.773,0.000
1737556183.250,107.910,20.508,44.922,456.543,0.000
1737556183.255,52.734,0.488,29.785,169.922,0.000
1737556183.259,21.973,-23.926,6.348,6.836,0.000
1737556183.262,48.340,-11.719,15.137,79.590,0.000
1737556183.266,104.492,11.230,23.438,329.102,0.000
1737556183.270,117.676,14.160,33.203,441.406,0.000
1737556183.274,78.613,9.277,35.645,179.688,0.000
1737556183.278,38.086,-12.207,18.555,-15.137,0.000
1737556183.282,3.906,-43.457,8.301,-14.648,0.000
1737556183.286,50.293,-25.879,7.812,233.887,0.000
1737556183.289,105.469,-7.324,17.578,414.062,0.000
1737556183.293,43.945,-27.344,17.090,178.711,0.000
1737556183.297,-11.719,-27.832,16.113,13.184,0.000
1737556183.297,-11.719,-27.832,16.113,13.184,0.000
1737556183.302,10.254,-14.160,10.742,24.414,0.000
1737556183.305,32.227,-18.555,11.230,203.125,0.000
1737556183.309,66.895,-12.207,20.020,431.641,0.000
1737556183.313,34.180,-5.859,9.766,222.656,0.000
1737556183.317,-29.297,-27.344,-4.883,-8.789,0.000
1737556183.321,-17.090,-16.113,17.578,23.926,0.000
1737556183.325,8.301,-1.953,23.438,166.016,0.000
1737556183.329,24.414,-18.066,1.953,354.492,0.000
1737556183.332,16.113,-29.297,2.441,218.750,0.000
1737556183.336,-23.438,-40.527,-2.930,-50.781,0.000
1737556183.340,-35.645,-32.227,9.277,-30.273,0.000
1737556183.344,1.465,-9.766,16.113,118.164,0.000
1737556183.348,39.551,-7.324,-2.441,283.203,0.000
1737556183.352,18.066,-16.602,-4.395,191.895,0.000
1737556183.356,-56.152,-32.715,-9.766,-105.469,0.000
1737556183.360,-65.430,-36.621,-13.672,-162.109,0.000
1737556183.364,-25.879,-22.461,1.465,14.160,0.000
1737556183.368,18.555,-6.348,15.137,295.898,0.000
1737556183.372,29.785,-2.441,5.371,229.980,0.000
1737556183.375,-31.738,-22.949,-5.859,-104.004,0.000
1737556183.379,-62.500,-40.527,-15.137,-162.598,0.000
1737556183.383,-40.039,-37.598,-14.160,-37.598,0.000
1737556183.387,20.020,-11.719,0.488,237.305,0.000
1737556183.391,36.621,5.371,8.301,282.715,0.000
1737556183.395,-25.391,-6.348,4.395,-30.762,0.000
1737556183.399,-38.086,-9.766,-3.418,-98.633,0.000
1737556183.403,-43.945,-23.438,-3.906,-30.762,0.000
1737556183.407,2.441,-11.230,2.930,240.723,0.000
1737556183.411,50.293,9.277,3.418,352.539,0.000
1737556183.415,-7.812,-5.371,2.930,49.805,0.000
1737556183.418,-20.996,-1.465,3.906,-37.109,0.000
1737556183.422,-20.996,-14.648,-1.465,-12.207,0.000
1737556183.426,-4.883,-23.438,-2.441,171.387,0.000
1737556183.430,11.230,-23.926,-5.859,349.121,0.000
1737556183.434,-41.504,-32.227,-19.531,116.699,0.000
1737556183.438,-63.477,-37.598,-19.531,-98.145,0.000
1737556183.438,-63.477,-37.598,-19.531,-98.145,0.000
1737556183.442,-61.035,-44.434,3.906,-57.129,0.000
1737556183.446,-23.438,-15.625,26.367,187.988,0.000
1737556183.450,5.859,-0.488,15.625,347.656,0.000
1737556183.454,-35.156,-22.949,-2.441,84.473,0.000
1737556183.458,-64.453,-33.691,-1.465,-84.473,0.000
1737556183.461,-42.969,-22.461,-1.953,-3.418,0.000
1737556183.465,-4.883,-4.883,4.883,176.270,0.000
1737556183.469,21.973,-9.277,0.488,325.684,0.000
1737556183.473,-28.809,-31.738,-8.789,86.914,0.000
1737556183.477,-77.148,-45.898,-20.508,-110.840,0.000
1737556183.481,-49.316,-43.457,-19.531,-80.566,0.000
1737556183.485,-12.695,-24.414,1.953,88.867,0.000
1737556183.489,26.855,-5.371,3.906,330.078,0.000
1737556183.493,1.953,-15.625,0.488,173.340,0.000
1737556183.497,-44.922,-23.926,-14.160,-69.336,0.000
1737556183.501,-38.574,-14.648,-14.648,-59.082,0.000
1737556183.504,20.020,-14.160,-5.371,66.895,0.000
1737556183.508,50.293,-5.859,0.000,334.473,0.000
1737556183.512,-16.602,-9.766,-4.395,241.211,0.000
1737556183.516,-64.941,-35.156,-18.066,-79.590,0.000
1737556183.520,-62.988,-32.227,-15.625,-95.215,0.000
1737556183.524,-31.738,-14.160,-5.859,35.645,0.000
1737556183.528,29.785,-7.812,4.883,305.664,0.000
1737556183.531,24.902,-18.066,5.859,261.719,0.000
1737556183.536,-63.965,-33.203,-0.977,-63.477,0.000
1737556183.540,-75.195,-27.344,-8.789,-98.145,0.000
1737556183.544,-40.527,-16.113,-8.301,30.762,0.000
1737556183.547,3.906,-5.859,3.906,253.418,0.000
1737556183.551,5.859,-7.812,3.418,256.348,0.000
1737556183.555,-39.551,-13.184,-18.066,-36.133,0.000
1737556183.559,-61.523,-26.367,-28.809,-115.234,0.000
1737556183.563,-62.988,-38.574,-16.113,-18.555,0.000
1737556183.567,2.441,-20.996,-1.465,236.328,0.000
1737556183.571,37.598,-13.184,-3.418,303.223,0.000
1737556183.575,-20.508,-29.297,-0.488,3.906,0.000
1737556183.578,-48.828,-37.598,-4.883,-81.055,0.000
1737556183.578,-48.828,-37.598,-4.883,-81.055,0.000
1737556183.583,-41.016,-35.645,-11.230,-10.742,0.000
1737556183.587,-5.371,-20.020,-1.465,199.707,0.000
1737556183.591,15.625,-19.043,4.883,309.570,0.000
1737556183.594,-29.785,-33.203,-13.672,-2.930,0.000
1737556183.598,-72.266,-29.785,-17.090,-164.062,0.000
1737556183.602,-47.852,-7.812,-12.207,-45.410,0.000
1737556183.606,4.883,6.836,-9.277,168.945,0.000
1737556183.610,11.230,-9.277,13.672,270.508,0.000
1737556183.614,-41.016,-27.344,1.953,14.648,0.000
1737556183.618,-78.125,-35.156,-14.160,-136.230,0.000
1737556183.621,-64.453,-23.438,-7.812,-95.703,0.000
1737556183.625,-16.113,-6.836,-20.020,127.930,0.000
1737556183.630,21.973,-9.766,-12.207,312.012,0.000
1737556183.634,-25.879,-35.156,-2.930,59.082,0.000
1737556183.637,-63.477,-31.738,-18.555,-131.836,0.000
1737556183.641,-65.430,-22.949,-17.090,-156.738,0.000
1737556183.645,-43.457,-24.414,-6.836,28.809,0.000
1737556183.649,13.184,4.883,-5.859,300.781,0.000
1737556183.653,-16.602,-10.742,-10.742,84.961,0.000
1737556183.657,-79.590,-42.969,-11.230,-193.359,0.000
1737556183.661,-52.246,-28.809,-23.926,-119.141,0.000
1737556183.664,-4.883,-3.418,-35.645,77.148,0.000
1737556183.668,17.578,0.977,-11.719,273.438,0.000
1737556183.672,8.301,-14.160,4.883,166.504,0.000
1737556183.677,-58.594,-30.762,-8.789,-109.375,0.000
1737556183.680,-83.984,-42.969,-30.762,-156.738,0.000
1737556183.684,-36.621,-30.273,-14.160,21.973,0.000
1737556183.688,18.555,0.000,13.672,284.668,0.000
1737556183.692,5.859,-7.812,3.418,214.844,0.000
1737556183.696,-43.945,-14.648,-10.254,-48.340,0.000
1737556183.700,-51.270,-2.930,-4.883,-85.938,0.000
1737556183.704,-50.781,-14.160,-0.977,8.789,0.000
1737556183.707,3.418,-13.672,-0.488,265.625,0.000
1737556183.711,13.184,-3.906,7.812,288.086,0.000
1737556183.715,-75.195,-22.461,3.418,-30.273,0.000
1737556183.719,-90.820,-39.062,-14.160,-98.633,0.000
1737556183.719,-90.820,-39.062,-14.160,-98.633,0.000
1737556183.723,-61.035,-27.344,-14.648,19.043,0.000
1737556183.727,-20.020,-5.371,1.465,250.977,0.000
1737556183.731,-15.137,-17.578,3.418,273.926,0.000
1737556183.735,-54.199,-25.879,-2.930,-12.695,0.000
1737556183.739,-72.754,-17.090,-2.930,-110.840,0.000
1737556183.743,-61.035,-8.301,-6.836,-25.879,0.000
1737556183.747,3.906,8.301,2.441,205.566,0.000
1737556183.750,18.066,-3.906,11.719,269.043,0.000
1737556183.754,-50.293,-23.438,-6.348,-7.812,0.000
1737556183.758,-75.684,-23.438,-28.320,-109.863,0.000
1737556183.762,-30.762,-1.465,-20.020,-57.617,0.000
1737556183.766,15.625,16.113,-13.672,159.668,0.000
1737556183.770,14.648,8.789,-22.461,299.805,0.000
1737556183.774,-22.949,-15.137,-16.602,43.457,0.000
1737556183.778,-64.453,-39.551,-8.789,-113.770,0.000
1737556183.782,-48.340,-32.227,-12.695,-91.309,0.000
1737556183.786,-8.301,-30.762,-11.719,103.027,0.000
1737556183.790,18.555,-17.578,-2.441,292.969,0.000
1737556183.793,-17.578,-17.578,-10.742,71.777,0.000
1737556183.797,-56.152,-39.062,-20.508,-115.723,0.000
1737556183.801,-46.387,-35.645,-25.879,-81.543,0.000
1737556183.805,-15.137,-28.809,-31.738,97.168,0.000
1737556183.809,30.273,-13.672,-18.066,333.984,0.000
1737556183.813,-12.695,-26.855,-27.344,117.676,0.000
1737556183.817,-81.055,-55.664,-40.527,-149.414,0.000
1737556183.821,-62.012,-41.016,-27.832,-102.051,0.000
1737556183.825,-20.996,-24.902,-20.508,78.613,0.000
1737556183.829,15.137,-12.207,-1.465,334.961,0.000
1737556183.833,0.977,-12.695,1.953,203.613,0.000
1737556183.836,-56.641,-19.043,-0.488,-34.180,0.000
1737556183.840,-71.777,-22.949,0.000,-57.617,0.000
1737556183.844,-52.246,-41.016,-4.883,50.293,0.000
1737556183.848,2.441,-22.461,-1.465,326.660,0.000
1737556183.852,-3.418,-3.418,0.977,249.023,0.000
1737556183.856,-66.406,-20.508,-3.418,-48.828,0.000
1737556183.860,-55.664,-24.902,-12.695,-88.867,0.000
1737556183.860,-55.664,-24.902,-12.695,-88.867,0.000
1737556183.864,-26.855,-16.602,-4.395,53.223,0.000
1737556183.868,36.621,6.836,12.695,331.543,0.000
1737556183.872,18.066,-1.953,3.906,232.422,0.000
1737556183.876,-61.035,-37.109,-0.977,-87.891,0.000
1737556183.879,-56.152,-34.668,-5.859,-110.840,0.000
1737556183.883,-43.457,-15.137,-6.348,-12.207,0.000
1737556183.887,1.953,-7.812,12.695,225.098,0.000
1737556183.891,21.484,-27.344,8.301,253.418,0.000
1737556183.895,-40.039,-38.574,-19.043,-30.762,0.000
1737556183.899,-45.410,-17.578,-31.250,-134.766,0.000
1737556183.903,-40.527,-22.949,-26.367,-103.027,0.000
1737556183.906,-20.996,-32.715,-17.090,137.695,0.000
1737556183.911,15.137,-23.438,9.766,247.559,0.000
1737556183.915,-22.949,-19.531,-14.160,-17.090,0.000
1737556183.919,-62.500,-22.949,-49.316,-136.230,0.000
1737556183.923,-45.410,-23.438,-21.484,-64.941,0.000
1737556183.926,-0.488,-6.836,1.465,183.105,0.000
1737556183.930,20.020,-2.930,2.930,316.895,0.000
1737556183.934,-24.902,-19.531,-18.066,46.875,0.000
1737556183.938,-57.617,-32.227,-20.508,-89.844,0.000
1737556183.942,-51.270,-27.832,-22.461,-30.273,0.000
1737556183.946,-13.184,-1.465,-21.484,205.566,0.000
1737556183.950,23.926,6.836,-2.441,369.141,0.000
1737556183.953,-27.344,-15.625,-0.488,101.074,0.000
1737556183.958,-72.754,-30.762,-9.277,-72.266,0.000
1737556183.962,-51.270,-30.762,-17.090,-44.922,0.000
1737556183.966,-5.859,-24.902,-2.441,159.180,0.000
1737556183.969,18.555,-16.113,7.812,353.516,0.000
1737556183.973,-11.719,-19.043,2.441,143.555,0.000
1737556183.977,-39.551,-26.855,-18.555,-46.387,0.000
1737556183.981,-45.410,-22.461,-10.742,-60.059,0.000
1737556183.985,-1.465,-12.207,13.672,102.539,0.000
1737556183.989,62.500,-2.930,0.488,351.074,0.000
1737556183.993,9.766,-10.254,-8.789,169.434,0.000
1737556183.996,-67.871,-28.320,-22.949,-138.184,0.000
1737556184.000,-92.773,-34.668,-35.156,-176.270,0.000
1737556184.000,-92.773,-34.668,-35.156,-176.270,0.000
1737556184.005,-92.773,-30.762,-33.203,-64.453,0.000
1737556184.009,-76.660,-20.996,-37.598,149.902,0.000
1737556184.012,-113.770,-30.762,-62.012,4.883,0.000
1737556184.016,-165.527,-49.805,-87.402,-301.758,0.000
1737556184.020,-155.273,-44.434,-92.773,-311.035,0.000
1737556184.024,-121.582,-18.555,-125.977,-170.898,0.000
1737556184.028,-100.586,-20.508,-141.113,42.480,0.000
1737556184.032,-75.684,-48.828,-138.184,-44.434,0.000
1737556184.036,-120.117,-62.012,-167.969,-303.711,0.000
1737556184.040,-164.062,-63.477,-165.039,-348.633,0.000
1737556184.043,-140.625,-64.453,-170.410,-269.043,0.000
1737556184.047,-86.914,-41.504,-155.762,41.504,0.000
1737556184.052,-104.492,-33.691,-123.535,99.609,0.000
1737556184.056,-174.805,-64.453,-122.070,-230.469,0.000
1737556184.059,-192.383,-72.266,-101.074,-314.941,0.000
1737556184.063,-154.297,-38.086,-100.586,-214.844,0.000
1737556184.067,-109.863,-2.441,-113.770,90.332,0.000
1737556184.071,-128.906,-3.418,-71.289,236.328,0.000
1737556184.075,-192.871,-37.109,-45.410,-115.234,0.000
1737556184.079,-207.031,-44.922,-51.270,-172.852,0.000
1737556184.083,-163.086,-19.043,-17.578,12.207,0.000
1737556184.086,-121.094,-3.906,-2.441,237.793,0.000
1737556184.090,-92.285,-6.836,-20.996,348.633,0.000
1737556184.094,-107.910,-10.742,-12.695,87.891,0.000
1737556184.099,-106.445,-14.160,-4.883,10.742,0.000
1737556184.102,-64.941,-20.020,-5.371,53.223,0.000
1737556184.106,-7.812,-10.254,7.812,258.789,0.000
1737556184.110,41.016,9.766,26.367,472.168,0.000
1737556184.114,-3.418,-0.488,20.508,180.664,0.000
1737556184.118,-18.066,-1.953,17.090,41.016,0.000
1737556184.122,18.555,5.859,35.156,70.312,0.000
1737556184.126,24.414,-19.531,43.457,186.035,0.000
1737556184.129,104.492,-7.812,41.016,428.711,0.000
1737556184.133,118.652,1.465,40.039,240.234,0.000
1737556184.137,14.648,-16.113,42.480,34.668,0.000
1737556184.141,-4.883,-19.531,35.156,69.824,0.000
1737556184.141,-4.883,-19.531,35.156,69.824,0.000
1737556184.145,28.809,-13.672,27.832,252.441,0.000
1737556184.149,63.477,-5.371,35.156,477.051,0.000
1737556184.153,55.664,-0.977,37.598,321.777,0.000
1737556184.157,-1.953,-25.879,16.602,48.340,0.000
1737556184.161,0.000,-43.945,6.348,45.410,0.000
1737556184.165,50.293,-14.160,30.762,277.344,0.000
1737556184.169,97.656,4.883,47.852,496.582,0.000
1737556184.172,85.938,-4.395,38.086,316.895,0.000
1737556184.176,36.621,-19.043,27.344,54.688,0.000
1737556184.180,25.879,-15.137,24.902,48.828,0.000
1737556184.184,44.434,-7.324,18.555,169.922,0.000
1737556184.188,99.121,3.906,27.832,434.570,0.000
1737556184.192,98.633,2.441,29.297,386.230,0.000
1737556184.196,48.828,-16.602,14.160,64.453,0.000
1737556184.200,54.688,-10.742,11.230,42.480,0.000
1737556184.204,64.453,-11.230,15.137,126.465,0.000
1737556184.208,100.586,-12.695,18.555,341.797,0.000
1737556184.212,128.906,12.207,23.438,424.805,0.000
1737556184.215,63.965,6.348,14.648,99.609,0.000
1737556184.219,9.277,-21.973,-4.395,7.324,0.000
1737556184.223,26.855,-20.996,-11.719,169.434,0.000
1737556184.227,78.125,-1.465,3.906,423.340,0.000
1737556184.231,53.223,-11.719,27.832,474.121,0.000
1737556184.235,-22.949,-20.996,14.648,207.031,0.000
1737556184.239,-44.922,-24.902,-2.441,106.445,0.000
1737556184.243,-14.648,-19.043,10.742,221.680,0.000
1737556184.247,34.668,-4.395,28.809,471.191,0.000
1737556184.251,56.152,-11.719,17.090,503.418,0.000
1737556184.255,1.465,-14.160,-7.324,181.152,0.000
1737556184.258,-6.836,-4.395,-4.883,46.875,0.000
1737556184.262,15.625,-10.742,-20.996,30.273,0.000
1737556184.266,7.324,-12.695,-18.066,209.473,0.000
1737556184.270,8.301,7.324,-19.531,314.453,0.000
1737556184.274,-46.387,-9.766,-50.293,-42.969,0.000
1737556184.278,-122.070,-25.391,-77.637,-250.000,0.000
1737556184.282,-152.832,-18.066,-98.145,-267.090,0.000
1737556184.282,-152.832,-18.066,-98.145,-267.090,0.000
1737556184.286,-127.930,-14.160,-105.957,-86.426,0.000
1737556184.290,-97.168,-18.555,-118.652,73.242,0.000
1737556184.294,-118.652,-33.691,-140.137,-165.527,0.000
1737556184.298,-158.203,-54.688,-143.066,-382.324,0.000
1737556184.301,-157.715,-61.035,-143.555,-383.789,0.000
1737556184.305,-125.488,-42.969,-148.926,-120.605,0.000
1737556184.309,-90.332,-39.062,-140.137,91.309,0.000
1737556184.313,-100.586,-50.293,-128.906,-106.445,0.000
1737556184.317,-135.742,-41.504,-114.746,-275.879,0.000
1737556184.321,-141.602,-41.992,-78.125,-271.973,0.000
1737556184.325,-135.742,-60.547,-49.805,-139.160,0.000
1737556184.328,-128.906,-44.922,-50.781,116.211,0.000
1737556184.333,-172.852,-26.855,-54.688,-11.719,0.000
1737556184.337,-219.727,-37.598,-47.363,-258.301,0.000
1737556184.341,-178.711,-22.461,-24.414,-205.078,0.000
1737556184.344,-105.957,0.000,-14.160,-30.762,0.000
1737556184.348,-64.453,-1.953,-0.977,226.562,0.000
1737556184.352,-69.824,10.742,15.137,190.430,0.000
1737556184.356,-104.492,-6.348,8.789,-116.699,0.000
1737556184.360,-116.211,-42.480,9.277,-197.754,0.000
1737556184.364,-73.242,-41.992,23.926,21.484,0.000
1737556184.368,0.000,-23.438,32.715,322.266,0.000
1737556184.372,30.762,-2.441,29.785,255.859,0.000
1737556184.375,-9.277,-6.348,23.926,-62.500,0.000
1737556184.380,-0.977,-9.766,26.855,-102.051,0.000
1737556184.384,64.941,3.418,42.969,44.434,0.000
1737556184.388,104.980,11.230,50.293,278.809,0.000
1737556184.391,92.285,7.812,48.828,322.754,0.000
1737556184.395,46.387,-14.648,35.645,-2.441,0.000
1737556184.399,52.734,-11.230,38.574,-60.547,0.000
1737556184.403,72.266,-6.348,50.781,44.434,0.000
1737556184.407,83.496,-10.742,46.387,265.137,0.000
1737556184.411,93.262,-5.859,48.340,352.539,0.000
1737556184.415,38.574,-15.625,33.203,43.945,0.000
1737556184.418,9.277,-10.742,18.066,-70.801,0.000
1737556184.422,14.648,-14.160,25.879,-24.414,0.000
1737556184.422,14.648,-14.160,25.879,-24.414,0.000
1737556184.427,56.641,-9.766,35.645,239.258,0.000
1737556184.431,88.867,-16.113,34.180,350.586,0.000
1737556184.434,31.250,-34.668,21.484,20.508,0.000
1737556184.438,-1.465,-22.949,28.320,-81.055,0.000
1737556184.442,0.977,-17.090,26.367,-29.785,0.000
1737556184.446,36.621,-1.465,13.184,166.504,0.000
1737556184.450,70.801,0.977,20.508,327.148,0.000
1737556184.454,29.297,-18.066,21.973,84.473,0.000
1737556184.458,-5.859,-23.438,15.137,-97.656,0.000
1737556184.461,-13.672,-31.738,16.113,-87.891,0.000
1737556184.465,29.785,-21.973,30.273,153.809,0.000
1737556184.469,74.707,-8.301,38.086,359.375,0.000
1737556184.474,47.363,-11.719,21.484,144.043,0.000
1737556184.477,-8.301,-14.160,7.812,-70.312,0.000
1737556184.481,-6.836,-16.113,11.719,-44.922,0.000
1737556184.485,44.434,-2.930,18.066,136.230,0.000
1737556184.489,78.613,-1.953,26.367,369.141,0.000
1737556184.493,39.551,-17.578,20.020,198.730,0.000
1737556184.497,-19.531,-18.555,2.930,-85.449,0.000
1737556184.501,-44.434,-32.715,17.578,-181.641,0.000
1737556184.504,-27.832,-36.133,14.648,-50.781,0.000
1737556184.508,38.086,-10.254,-6.836,268.066,0.000
1737556184.512,28.809,-5.859,6.348,125.000,0.000
1737556184.516,-40.039,-25.879,4.883,-219.727,0.000
1737556184.520,-45.898,-28.809,2.441,-243.652,0.000
1737556184.524,5.371,-1.465,13.184,-79.102,0.000
1737556184.528,42.969,6.348,19.043,161.133,0.000
1737556184.532,17.090,-6.836,3.418,69.824,0.000
1737556184.536,-44.922,-18.555,-8.789,-261.719,0.000
1737556184.540,-67.871,-28.320,-10.742,-318.848,0.000
1737556184.544,-55.176,-36.621,-1.953,-188.965,0.000
1737556184.547,-23.926,-41.504,13.672,52.246,0.000
1737556184.551,-19.043,-41.992,-5.859,92.773,0.000
1737556184.555,-60.059,-40.039,-27.832,-171.387,0.000
1737556184.559,-73.242,-38.574,-19.043,-239.258,0.000
1737556184.563,-47.852,-21.973,-6.348,-106.934,0.000
1737556184.563,-47.852,-21.973,-6.348,-106.934,0.000
1737556184.567,-6.836,-1.465,-2.930,135.742,0.000
1737556184.571,23.926,-8.301,-1.465,200.684,0.000
1737556184.575,-39.551,-20.508,-4.883,-116.211,0.000
1737556184.579,-92.773,-26.855,-2.930,-222.656,0.000
1737556184.583,-62.012,-31.250,-11.230,-126.465,0.000
1737556184.587,-3.418,-3.906,-7.812,158.691,0.000
1737556184.590,38.574,15.137,1.465,300.781,0.000
1737556184.594,-44.922,-26.367,-15.625,-83.984,0.000
1737556184.598,-81.055,-42.969,-27.344,-219.727,0.000
1737556184.602,-47.852,-33.691,-22.949,-135.742,0.000
1737556184.606,-24.902,-29.297,-11.230,81.543,0.000
1737556184.610,38.574,-2.930,0.000,318.359,0.000
1737556184.614,0.488,-17.090,5.859,25.879,0.000
1737556184.618,-73.730,-36.133,2.930,-201.172,0.000
1737556184.622,-61.035,-21.973,10.254,-137.695,0.000
1737556184.626,-28.809,-19.531,20.020,70.801,0.000
1737556184.630,17.090,-14.648,19.043,274.414,0.000
1737556184.634,0.488,-3.906,3.906,67.383,0.000
1737556184.637,-43.457,-18.066,-14.160,-207.520,0.000
1737556184.641,-61.035,-35.156,-14.648,-219.238,0.000
1737556184.645,-28.320,-14.160,-9.277,42.480,0.000
1737556184.649,12.207,-1.953,3.906,264.648,0.000
1737556184.653,-11.719,-19.043,12.207,69.824,0.000
1737556184.657,-62.988,-36.133,-13.672,-182.617,0.000
1737556184.661,-96.191,-43.945,-28.320,-194.824,0.000
1737556184.665,-47.852,-26.367,-13.672,-19.531,0.000
1737556184.669,27.344,5.859,-10.742,260.254,0.000
1737556184.673,8.789,-7.812,-7.812,125.000,0.000
1737556184.677,-61.523,-31.738,-11.719,-187.500,0.000
1737556184.680,-59.082,-19.043,-17.090,-197.266,0.000
1737556184.684,-29.785,-15.625,-14.160,-84.473,0.000
1737556184.688,-5.371,-11.719,-14.160,177.734,0.000
1737556184.692,-19.043,-14.648,-16.602,138.672,0.000
1737556184.696,-88.379,-25.879,-36.133,-234.863,0.000
1737556184.700,-137.207,-34.668,-56.641,-351.562,0.000
1737556184.704,-154.785,-41.992,-68.359,-253.906,0.000
1737556184.704,-154.785,-41.992,-68.359,-253.906,0.000
1737556184.708,-101.562,-25.391,-69.336,45.410,0.000
1737556184.712,-70.801,-11.719,-90.820,20.508,0.000
1737556184.716,-150.879,-34.180,-129.395,-354.492,0.000
1737556184.720,-172.852,-56.152,-149.902,-475.586,0.000
1737556184.723,-150.391,-52.246,-147.461,-371.094,0.000
1737556184.727,-112.305,-31.250,-136.719,-71.777,0.000
1737556184.731,-129.395,-34.180,-135.254,-62.500,0.000
1737556184.735,-203.613,-69.824,-138.184,-352.539,0.000
1737556184.739,-193.359,-62.988,-146.484,-393.555,0.000
1737556184.743,-197.266,-46.387,-138.184,-342.773,0.000
1737556184.747,-167.480,-31.738,-108.398,-59.570,0.000
1737556184.750,-120.605,-15.625,-76.660,85.938,0.000
1737556184.755,-199.219,-59.082,-82.520,-257.812,0.000
1737556184.759,-237.793,-73.242,-98.145,-332.520,0.000
1737556184.763,-227.539,-49.316,-64.941,-200.195,0.000
1737556184.767,-202.148,-46.387,-34.180,29.297,0.000
1737556184.770,-140.625,-37.109,-18.555,244.141,0.000
1737556184.774,-140.137,-8.301,-13.672,31.738,0.000
1737556184.778,-169.434,-10.254,-25.879,-171.875,0.000
1737556184.782,-155.273,-24.902,-30.273,-156.250,0.000
1737556184.786,-104.980,-11.230,-25.391,70.312,0.000
1737556184.790,-54.688,-6.348,-9.766,240.723,0.000
1737556184.794,-60.547,-23.438,-4.395,-29.297,0.000
1737556184.797,-44.922,-33.691,-0.488,-179.199,0.000
1737556184.802,-5.859,-21.484,9.766,-62.012,0.000
1737556184.806,-8.301,-11.230,9.766,163.574,0.000
1737556184.810,34.668,2.441,23.926,411.133,0.000
1737556184.813,31.738,5.371,19.043,213.379,0.000
1737556184.817,-8.301,-13.184,2.930,-62.012,0.000
1737556184.821,20.020,-10.742,18.555,-41.992,0.000
1737556184.825,47.852,1.465,33.203,109.863,0.000
1737556184.829,78.613,-2.930,35.645,308.105,0.000
1737556184.833,62.988,-20.996,23.438,145.508,0.000
1737556184.837,5.371,-28.809,7.812,-97.168,0.000
1737556184.840,5.859,-17.090,19.043,-63.965,0.000
1737556184.844,57.617,-20.996,33.203,77.148,0.000
1737556184.844,57.617,-20.996,33.203,77.148,0.000
1737556184.849,111.816,-15.137,37.598,366.699,0.000
1737556184.853,102.051,3.418,31.738,319.336,0.000
1737556184.856,33.203,-4.395,27.344,-25.391,0.000
1737556184.860,-7.812,-17.578,36.621,-141.602,0.000
1737556184.864,23.926,-15.137,39.551,30.762,0.000
1737556184.868,98.633,13.184,38.574,343.750,0.000
1737556184.872,104.004,11.719,35.645,269.531,0.000
1737556184.876,43.945,-18.066,17.578,-91.797,0.000
1737556184.880,27.344,-24.414,10.742,-122.070,0.000
1737556184.883,62.500,-7.812,12.695,23.438,0.000
1737556184.887,107.910,7.324,12.695,259.766,0.000
1737556184.891,99.121,-0.977,13.184,261.719,0.000
1737556184.896,29.785,-24.902,0.977,-59.570,0.000
1737556184.899,31.738,-23.926,-3.418,-115.234,0.000
1737556184.903,38.086,-20.996,17.578,-35.645,0.000
1737556184.907,72.266,-21.484,25.391,208.008,0.000
1737556184.911,127.930,-4.395,4.395,313.965,0.000
1737556184.915,57.617,3.906,-5.371,-33.203,0.000
1737556184.919,6.348,-6.348,-15.625,-213.379,0.000
1737556184.923,26.367,-24.414,-23.926,-181.152,0.000
1737556184.926,52.734,-10.254,-21.973,47.363,0.000
1737556184.930,5.371,-3.418,-23.438,132.324,0.000
1737556184.934,-101.074,-26.367,-41.016,-256.348,0.000
1737556184.938,-148.926,-30.762,-70.312,-465.332,0.000
1737556184.942,-121.094,-11.719,-90.332,-432.617,0.000
1737556184.946,-83.496,-5.371,-102.051,-282.227,0.000
1737556184.950,-69.336,-24.902,-112.305,-175.781,0.000
1737556184.954,-104.004,-45.410,-115.234,-454.590,0.000
1737556184.958,-151.367,-60.059,-125.977,-630.371,0.000
1737556184.962,-149.902,-55.176,-131.348,-563.965,0.000
1737556184.966,-80.078,-45.410,-116.211,-284.668,0.000
1737556184.969,-8.301,-31.738,-93.262,-0.488,0.000
1737556184.973,-44.922,-32.715,-88.379,-231.445,0.000
1737556184.977,-119.141,-53.711,-109.863,-465.820,0.000
1737556184.981,-136.230,-41.992,-107.910,-384.766,0.000
1737556184.985,-134.277,-30.762,-65.918,-195.801,0.000
1737556184.985,-134.277,-30.762,-65.918,-195.801,0.000
1737556184.989,-131.348,-35.156,-30.273,41.504,0.000
1737556184.993,-145.508,-38.574,-25.391,-90.332,0.000
1737556184.997,-189.453,-34.180,-26.855,-331.543,0.000
1737556185.001,-231.445,-38.086,-28.320,-341.797,0.000
1737556185.005,-213.379,-37.598,-23.926,-166.504,0.000
1737556185.009,-126.953,0.488,-1.465,164.551,0.000
1737556185.012,-111.328,5.859,-3.418,63.965,0.000
1737556185.016,-166.016,-19.531,-5.859,-237.305,0.000
1737556185.020,-135.254,-28.320,-4.395,-249.512,0.000
1737556185.024,-99.609,-35.156,-1.465,-94.238,0.000
1737556185.028,-22.461,-16.113,26.367,251.953,0.000
1737556185.032,28.320,-3.906,35.156,264.160,0.000
1737556185.036,1.465,-8.301,33.203,-59.570,0.000
1737556185.040,-3.418,-18.555,21.973,-143.555,0.000
1737556185.044,39.062,-4.395,24.414,31.250,0.000
1737556185.048,120.117,17.578,50.293,338.867,0.000
1737556185.052,133.789,0.488,47.363,313.965,0.000
1737556185.055,89.355,-7.324,32.227,-16.602,0.000
1737556185.059,44.922,-23.926,29.785,-127.930,0.000
1737556185.063,9.766,-49.805,44.434,-27.344,0.000
1737556185.067,58.594,-18.555,59.570,314.453,0.000
1737556185.071,83.984,0.977,47.363,404.785,0.000
1737556185.075,11.230,-24.902,35.645,31.738,0.000
1737556185.079,-15.625,-28.809,32.715,-57.129,0.000
1737556185.083,15.137,-14.648,28.809,68.848,0.000
1737556185.087,53.711,-7.812,30.762,296.387,0.000
1737556185.091,80.566,-2.930,42.480,415.039,0.000
1737556185.095,38.086,-11.230,35.156,81.055,0.000
1737556185.099,-2.930,-21.973,23.926,-50.293,0.000
1737556185.102,3.906,-6.348,27.344,53.711,0.000
1737556185.106,66.406,4.883,36.133,259.277,0.000
1737556185.110,94.727,-4.883,44.434,402.832,0.000
1737556185.114,33.203,-19.531,33.691,120.605,0.000
1737556185.118,-11.719,-32.715,19.043,-70.312,0.000
1737556185.122,-6.836,-33.691,11.230,-27.344,0.000
1737556185.126,57.617,-10.254,17.090,251.465,0.000
1737556185.126,57.617,-10.254,17.090,251.465,0.000
1737556185.130,103.027,8.301,23.926,477.051,0.000
1737556185.134,61.523,-8.789,20.020,185.059,0.000
1737556185.138,7.324,-26.855,6.836,-57.617,0.000
1737556185.142,8.301,-35.645,5.371,-25.879,0.000
1737556185.145,48.828,-33.203,12.207,191.895,0.000
1737556185.149,92.773,1.465,32.715,424.316,0.000
1737556185.153,62.012,3.418,41.016,162.109,0.000
1737556185.157,-3.906,-27.344,8.301,-169.922,0.000
1737556185.161,-0.977,-25.879,-2.930,-165.527,0.000
1737556185.165,39.551,-12.207,6.836,15.625,0.000
1737556185.169,58.105,-8.789,13.184,286.621,0.000
1737556185.173,20.996,-13.672,11.719,132.324,0.000
1737556185.177,-37.598,-24.414,2.930,-197.754,0.000
1737556185.181,-46.387,-27.832,-5.859,-236.328,0.000
1737556185.185,-5.371,-8.789,5.859,-66.406,0.000
1737556185.189,37.109,-3.906,6.836,186.035,0.000
1737556185.192,30.762,-17.090,9.766,134.766,0.000
1737556185.196,-19.043,-18.555,19.043,-176.758,0.000
1737556185.200,-33.203,-26.855,-10.742,-295.898,0.000
1737556185.204,-17.090,-37.598,-17.090,-137.695,0.000
1737556185.208,22.461,-20.508,-0.488,207.520,0.000
1737556185.212,34.668,-10.742,2.441,210.449,0.000
1737556185.216,-34.180,-31.250,-3.418,-183.594,0.000
1737556185.219,-51.758,-39.551,-13.672,-252.441,0.000
1737556185.224,-23.926,-28.809,-15.625,-95.703,0.000
1737556185.228,21.973,-20.996,1.953,174.316,0.000
1737556185.232,45.898,-17.090,13.184,258.789,0.000
1737556185.235,-14.648,-25.879,-0.488,-117.676,0.000
1737556185.239,-42.480,-32.715,-1.953,-231.934,0.000
1737556185.243,-19.531,-20.996,0.000,-102.051,0.000
1737556185.247,30.762,-1.953,4.883,178.223,0.000
1737556185.251,33.203,-6.836,1.953,281.738,0.000
1737556185.255,-30.762,-28.320,-19.531,-74.219,0.000
1737556185.259,-40.039,-28.320,-19.043,-185.059,0.000
1737556185.262,-15.625,-19.531,-5.859,-72.754,0.000
1737556185.266,20.020,-8.301,5.859,152.344,0.000
1737556185.266,20.020,-8.301,5.859,152.344,0.000
1737556185.271,47.363,-6.836,6.348,287.598,0.000
1737556185.275,5.859,-14.160,0.488,10.742,0.000
1737556185.278,-36.133,-23.438,-11.230,-181.641,0.000
1737556185.282,-23.438,-22.949,-12.695,-118.164,0.000
1737556185.286,41.016,-1.465,0.000,157.715,0.000
1737556185.290,65.430,21.484,20.020,375.488,0.000
1737556185.294,5.859,2.441,9.277,61.035,0.000
1737556185.298,-55.176,-24.414,-17.578,-207.031,0.000
1737556185.302,-63.477,-24.902,-14.160,-159.668,0.000
1737556185.305,-22.461,-27.344,2.441,23.926,0.000
1737556185.309,7.812,-26.855,9.766,230.469,0.000
1737556185.313,-8.789,-27.832,1.465,54.199,0.000
1737556185.318,-45.410,-32.715,-16.113,-182.129,0.000
1737556185.321,-44.922,-37.109,-23.926,-187.500,0.000
1737556185.325,-26.855,-29.297,-9.766,33.691,0.000
1737556185.329,43.457,-3.418,17.090,334.961,0.000
1737556185.333,18.555,2.441,22.949,152.344,0.000
1737556185.337,-77.637,-8.789,-0.977,-134.277,0.000
1737556185.341,-62.500,-17.578,-3.906,-137.695,0.000
1737556185.345,-19.043,-15.625,15.625,44.434,0.000
1737556185.348,36.621,5.859,20.996,312.012,0.000
1737556185.352,19.043,-1.465,15.137,149.414,0.000
1737556185.356,-49.805,-15.625,-0.488,-182.617,0.000
1737556185.360,-64.453,-29.297,-18.555,-238.281,0.000
1737556185.364,-37.598,-26.855,-8.301,-109.863,0.000
1737556185.368,13.184,-3.906,5.859,195.312,0.000
1737556185.372,6.348,-2.930,2.930,175.293,0.000
1737556185.376,-58.594,-13.672,-11.230,-219.238,0.000
1737556185.380,-70.801,-20.020,-25.879,-262.207,0.000
1737556185.384,-31.738,-8.301,-15.137,-79.590,0.000
1737556185.388,23.926,0.977,7.812,198.730,0.000
1737556185.391,24.902,-13.672,12.207,211.426,0.000
1737556185.395,-22.949,-20.508,5.371,-146.973,0.000
1737556185.399,-50.293,-21.484,3.418,-242.188,0.000
1737556185.403,-33.203,-17.578,1.465,-141.602,0.000
1737556185.407,18.555,-4.883,-5.859,123.535,0.000
1737556185.407,18.555,-4.883,-5.859,123.535,0.000
1737556185.411,19.531,-14.160,0.977,203.613,0.000
1737556185.415,-8.301,-15.625,2.930,-75.684,0.000
1737556185.419,-22.949,-10.742,-15.137,-224.121,0.000
1737556185.423,-24.902,-16.602,-17.578,-214.355,0.000
1737556185.427,14.648,-6.836,-12.695,52.246,0.000
1737556185.431,50.781,11.719,-12.695,224.609,0.000
1737556185.434,0.977,-2.930,-19.043,-93.750,0.000
1737556185.438,-40.039,-27.344,-31.250,-291.016,0.000
1737556185.442,-34.668,-29.785,-25.879,-230.957,0.000
1737556185.446,5.859,-12.695,-7.812,33.203,0.000
1737556185.450,34.180,2.441,-14.160,210.938,0.000
1737556185.454,-21.484,-13.184,-34.180,-93.262,0.000
1737556185.458,-55.664,-35.645,-41.992,-286.133,0.000
1737556185.462,-45.898,-27.832,-41.016,-220.215,0.000
1737556185.466,-2.930,0.488,-21.484,38.086,0.000
1737556185.470,25.391,7.812,-4.395,276.367,0.000
1737556185.474,-19.531,-0.977,-10.254,33.203,0.000
1737556185.477,-61.035,-5.371,-12.695,-211.426,0.000
1737556185.481,-54.688,-9.766,-10.254,-177.246,0.000
1737556185.485,-34.180,-20.508,-14.160,9.766,0.000
1737556185.489,20.996,-10.254,-5.371,291.016,0.000
1737556185.493,-26.855,-27.832,5.859,94.238,0.000
1737556185.497,-72.266,-42.969,-1.953,-196.289,0.000
1737556185.501,-47.363,-25.879,-17.578,-164.062,0.000
1737556185.505,-57.129,-24.902,-10.254,2.441,0.000
1737556185.509,-10.742,-19.043,-7.324,230.469,0.000
1737556185.513,-35.645,-12.207,-26.855,54.199,0.000
1737556185.517,-96.680,-8.789,-42.480,-298.340,0.000
1737556185.520,-123.047,-28.809,-53.711,-380.859,0.000
1737556185.524,-116.211,-20.020,-64.453,-240.723,0.000
1737556185.528,-75.684,-5.371,-70.801,11.230,0.000
1737556185.532,-106.934,-29.297,-93.750,-125.000,0.000
1737556185.536,-178.711,-53.711,-132.324,-519.531,0.000
1737556185.540,-187.012,-59.570,-156.250,-573.730,0.000
1737556185.544,-171.387,-53.711,-156.250,-448.242,0.000
1737556185.547,-130.859,-42.480,-152.344,-167.480,0.000
1737556185.547,-130.859,-42.480,-152.344,-167.480,0.000
1737556185.552,-123.535,-32.715,-150.391,-110.352,0.000
1737556185.556,-193.848,-40.527,-153.320,-416.016,0.000
1737556185.560,-206.543,-49.316,-138.672,-465.820,0.000
1737556185.563,-178.711,-49.805,-135.254,-291.504,0.000
1737556185.567,-128.418,-41.992,-134.766,21.484,0.000
1737556185.571,-83.496,-16.113,-104.980,98.145,0.000
1737556185.575,-160.645,-26.855,-95.215,-272.461,0.000
1737556185.579,-204.590,-57.617,-90.820,-409.668,0.000
1737556185.583,-189.453,-64.941,-73.730,-312.500,0.000
1737556185.587,-136.230,-34.668,-49.805,-2.930,0.000
1737556185.591,-87.402,-21.484,-20.020,159.180,0.000
1737556185.594,-142.578,-27.344,-38.086,-168.945,0.000
1737556185.599,-159.180,-26.367,-55.664,-295.410,0.000
1737556185.603,-144.531,-29.297,-28.809,-198.730,0.000
1737556185.606,-96.680,-8.301,-2.441,78.613,0.000
1737556185.610,-54.199,4.883,16.113,313.477,0.000
1737556185.614,-112.305,-7.812,0.000,26.367,0.000
1737556185.618,-140.137,-9.766,-4.883,-167.969,0.000
1737556185.622,-117.188,-0.488,12.207,-94.238,0.000
1737556185.626,-82.520,-6.348,33.203,120.117,0.000
1737556185.630,-20.020,-6.348,37.598,332.520,0.000
1737556185.634,5.371,-8.301,37.598,92.773,0.000
1737556185.637,3.418,-14.648,25.391,-166.016,0.000
1737556185.641,20.996,-2.441,14.160,-87.402,0.000
1737556185.646,55.664,-5.859,31.738,145.996,0.000
1737556185.649,120.117,-4.883,42.969,388.672,0.000
1737556185.653,133.789,3.418,45.410,209.473,0.000
1737556185.657,84.473,-17.090,32.715,-73.730,0.000
1737556185.661,79.102,-19.043,32.715,-49.316,0.000
1737556185.665,116.211,5.859,42.480,149.414,0.000
1737556185.669,169.922,19.043,52.246,438.477,0.000
1737556185.673,144.043,2.930,55.176,291.992,0.000
1737556185.677,73.242,-15.625,35.156,-47.852,0.000
1737556185.680,75.684,-14.648,25.391,-76.660,0.000
1737556185.684,88.867,-13.184,31.250,93.750,0.000
1737556185.688,109.375,-3.906,43.457,403.320,0.000
1737556185.688,109.375,-3.906,43.457,403.320,0.000
1737556185.692,99.121,-5.859,46.387,323.730,0.000
1737556185.696,65.918,-20.996,24.414,-53.223,0.000
1737556185.700,52.734,-6.348,18.066,-64.453,0.000
1737556185.704,39.062,-3.418,27.832,84.473,0.000
1737556185.708,94.727,-2.930,41.992,366.699,0.000
1737556185.712,96.191,5.859,37.109,355.957,0.000
1737556185.716,25.879,-11.719,11.230,-44.434,0.000
1737556185.720,3.906,-30.762,8.789,-134.277,0.000
1737556185.723,15.137,-25.879,14.160,28.809,0.000
1737556185.727,66.895,-9.277,15.625,289.551,0.000
1737556185.731,67.871,-7.812,25.879,325.195,0.000
1737556185.735,5.371,-19.043,23.926,26.855,0.000
1737556185.739,21.484,-15.625,8.301,-72.266,0.000
1737556185.743,30.762,-14.160,29.297,10.742,0.000
1737556185.747,76.660,1.953,34.668,302.734,0.000
1737556185.751,111.816,12.695,14.648,407.715,0.000
1737556185.755,56.641,-0.977,13.184,44.922,0.000
1737556185.759,17.578,-2.441,3.906,-90.332,0.000
1737556185.763,22.949,-7.812,4.883,-63.965,0.000
1737556185.766,38.086,-22.949,13.672,138.184,0.000
1737556185.770,63.477,-11.230,15.137,348.633,0.000
1737556185.774,8.789,-15.625,2.930,23.438,0.000
1737556185.778,-63.965,-41.992,-9.277,-211.426,0.000
1737556185.782,-35.156,-35.645,-9.277,-119.141,0.000
1737556185.786,41.016,-7.812,7.324,192.383,0.000
1737556185.790,83.984,5.859,15.137,398.438,0.000
1737556185.794,18.555,-11.230,11.719,109.375,0.000
1737556185.798,-29.297,-22.461,-5.859,-132.324,0.000
1737556185.802,-29.297,-20.508,-25.879,-110.840,0.000
1737556185.806,1.465,-11.230,-13.672,107.422,0.000
1737556185.809,23.926,-13.672,-13.672,262.207,0.000
1737556185.813,-4.883,-20.508,-17.090,39.551,0.000
1737556185.817,-18.555,-18.555,-28.809,-189.941,0.000
1737556185.821,2.930,-14.160,-40.527,-207.520,0.000
1737556185.825,-30.762,-16.113,-37.598,-73.242,0.000
1737556185.829,-38.574,-18.066,-38.574,164.551,0.000
1737556185.829,-38.574,-18.066,-38.574,164.551,0.000
1737556185.833,-31.738,-17.578,-68.848,-27.832,0.000
1737556185.837,-125.488,-42.969,-101.562,-421.875,0.000
1737556185.841,-184.082,-62.012,-118.652,-452.637,0.000
1737556185.845,-158.691,-55.664,-125.488,-266.113,0.000
1737556185.849,-76.172,-35.645,-125.000,13.184,0.000
1737556185.852,-122.559,-29.297,-122.070,-73.242,0.000
1737556185.856,-265.625,-65.918,-140.137,-478.027,0.000
1737556185.860,-248.535,-72.754,-146.973,-518.066,0.000
1737556185.864,-212.891,-67.871,-127.441,-322.266,0.000
1737556185.868,-165.527,-60.547,-128.418,-16.602,0.000
1737556185.872,-156.738,-48.828,-130.859,-38.574,0.000
1737556185.876,-199.219,-60.059,-114.746,-403.809,0.000
1737556185.880,-197.754,-69.824,-90.820,-446.289,0.000
1737556185.884,-162.598,-62.012,-74.219,-258.789,0.000
1737556185.888,-117.676,-35.645,-65.918,60.547,0.000
1737556185.892,-143.066,-20.996,-53.711,107.910,0.000
1737556185.895,-247.070,-44.434,-59.082,-251.953,0.000
1737556185.899,-278.320,-41.016,-49.805,-301.270,0.000
1737556185.903,-234.863,-20.508,-34.180,-160.645,0.000
1737556185.907,-145.020,-8.789,-19.531,144.531,0.000
1737556185.911,-68.359,-6.348,0.977,258.301,0.000
1737556185.915,-117.676,-27.344,2.441,-119.629,0.000
1737556185.919,-163.574,-31.738,1.953,-240.234,0.000
1737556185.923,-130.371,-23.438,-2.930,-112.793,0.000
1737556185.927,-75.195,-2.930,19.043,189.453,0.000
1737556185.931,-20.996,3.906,26.855,349.121,0.000
1737556185.935,-52.734,-18.066,-1.465,13.672,0.000
1737556185.939,-69.336,-19.043,11.719,-128.418,0.000
1737556185.942,-18.066,-12.695,28.809,-31.250,0.000
1737556185.946,45.410,0.000,24.414,230.957,0.000
1737556185.950,35.645,3.906,40.527,378.418,0.000
1737556185.954,-20.508,-27.344,39.062,33.203,0.000
1737556185.958,-24.414,-41.992,29.785,-177.246,0.000
1737556185.962,20.996,-22.949,26.855,-74.707,0.000
1737556185.966,101.562,8.789,33.203,191.406,0.000
1737556185.969,127.930,12.207,47.852,385.742,0.000
1737556185.969,127.930,12.207,47.852,385.742,0.000
1737556185.974,72.266,-3.906,41.992,127.441,0.000
1737556185.978,-5.371,-26.367,26.367,-144.531,0.000
1737556185.982,-37.109,-36.133,22.461,-158.691,0.000
1737556185.985,18.555,-18.555,24.414,68.848,0.000
1737556185.989,71.289,-6.836,37.109,348.145,0.000
1737556185.993,34.180,-13.184,44.922,148.926,0.000
1737556185.997,-4.883,-21.484,22.461,-152.832,0.000
1737556186.001,1.465,-40.039,23.926,-181.641,0.000
1737556186.005,37.598,-32.227,36.621,30.273,0.000
1737556186.009,74.707,-11.719,53.711,320.801,0.000
1737556186.012,65.918,-5.859,46.875,178.711,0.000
1737556186.016,9.277,-16.113,25.391,-190.430,0.000
1737556186.021,10.254,-20.020,18.066,-207.520,0.000
1737556186.025,46.387,-14.648,16.113,-21.484,0.000
1737556186.028,83.984,-2.930,25.879,262.695,0.000
1737556186.032,72.266,-9.277,15.625,177.734,0.000
1737556186.036,7.324,-23.438,6.836,-181.152,0.000
1737556186.040,-0.488,-14.160,9.277,-204.590,0.000
1737556186.044,52.734,-2.441,9.277,-43.457,0.000
1737556186.048,90.332,4.395,22.949,183.105,0.000
1737556186.052,62.500,-0.488,33.691,137.695,0.000
1737556186.055,3.418,-13.184,14.160,-199.707,0.000
1737556186.059,-13.672,-20.508,11.719,-307.129,0.000
1737556186.063,-7.324,-19.531,15.625,-190.430,0.000
1737556186.068,43.457,2.441,10.742,127.441,0.000
1737556186.071,52.734,-2.930,19.043,174.805,0.000
1737556186.075,-17.578,-24.414,6.348,-174.316,0.000
1737556186.079,-29.297,-22.949,3.418,-295.898,0.000
1737556186.083,-34.180,-29.297,0.977,-241.699,0.000
1737556186.087,-8.301,-15.137,-6.348,43.457,0.000
1737556186.091,36.133,4.883,7.324,176.270,0.000
1737556186.095,-17.578,-22.949,3.418,-236.816,0.000
1737556186.098,-46.875,-34.668,-10.254,-413.574,0.000
1737556186.102,-52.734,-31.738,-6.348,-332.520,0.000
1737556186.106,-15.625,-20.020,-12.695,-52.734,0.000
1737556186.110,35.645,-2.441,-5.371,171.875,0.000
1737556186.110,35.645,-2.441,-5.371,171.875,0.000
1737556186.114,-16.113,-24.902,-5.371,-147.949,0.000
1737556186.118,-44.434,-33.691,-11.719,-355.957,0.000
1737556186.122,-39.551,-22.949,-2.441,-327.148,0.000
1737556186.126,-15.625,-16.113,0.977,-80.566,0.000
1737556186.130,28.809,-9.277,3.418,156.738,0.000
1737556186.134,-11.719,-15.625,8.301,-105.957,0.000
1737556186.138,-52.734,-21.973,-8.301,-372.070,0.000
1737556186.141,-35.156,-16.602,-22.949,-353.027,0.000
1737556186.145,-0.488,-4.395,-10.742,-70.801,0.000
1737556186.149,50.293,6.348,0.000,190.918,0.000
1737556186.153,11.230,-5.371,-14.160,-64.453,0.000
1737556186.157,-62.500,-27.832,-33.203,-391.113,0.000
1737556186.161,-55.176,-29.785,-36.621,-382.324,0.000
1737556186.165,-8.789,-18.066,-28.320,-122.559,0.000
1737556186.169,38.086,0.000,-8.789,187.500,0.000
1737556186.173,0.000,-18.066,0.000,5.371,0.000
1737556186.177,-61.035,-41.504,-20.508,-297.363,0.000
1737556186.181,-45.898,-20.996,-21.484,-276.367,0.000
1737556186.184,-24.414,-15.137,-9.277,-98.145,0.000
1737556186.188,25.391,-17.578,-7.812,219.238,0.000
1737556186.192,14.648,-11.719,-4.395,148.926,0.000
1737556186.196,-53.711,-24.414,-16.113,-213.867,0.000
1737556186.200,-48.828,-22.461,-18.066,-222.656,0.000
1737556186.204,-26.855,-17.090,-13.672,-66.406,0.000
1737556186.208,7.324,-18.555,3.418,245.605,0.000
1737556186.212,23.438,-17.090,9.277,256.348,0.000
1737556186.216,-14.648,-19.531,-14.160,-85.938,0.000
1737556186.220,-33.691,-23.438,-27.832,-104.004,0.000
1737556186.224,-25.879,-29.785,-15.137,9.766,0.000
1737556186.227,24.902,-2.930,5.371,273.438,0.000
1737556186.231,41.016,11.719,8.301,330.566,0.000
1737556186.235,-29.785,-20.508,-1.465,-75.195,0.000
1737556186.239,-62.500,-45.410,-8.301,-201.172,0.000
1737556186.243,-50.293,-44.434,-12.695,-83.008,0.000
1737556186.247,-8.789,-20.508,4.883,198.730,0.000
1737556186.251,2.441,-2.441,7.324,296.387,0.000
1737556186.251,2.441,-2.441,7.324,296.387,0.000
1737556186.255,-55.176,-20.996,-15.137,-70.312,0.000
1737556186.259,-83.984,-41.992,-11.230,-200.684,0.000
1737556186.263,-44.922,-31.250,-8.301,-94.238,0.000
1737556186.267,4.883,-7.324,-1.465,177.734,0.000
1737556186.270,-10.254,-4.883,11.230,310.059,0.000
1737556186.274,-41.016,-15.625,-13.184,-31.250,0.000
1737556186.278,-74.219,-13.184,-35.156,-231.445,0.000
1737556186.282,-80.566,-16.602,-39.551,-191.895,0.000
1737556186.286,-54.199,-20.508,-27.344,20.996,0.000
1737556186.290,-45.410,-23.926,-26.367,171.387,0.000
1737556186.294,-79.102,-33.691,-49.316,-148.438,0.000
1737556186.297,-126.953,-33.203,-70.801,-380.859,0.000
1737556186.302,-124.512,-29.297,-123.047,-394.531,0.000
1737556186.306,-72.754,-32.715,-134.766,-189.453,0.000
1737556186.310,-51.758,-43.457,-125.977,67.871,0.000
1737556186.313,-90.820,-54.199,-139.160,-224.121,0.000
1737556186.317,-153.809,-58.594,-161.621,-560.059,0.000
1737556186.321,-178.223,-49.805,-155.762,-535.156,0.000
1737556186.325,-145.996,-36.621,-136.719,-297.363,0.000
1737556186.329,-111.816,-32.715,-122.070,3.418,0.000
1737556186.333,-128.906,-43.945,-114.746,-111.328,0.000
1737556186.337,-162.598,-48.340,-123.535,-403.320,0.000
1737556186.341,-170.410,-60.059,-121.582,-427.734,0.000
1737556186.344,-142.578,-50.781,-124.023,-227.051,0.000
1737556186.349,-79.102,-25.879,-108.887,90.820,0.000
1737556186.353,-96.191,-45.410,-69.336,-15.137,0.000
1737556186.356,-170.898,-44.434,-52.246,-390.625,0.000
1737556186.360,-172.363,-33.203,-54.199,-422.852,0.000
1737556186.364,-155.762,-23.926,-46.875,-264.160,0.000
1737556186.368,-128.418,-8.789,-24.902,93.750,0.000
1737556186.372,-143.555,-25.879,-36.621,87.891,0.000
1737556186.376,-208.496,-45.410,-41.016,-301.758,0.000
1737556186.380,-187.012,-28.809,-24.414,-319.336,0.000
1737556186.384,-118.652,-19.043,1.953,-172.363,0.000
1737556186.387,-59.082,-3.418,18.066,159.180,0.000
1737556186.391,-48.340,4.395,18.555,276.367,0.000
1737556186.391,-48.340,4.395,18.555,276.367,0.000
1737556186.396,-71.777,-14.648,14.160,-128.906,0.000
1737556186.399,-62.500,-28.320,14.648,-264.160,0.000
1737556186.403,-29.297,-20.508,16.602,-50.781,0.000
1737556186.407,34.180,2.930,20.996,284.180,0.000
1737556186.411,80.566,8.789,33.691,390.137,0.000
1737556186.415,42.969,7.812,31.250,78.613,0.000
1737556186.419,41.016,1.465,31.250,-76.172,0.000
1737556186.423,87.402,-11.230,35.645,-7.812,0.000
1737556186.427,124.023,-5.859,47.363,292.480,0.000
1737556186.430,133.301,-0.977,59.082,472.168,0.000
1737556186.434,82.031,-7.812,54.688,133.789,0.000
1737556186.438,35.156,-19.531,43.945,-46.387,0.000
1737556186.442,53.711,-13.184,40.039,56.152,0.000
1737556186.446,93.262,-3.906,49.316,305.176,0.000
1737556186.450,93.262,-4.883,60.547,478.516,0.000
1737556186.454,50.781,-13.184,41.504,162.598,0.000
1737556186.458,35.645,-18.066,18.066,-50.293,0.000
1737556186.462,59.082,7.324,39.551,46.875,0.000
1737556186.466,57.129,12.695,51.758,215.332,0.000
1737556186.470,65.918,-4.883,44.434,420.410,0.000
1737556186.473,62.500,-17.578,41.016,210.449,0.000
1737556186.477,30.273,-20.996,32.715,-67.871,0.000
1737556186.481,37.109,-10.742,19.531,-48.340,0.000
1737556186.485,78.125,-2.441,27.344,198.242,0.000
1737556186.489,97.656,-1.953,34.668,444.824,0.000
1737556186.493,64.453,-3.906,16.602,229.004,0.000
1737556186.497,38.574,-9.766,11.719,-86.426,0.000
1737556186.501,48.340,-6.348,2.930,-126.953,0.000
1737556186.505,62.988,-3.906,-1.465,55.664,0.000
1737556186.509,85.449,9.277,12.695,352.539,0.000
1737556186.513,60.547,12.695,-2.441,160.156,0.000
1737556186.516,-21.484,-18.066,-38.574,-300.781,0.000
1737556186.520,-77.637,-28.809,-66.895,-389.648,0.000
1737556186.524,-75.684,-18.555,-80.566,-265.625,0.000
1737556186.528,-3.418,-0.977,-83.008,12.207,0.000
1737556186.532,-21.484,-5.859,-104.004,-57.129,0.000
1737556186.532,-21.484,-5.859,-104.004,-57.129,0.000
1737556186.536,-131.836,-33.203,-134.766,-461.914,0.000
1737556186.540,-172.852,-49.805,-138.184,-543.457,0.000
1737556186.544,-129.395,-54.199,-129.883,-387.695,0.000
1737556186.548,-91.309,-46.875,-121.094,-104.980,0.000
1737556186.552,-85.449,-48.828,-111.816,-80.566,0.000
1737556186.556,-106.934,-64.941,-115.723,-433.105,0.000
1737556186.559,-102.539,-58.105,-115.234,-622.559,0.000
1737556186.563,-91.309,-60.547,-116.211,-571.777,0.000
1737556186.567,-46.875,-46.387,-100.098,-251.465,0.000
1737556186.571,-16.602,-31.738,-76.172,-181.152,0.000
1737556186.575,-106.445,-66.895,-64.941,-580.566,0.000
1737556186.579,-135.254,-77.637,-51.758,-678.711,0.000
1737556186.583,-127.930,-50.781,-43.945,-490.234,0.000
1737556186.587,-130.859,-36.133,-27.832,-140.625,0.000
1737556186.591,-104.492,-30.762,-9.277,2.441,0.000
1737556186.595,-155.273,-32.715,-9.277,-301.758,0.000
1737556186.599,-176.758,-27.832,-9.277,-439.453,0.000
1737556186.602,-136.719,-8.789,6.348,-333.008,0.000
1737556186.606,-120.117,-10.742,22.949,-101.074,0.000
1737556186.610,-91.309,-20.996,37.598,65.918,0.000
1737556186.614,-99.609,-18.555,30.273,-197.754,0.000
1737556186.618,-125.488,-25.879,5.371,-422.363,0.000
1737556186.622,-75.684,-22.949,18.555,-347.168,0.000
1737556186.626,21.484,-4.883,44.922,-51.758,0.000
1737556186.630,109.863,8.301,36.621,235.352,0.000
1737556186.634,52.734,-14.160,36.621,0.977,0.000
1737556186.638,3.906,-26.367,30.273,-237.305,0.000
1737556186.642,0.977,-27.344,31.250,-208.984,0.000
1737556186.645,33.203,-18.066,42.969,45.898,0.000
1737556186.649,98.633,1.953,55.664,352.051,0.000
1737556186.653,77.637,-12.207,58.105,125.488,0.000
1737556186.657,26.367,-25.391,46.875,-156.250,0.000
1737556186.661,24.902,-17.578,39.551,-107.910,0.000
1737556186.665,50.293,-2.930,44.434,90.332,0.000
1737556186.669,89.844,3.418,52.246,380.371,0.000
1737556186.673,68.848,-3.906,53.223,217.285,0.000
1737556186.673,68.848,-3.906,53.223,217.285,0.000
1737556186.677,-8.301,-26.367,41.504,-183.594,0.000
1737556186.681,-9.277,-37.598,31.738,-200.195,0.000
1737556186.685,36.621,-16.602,40.039,33.691,0.000
1737556186.689,83.008,0.977,45.898,295.898,0.000
1737556186.692,62.012,-5.859,44.434,173.340,0.000
1737556186.696,-17.578,-19.043,25.879,-195.801,0.000
1737556186.700,3.418,-26.855,4.883,-272.461,0.000
1737556186.704,19.531,-37.109,5.371,-118.164,0.000
1737556186.708,16.113,-27.344,25.879,234.863,0.000
1737556186.712,74.707,-7.812,31.738,273.926,0.000
1737556186.716,29.297,-10.742,16.602,-166.016,0.000
1737556186.719,0.488,-9.277,-10.742,-292.969,0.000
1737556186.724,19.043,-17.090,-37.109,-185.059,0.000
1737556186.728,65.430,-26.367,-37.109,74.707,0.000
1737556186.732,119.141,-12.207,-28.320,140.625,0.000
1737556186.735,87.891,-23.926,-58.594,-245.605,0.000
1737556186.739,112.793,-45.410,-95.215,-368.164,0.000
1737556186.743,203.613,-41.016,-99.121,-255.371,0.000
1737556186.747,330.566,-27.832,-109.863,34.668,0.000
1737556186.751,351.074,-44.922,-101.074,129.395,0.000
1737556186.755,236.328,-66.406,-101.562,-225.586,0.000
1737556186.759,161.133,-64.453,-108.398,-365.723,0.000
1737556186.762,63.477,-63.477,-105.469,-277.832,0.000
1737556186.766,25.391,-52.246,-93.262,20.020,0.000
1737556186.771,0.977,-44.922,-80.078,124.023,0.000
1737556186.775,-123.535,-67.383,-90.332,-259.766,0.000
1737556186.778,-209.473,-83.984,-106.445,-411.133,0.000
1737556186.782,-215.332,-83.984,-101.074,-377.441,0.000
1737556186.786,-197.266,-59.082,-59.082,-102.539,0.000
1737556186.790,-165.527,-30.762,-38.086,111.816,0.000
1737556186.794,-234.863,-38.086,-41.992,-197.754,0.000
1737556186.798,-297.363,-59.082,-43.457,-411.133,0.000
1737556186.802,-291.016,-62.012,-44.922,-366.211,0.000
1737556186.805,-264.160,-54.199,-28.809,-129.883,0.000
1737556186.809,-211.426,-42.480,-7.812,161.133,0.000
1737556186.813,-226.074,-36.133,-0.977,-46.387,0.000
1737556186.813,-226.074,-36.133,-0.977,-46.387,0.000
1737556186.818,-207.031,-30.762,2.441,-270.508,0.000
1737556186.821,-140.625,-10.254,5.859,-258.789,0.000
1737556186.825,-73.242,-3.906,4.395,-64.453,0.000
1737556186.829,0.488,-9.277,25.391,238.770,0.000
1737556186.833,-41.504,-14.160,52.246,77.637,0.000
1737556186.837,-64.453,1.465,45.898,-210.449,0.000
1737556186.841,-44.922,-6.348,38.086,-257.812,0.000
1737556186.845,-1.953,-6.836,51.270,-21.484,0.000
1737556186.848,71.289,14.648,69.824,319.336,0.000
1737556186.852,47.363,-8.301,69.336,183.594,0.000
1737556186.856,3.418,-22.949,49.805,-118.652,0.000
1737556186.860,-2.930,-20.508,37.598,-164.062,0.000
1737556186.864,25.391,-21.484,49.316,-4.395,0.000
1737556186.868,99.609,-12.207,75.684,324.219,0.000
1737556186.872,81.543,-16.113,54.688,254.395,0.000
1737556186.876,38.574,-25.879,33.203,-106.445,0.000
1737556186.880,29.297,-36.133,35.645,-218.750,0.000
1737556186.884,36.133,-28.320,41.016,-55.664,0.000
1737556186.888,102.539,-0.977,41.016,282.227,0.000
1737556186.891,125.000,-4.395,39.551,255.859,0.000
1737556186.895,60.059,-26.855,43.945,-117.676,0.000
1737556186.899,25.391,-33.203,27.344,-203.125,0.000
1737556186.903,51.270,-13.184,25.879,-91.797,0.000
1737556186.907,54.688,-6.348,38.574,118.164,0.000
1737556186.911,70.312,3.418,30.273,213.867,0.000
1737556186.915,22.461,-4.883,2.930,-205.566,0.000
1737556186.919,-23.926,-31.738,-24.414,-434.570,0.000
1737556186.923,-20.996,-37.109,-33.691,-360.352,0.000
1737556186.927,42.480,-21.484,-42.969,-108.887,0.000
1737556186.931,153.320,12.207,-63.477,53.711,0.000
1737556186.934,131.836,-10.254,-90.820,-361.328,0.000
1737556186.938,146.973,-45.410,-125.000,-593.262,0.000
1737556186.942,287.598,-47.852,-135.742,-532.227,0.000
1737556186.946,438.965,-39.062,-123.535,-348.145,0.000
1737556186.950,571.777,-28.809,-111.816,-199.707,0.000
1737556186.954,549.805,-46.875,-104.004,-581.055,0.000
1737556186.954,549.805,-46.875,-104.004,-581.055,0.000
1737556186.958,403.320,-61.523,-125.000,-864.746,0.000
1737556186.962,225.098,-62.012,-130.371,-853.027,0.000
1737556186.966,68.848,-64.453,-106.934,-626.953,0.000
1737556186.970,22.949,-69.824,-104.980,-335.938,0.000
1737556186.974,-77.148,-67.383,-95.703,-485.840,0.000
1737556186.977,-167.480,-62.988,-112.305,-691.406,0.000
1737556186.981,-173.828,-67.871,-112.793,-676.758,0.000
1737556186.985,-166.992,-43.945,-64.941,-350.586,0.000
1737556186.989,-130.859,-30.762,-37.109,0.977,0.000
1737556186.993,-184.082,-44.922,-19.043,-121.094,0.000
1737556186.997,-263.184,-50.781,-20.996,-329.590,0.000
1737556187.001,-295.410,-45.410,-16.113,-324.219,0.000
1737556187.005,-273.438,-33.691,11.230,-94.727,0.000
1737556187.009,-216.309,-25.391,22.461,232.422,0.000
1737556187.013,-229.980,-26.855,32.227,63.965,0.000
1737556187.017,-278.320,-37.109,43.457,-319.336,0.000
1737556187.020,-252.441,-26.855,44.922,-341.309,0.000
1737556187.024,-201.660,-0.977,38.574,-165.039,0.000
1737556187.028,-142.090,0.488,43.457,136.719,0.000
1737556187.032,-115.234,-12.695,52.734,114.746,0.000
1737556187.036,-111.816,-10.254,49.805,-193.848,0.000
1737556187.040,-87.891,-16.113,40.039,-314.941,0.000
1737556187.044,-56.641,-15.137,46.875,-144.531,0.000
1737556187.048,20.020,-25.879,35.156,258.789,0.000
1737556187.052,71.289,-27.832,44.922,336.914,0.000
1737556187.056,66.895,12.207,64.453,-33.203,0.000
1737556187.060,48.340,19.531,62.012,-126.953,0.000
1737556187.063,8.789,-11.230,82.031,17.578,0.000
1737556187.067,60.547,-10.742,79.590,370.117,0.000
1737556187.071,104.004,9.766,68.359,517.090,0.000
1737556187.075,61.035,3.906,67.383,100.586,0.000
1737556187.079,14.648,-22.949,49.316,-83.984,0.000
1737556187.083,7.812,-39.551,47.852,35.645,0.000
1737556187.087,76.660,-16.602,58.594,373.535,0.000
1737556187.091,102.051,-10.742,54.688,459.473,0.000
1737556187.094,69.824,-22.461,42.480,77.148,0.000
1737556187.094,69.824,-22.461,42.480,77.148,0.000
1737556187.099,50.293,-32.715,30.273,-142.090,0.000
1737556187.103,44.434,-36.133,37.109,-79.102,0.000
1737556187.106,90.820,-13.184,49.805,222.656,0.000
1737556187.110,121.582,-6.836,56.152,378.418,0.000
1737556187.114,93.262,-12.207,50.293,67.871,0.000
1737556187.118,59.570,-9.277,32.227,-141.113,0.000
1737556187.122,47.363,-19.043,21.973,-120.117,0.000
1737556187.126,76.172,-25.879,31.250,131.348,0.000
1737556187.130,120.117,-6.348,43.945,419.434,0.000
1737556187.134,81.055,-1.465,43.457,176.270,0.000
1737556187.137,12.207,-34.668,13.672,-142.090,0.000
1737556187.141,12.695,-49.805,10.254,-90.820,0.000
1737556187.146,68.848,-17.090,28.809,170.898,0.000
1737556187.149,107.422,4.883,42.480,416.504,0.000
1737556187.153,59.570,-12.207,36.133,174.805,0.000
1737556187.157,-6.348,-34.180,15.625,-124.023,0.000
1737556187.161,19.531,-25.879,31.738,-101.562,0.000
1737556187.165,37.598,0.488,30.762,90.820,0.000
1737556187.169,45.410,6.348,18.066,366.211,0.000
1737556187.173,19.531,-18.066,15.137,181.152,0.000
1737556187.177,-6.836,-20.020,10.254,-157.227,0.000
1737556187.180,37.598,-14.160,6.836,-178.223,0.000
1737556187.184,67.871,-7.324,0.977,20.996,0.000
1737556187.188,90.820,2.930,3.418,317.383,0.000
1737556187.192,76.660,-10.254,13.184,224.609,0.000
1737556187.196,11.719,-26.855,4.883,-123.535,0.000
1737556187.200,0.977,-24.902,-8.789,-145.508,0.000
1737556187.204,45.410,-7.324,2.930,57.129,0.000
1737556187.208,96.680,5.859,10.254,329.102,0.000
1737556187.212,118.164,2.441,3.906,261.230,0.000
1737556187.216,19.043,-7.812,-0.977,-122.070,0.000
1737556187.220,-48.340,-29.297,1.465,-216.797,0.000
1737556187.223,-5.859,-40.039,-0.977,-73.242,0.000
1737556187.227,62.988,-20.508,1.953,270.996,0.000
1737556187.231,111.816,-4.883,10.254,316.895,0.000
1737556187.235,51.758,-12.207,3.906,-36.133,0.000
1737556187.235,51.758,-12.207,3.906,-36.133,0.000
1737556187.239,27.344,-22.949,-17.578,-130.859,0.000
1737556187.243,40.527,-28.320,-17.578,-26.367,0.000
1737556187.247,95.703,-8.789,16.113,305.176,0.000
1737556187.251,102.051,-9.277,21.484,390.137,0.000
1737556187.255,22.949,-32.715,10.742,10.254,0.000
1737556187.259,5.371,-23.438,3.906,-103.516,0.000
1737556187.263,34.180,-18.555,-0.488,-33.691,0.000
1737556187.266,73.730,-29.297,6.836,213.867,0.000
1737556187.270,89.844,-19.043,20.996,372.070,0.000
1737556187.274,31.250,-11.230,5.371,70.801,0.000
1737556187.278,15.625,-22.949,-4.883,-117.188,0.000
1737556187.282,-3.906,-28.320,-9.277,-142.578,0.000
1737556187.286,14.648,-18.555,-20.996,108.887,0.000
1737556187.290,59.570,-14.648,-18.555,313.965,0.000
1737556187.294,19.043,-20.996,-27.832,-5.371,0.000
1737556187.298,-24.902,-27.832,-46.387,-262.207,0.000
1737556187.302,-10.254,-25.879,-62.012,-267.090,0.000
1737556187.305,22.461,-13.184,-101.074,-56.152,0.000
1737556187.309,69.824,6.348,-119.629,154.297,0.000
1737556187.313,16.602,-32.227,-138.184,-185.547,0.000
1737556187.317,-103.027,-91.797,-237.305,-634.766,0.000
1737556187.321,-159.668,-84.473,-362.793,-854.492,0.000
1737556187.325,43.457,-25.391,-312.988,-599.609,0.000
1737556187.329,607.910,-24.902,-97.168,-221.191,0.000
1737556187.333,971.191,-51.270,307.617,-487.793,0.000
1737556187.337,961.914,-76.172,850.586,-801.270,0.000
1737556187.341,963.379,-121.094,986.328,-883.301,0.000
1737556187.345,972.656,-60.059,954.102,-977.539,0.000
1737556187.349,970.215,60.547,973.145,-1000.000,0.000
1737556187.352,970.215,0.488,971.191,-994.141,0.000
1737556187.356,970.215,-157.227,971.191,-1000.000,0.000
1737556187.360,970.215,-33.691,970.703,-1000.000,0.000
1737556187.364,970.215,59.082,971.191,-1000.000,0.000
1737556187.368,970.215,-49.316,971.191,-1000.000,0.000
1737556187.372,970.215,-83.008,970.703,-1000.000,0.000
1737556187.376,970.215,-254.395,970.703,-1000.000,0.000
1737556187.376,970.215,-254.395,970.703,-1000.000,0.000
1737556187.380,970.215,-278.320,971.680,-1000.000,0.000
1737556187.384,970.215,-194.336,966.309,-1000.000,0.000
1737556187.388,970.215,-423.828,972.656,-1000.000,0.000
1737556187.392,970.215,-413.086,941.406,-1000.000,0.000
1737556187.395,970.215,-425.293,768.066,-1000.000,0.000
1737556187.399,970.215,-509.277,384.766,-1000.000,0.000
1737556187.403,970.215,-389.648,-109.375,-1000.000,0.000
1737556187.407,970.215,-374.023,-620.605,-1000.000,0.000
1737556187.411,970.215,-390.137,-979.980,-1000.000,0.000
1737556187.415,970.215,-401.855,-997.559,-1000.000,0.000
1737556187.419,970.215,-343.750,-992.676,-1000.000,0.000
1737556187.422,970.215,-172.363,-1000.000,-1000.000,0.000
1737556187.427,970.215,-197.266,-1000.000,-1000.000,0.000
1737556187.431,970.215,-509.766,-1000.000,-1000.000,0.000
1737556187.435,970.215,-726.074,-1000.000,-1000.000,0.000
1737556187.438,970.215,-437.500,-1000.000,-1000.000,0.000
1737556187.442,970.215,-84.473,-1000.000,-1000.000,0.000
1737556187.446,970.215,-311.523,-1000.000,-1000.000,0.000
1737556187.450,970.215,-467.773,-1000.000,-1000.000,0.000
1737556187.454,970.215,-170.410,-1000.000,-1000.000,0.000
1737556187.458,970.215,-125.000,-1000.000,-1000.000,0.000
1737556187.462,979.004,-253.418,-1000.000,-1000.000,0.000
1737556187.465,913.574,-280.273,-1000.000,-1000.000,0.000
1737556187.469,999.512,-336.426,-1000.000,-1000.000,0.000
1737556187.474,603.027,-400.391,-1000.000,-1000.000,0.000
1737556187.478,-735.352,-332.031,-992.188,-1000.000,0.000
1737556187.481,-1000.000,-112.793,-1000.000,-1000.000,0.000
1737556187.485,-950.195,-256.836,-974.121,-1000.000,0.000
1737556187.489,-1000.000,-414.551,-783.203,-1000.000,0.000
1737556187.493,-1000.000,-213.867,-797.852,-1000.000,0.000
1737556187.497,-1000.000,-67.383,-628.906,-1000.000,0.000
1737556187.501,-1000.000,-111.328,-349.121,-1000.000,0.000
1737556187.505,-1000.000,-145.020,-379.883,-1000.000,0.000
1737556187.509,-1000.000,-157.227,-243.164,-1000.000,0.000
1737556187.512,-1000.000,-112.793,31.250,-1000.000,0.000
1737556187.516,-1000.000,-174.316,72.754,-1000.000,0.000
1737556187.516,-1000.000,-174.316,72.754,-1000.000,0.000
1737556187.521,-1000.000,-157.715,117.188,-1000.000,0.000
1737556187.524,-1000.000,-296.387,380.371,-1000.000,0.000
1737556187.528,-1000.000,-312.988,626.953,-1000.000,0.000
1737556187.532,-1000.000,129.883,680.664,-1000.000,0.000
1737556187.536,-1000.000,-10.742,464.355,-1000.000,0.000
1737556187.540,-1000.000,-452.148,385.254,-1000.000,0.000
1737556187.544,-1000.000,-163.574,589.844,-1000.000,0.000
1737556187.548,-1000.000,119.629,546.387,-1000.000,0.000
1737556187.552,-1000.000,-119.629,405.273,-1000.000,0.000
1737556187.555,-1000.000,-104.980,298.828,-1000.000,0.000
1737556187.559,-1000.000,-250.977,324.707,-1000.000,0.000
1737556187.563,-1000.000,-104.980,445.312,-1000.000,0.000
1737556187.567,-1000.000,184.570,424.805,-1000.000,0.000
1737556187.571,-1000.000,-41.992,630.859,-1000.000,0.000
1737556187.575,-1000.000,-135.254,928.711,-1000.000,0.000
1737556187.579,-1000.000,-114.258,970.703,-1000.000,0.000
1737556187.583,-1000.000,-126.465,964.844,-1000.000,0.000
1737556187.587,-1000.000,-203.125,971.680,-1000.000,0.000
1737556187.591,-1000.000,-113.770,971.191,-1000.000,0.000
1737556187.595,-1000.000,-34.180,970.703,-1000.000,0.000
1737556187.598,-1000.000,1.953,971.191,-1000.000,0.000
1737556187.602,-1000.000,-75.195,971.191,-1000.000,0.000
1737556187.606,-1000.000,-157.715,971.191,-1000.000,0.000
1737556187.610,-1000.000,-83.496,970.703,-1000.000,0.000
1737556187.614,-1000.000,-15.625,971.191,-1000.000,0.000
1737556187.618,-1000.000,36.133,968.750,-1000.000,0.000
1737556187.622,-1000.000,88.867,966.797,-1000.000,0.000
1737556187.626,-1000.000,41.016,962.402,-1000.000,0.000
1737556187.630,-1000.000,60.547,794.922,-1000.000,0.000
1737556187.634,-1000.000,20.996,522.461,-1000.000,0.000
1737556187.637,-1000.000,17.578,261.719,-1000.000,0.000
1737556187.641,-1000.000,143.555,139.160,-1000.000,0.000
1737556187.645,-1000.000,81.055,85.449,-1000.000,0.000
1737556187.649,-1000.000,112.793,-92.285,-1000.000,0.000
1737556187.653,-1000.000,142.090,-172.363,-1000.000,0.000
1737556187.657,-1000.000,47.852,-270.020,-1000.000,0.000
1737556187.657,-1000.000,47.852,-270.020,-1000.000,0.000
1737556187.661,-1000.000,47.363,-415.039,-1000.000,0.000
1737556187.665,-1000.000,-6.348,-447.266,-1000.000,0.000
1737556187.669,-1000.000,22.949,-553.223,-1000.000,0.000
1737556187.673,-1000.000,74.707,-549.316,-1000.000,0.000
1737556187.677,-1000.000,22.949,-548.340,-1000.000,0.000
1737556187.681,-1000.000,-89.844,-631.348,-1000.000,0.000
1737556187.684,-1000.000,76.172,-534.668,-1000.000,0.000
1737556187.688,-1000.000,50.781,-690.918,-1000.000,0.000
1737556187.692,-1000.000,20.508,-741.211,-1000.000,0.000
1737556187.696,-1000.000,41.016,-618.164,-1000.000,0.000
1737556187.700,-1000.000,-20.508,-544.434,-1000.000,0.000
1737556187.704,-1000.000,175.781,-395.020,-1000.000,0.000
1737556187.708,-1000.000,185.547,-253.906,-1000.000,0.000
1737556187.712,-1000.000,106.445,-314.453,-1000.000,0.000
1737556187.716,-1000.000,36.621,-330.078,-1000.000,0.000
1737556187.720,-1000.000,-37.598,-260.742,-1000.000,0.000
1737556187.724,-1000.000,78.125,-79.102,-1000.000,0.000
1737556187.727,-1000.000,115.723,2.930,-1000.000,0.000
1737556187.731,-1000.000,101.074,-60.547,-1000.000,0.000
1737556187.735,-1000.000,193.359,-147.949,-1000.000,0.000
1737556187.739,-1000.000,52.734,-143.555,-1000.000,0.000
1737556187.743,-1000.000,31.250,75.684,-1000.000,0.000
1737556187.747,-1000.000,132.324,-26.367,-1000.000,0.000
1737556187.751,-987.793,50.781,-62.500,-1000.000,0.000
1737556187.755,-1000.000,81.543,186.523,-1000.000,0.000
1737556187.759,-876.465,89.844,242.188,-1000.000,0.000
1737556187.763,-448.730,132.324,97.168,-1000.000,0.000
1737556187.767,-168.457,45.410,178.223,-1000.000,0.000
1737556187.770,22.949,166.504,396.973,-1000.000,0.000
1737556187.774,142.578,31.250,315.918,-1000.000,0.000
1737556187.778,9.766,-74.219,239.746,-1000.000,0.000
1737556187.782,3.418,171.875,230.957,-1000.000,0.000
1737556187.786,100.586,24.414,296.387,-1000.000,0.000
1737556187.790,182.617,53.711,306.152,-1000.000,0.000
1737556187.794,319.336,217.285,274.902,-1000.000,0.000
1737556187.798,151.367,10.742,285.645,-1000.000,0.000
1737556187.798,151.367,10.742,285.645,-1000.000,0.000
1737556187.802,78.125,-25.391,306.641,-1000.000,0.000
1737556187.806,156.738,118.652,215.820,-1000.000,0.000
1737556187.810,124.023,186.523,263.184,-1000.000,0.000
1737556187.813,116.211,133.301,291.992,-1000.000,0.000
1737556187.817,119.629,-19.531,231.934,-1000.000,0.000
1737556187.821,146.484,32.715,151.367,-1000.000,0.000
1737556187.825,114.258,84.473,121.582,-1000.000,0.000
1737556187.829,125.488,-82.520,116.699,-1000.000,0.000
1737556187.833,174.805,-23.438,-28.320,-1000.000,0.000
1737556187.837,243.164,125.977,-172.363,-1000.000,0.000
1737556187.841,260.742,13.184,-143.066,-1000.000,0.000
1737556187.844,327.148,18.555,-216.309,-1000.000,0.000
1737556187.849,531.738,84.961,-204.102,-1000.000,0.000
1737556187.853,538.086,-30.762,-278.809,-1000.000,0.000
1737556187.857,401.855,-87.402,-343.262,-1000.000,0.000
1737556187.860,396.484,-21.973,-256.348,-1000.000,0.000
1737556187.864,421.387,-5.859,-311.035,-1000.000,0.000
1737556187.868,509.766,42.969,-282.227,-1000.000,0.000
1737556187.872,574.707,94.727,-227.539,-1000.000,0.000
1737556187.876,420.898,10.254,-293.945,-1000.000,0.000
1737556187.880,393.555,-42.969,-252.930,-1000.000,0.000
1737556187.884,491.699,7.812,-190.430,-1000.000,0.000
1737556187.887,416.992,36.133,-160.645,-1000.000,0.000
1737556187.891,336.426,36.621,-163.086,-1000.000,0.000
1737556187.896,355.957,-16.602,-169.922,-1000.000,0.000
1737556187.900,321.289,-13.672,-163.086,-1000.000,0.000
1737556187.903,309.082,42.480,-222.168,-1000.000,0.000
1737556187.907,393.066,20.508,-181.641,-1000.000,0.000
1737556187.911,333.008,6.348,-78.613,-1000.000,0.000
1737556187.915,395.508,121.582,-116.211,-1000.000,0.000
1737556187.919,522.949,121.582,-104.492,-1000.000,0.000
1737556187.923,363.770,21.973,-62.988,-1000.000,0.000
1737556187.927,267.090,-6.348,-71.289,-1000.000,0.000
1737556187.930,413.574,-70.801,-110.352,-1000.000,0.000
1737556187.934,466.309,70.801,-54.199,-1000.000,0.000
1737556187.938,320.801,114.258,4.395,-1000.000,0.000
1737556187.938,320.801,114.258,4.395,-1000.000,0.000
1737556187.942,334.961,19.531,11.719,-1000.000,0.000
1737556187.946,330.078,5.859,-3.418,-1000.000,0.000
1737556187.950,369.629,73.730,-29.785,-1000.000,0.000
1737556187.954,432.617,138.672,51.270,-1000.000,0.000
1737556187.958,261.230,-29.785,18.066,-1000.000,0.000
1737556187.962,208.008,-61.035,-9.766,-1000.000,0.000
1737556187.966,268.555,124.023,42.480,-1000.000,0.000
1737556187.970,245.117,36.621,-30.273,-1000.000,0.000
1737556187.973,232.422,-8.301,92.285,-1000.000,0.000
1737556187.977,399.414,180.664,199.707,-1000.000,0.000
1737556187.981,299.805,-18.066,-24.902,-1000.000,0.000
1737556187.985,133.789,-107.422,93.750,-1000.000,0.000
1737556187.989,260.254,34.180,212.402,-1000.000,0.000
1737556187.993,361.328,131.836,134.766,-1000.000,0.000
1737556187.997,253.906,104.980,231.445,-1000.000,0.000
1737556188.001,128.906,51.270,235.840,-1000.000,0.000
1737556188.005,230.469,2.441,187.500,-1000.000,0.000
1737556188.009,280.762,6.836,137.695,-1000.000,0.000
1737556188.013,173.828,139.648,203.613,-1000.000,0.000
1737556188.016,208.984,138.184,299.316,-1000.000,0.000
1737556188.020,245.605,69.336,192.871,-1000.000,0.000
1737556188.024,159.668,70.801,211.914,-1000.000,0.000
1737556188.028,188.477,6.836,311.035,-1000.000,0.000
1737556188.032,286.621,2.930,362.793,-1000.000,0.000
1737556188.036,217.285,117.676,302.246,-1000.000,0.000
1737556188.040,104.980,23.438,189.453,-1000.000,0.000
1737556188.044,184.082,-8.789,240.723,-1000.000,0.000
1737556188.048,297.852,123.047,270.020,-1000.000,0.000
1737556188.052,276.855,173.340,170.898,-1000.000,0.000
1737556188.056,179.688,17.578,231.445,-1000.000,0.000
1737556188.059,101.074,-27.832,292.480,-1000.000,0.000
1737556188.063,84.961,0.488,230.469,-1000.000,0.000
1737556188.067,136.719,-50.781,245.117,-1000.000,0.000
1737556188.071,292.480,55.664,357.910,-1000.000,0.000
1737556188.075,196.777,45.898,176.758,-1000.000,0.000
1737556188.079,51.758,13.184,61.035,-1000.000,0.000
1737556188.079,51.758,13.184,61.035,-1000.000,0.000
1737556188.083,77.148,72.266,334.473,-1000.000,0.000
1737556188.087,69.824,53.711,398.438,-1000.000,0.000
1737556188.091,183.105,56.641,370.117,-1000.000,0.000
1737556188.095,138.672,89.355,202.148,-1000.000,0.000
1737556188.099,87.402,101.562,119.141,-1000.000,0.000
1737556188.102,141.602,133.789,348.633,-1000.000,0.000
1737556188.106,200.195,64.941,327.637,-1000.000,0.000
1737556188.110,175.781,-62.012,239.258,-1000.000,0.000
1737556188.114,173.340,205.078,392.090,-1000.000,0.000
1737556188.118,120.605,159.180,398.926,-1000.000,0.000
1737556188.122,59.082,30.762,277.832,-1000.000,0.000
1737556188.126,77.148,10.742,314.453,-1000.000,0.000
1737556188.130,127.930,18.066,356.934,-1000.000,0.000
1737556188.134,187.988,108.398,366.211,-1000.000,0.000
1737556188.138,143.066,93.750,303.223,-1000.000,0.000
1737556188.142,98.145,18.555,255.859,-1000.000,0.000
1737556188.146,76.172,-136.719,165.039,-1000.000,0.000
1737556188.149,137.207,90.332,153.320,-1000.000,0.000
1737556188.153,240.234,124.023,213.867,-1000.000,0.000
1737556188.157,133.789,28.809,145.996,-1000.000,0.000
1737556188.161,138.672,-6.348,47.852,-1000.000,0.000
1737556188.165,117.676,-67.871,109.863,-1000.000,0.000
1737556188.169,202.637,256.836,225.586,-1000.000,0.000
1737556188.173,185.547,130.859,197.266,-1000.000,0.000
1737556188.177,24.902,-39.551,139.160,-1000.000,0.000
1737556188.181,68.848,69.336,98.145,-1000.000,0.000
1737556188.185,79.102,80.566,41.504,-1000.000,0.000
1737556188.189,46.387,49.805,140.625,-1000.000,0.000
1737556188.192,-10.742,18.555,125.977,-1000.000,0.000
1737556188.196,26.855,62.988,84.961,-1000.000,0.000
1737556188.200,-11.719,66.895,187.500,-1000.000,0.000
1737556188.204,-71.777,71.777,113.281,-1000.000,0.000
1737556188.208,39.551,121.582,127.930,-1000.000,0.000
1737556188.212,95.215,92.285,250.488,-1000.000,0.000
1737556188.216,36.621,64.941,182.617,-1000.000,0.000
1737556188.219,-5.371,2.930,92.285,-1000.000,0.000
1737556188.219,-5.371,2.930,92.285,-1000.000,0.000
1737556188.224,67.871,36.133,113.281,-1000.000,0.000
1737556188.228,107.422,117.676,153.809,-1000.000,0.000
1737556188.232,97.656,91.797,168.457,-1000.000,0.000
1737556188.235,29.785,86.426,146.484,-1000.000,0.000
1737556188.239,36.621,46.387,90.332,-1000.000,0.000
1737556188.243,102.051,67.871,98.145,-1000.000,0.000
1737556188.247,98.633,104.004,158.203,-1000.000,0.000
1737556188.251,104.980,90.820,109.863,-1000.000,0.000
1737556188.255,110.840,-74.707,78.125,-1000.000,0.000
1737556188.259,41.504,-27.344,179.688,-1000.000,0.000
1737556188.262,-34.668,88.867,54.688,-1000.000,0.000
1737556188.266,54.199,72.754,26.855,-1000.000,0.000
1737556188.271,104.004,156.250,191.406,-1000.000,0.000
1737556188.275,58.594,110.352,222.656,-1000.000,0.000
1737556188.278,-1.465,-10.254,160.645,-1000.000,0.000
1737556188.282,-8.301,56.152,143.555,-1000.000,0.000
1737556188.286,3.906,135.254,239.746,-1000.000,0.000
1737556188.290,-45.898,35.645,142.578,-1000.000,0.000
1737556188.294,123.047,232.422,141.113,-1000.000,0.000
1737556188.298,98.145,51.270,245.605,-1000.000,0.000
1737556188.302,-116.699,-168.945,191.895,-1000.000,0.000
1737556188.305,-65.918,114.258,94.727,-1000.000,0.000
1737556188.309,39.551,148.438,109.863,-1000.000,0.000
1737556188.313,39.551,73.730,139.648,-1000.000,0.000
1737556188.318,94.238,-49.316,167.969,-1000.000,0.000
1737556188.321,85.938,3.418,212.402,-1000.000,0.000
1737556188.325,-25.391,184.570,140.137,-1000.000,0.000
1737556188.329,24.414,139.648,225.586,-1000.000,0.000
1737556188.333,13.672,56.641,192.871,-1000.000,0.000
1737556188.337,10.254,77.148,156.738,-1000.000,0.000
1737556188.341,20.508,85.449,138.672,-1000.000,0.000
1737556188.345,24.414,36.133,83.984,-1000.000,0.000
1737556188.348,111.816,91.309,149.902,-1000.000,0.000
1737556188.352,89.355,180.664,164.551,-994.141,0.000
1737556188.356,-14.160,33.691,140.137,-966.309,0.000
1737556188.360,19.043,5.859,156.250,-969.727,0.000
1737556188.360,19.043,5.859,156.250,-969.727,0.000
1737556188.364,10.254,91.309,94.727,-1000.000,0.000
1737556188.368,-14.160,90.820,78.613,-1000.000,0.000
1737556188.372,16.113,61.035,97.168,-999.512,0.000
1737556188.376,-47.363,-8.789,85.449,-1000.000,0.000
1737556188.380,-25.391,80.078,68.359,-1000.000,0.000
1737556188.384,5.371,57.129,16.113,-1000.000,0.000
1737556188.388,0.488,34.668,55.176,-1000.000,0.000
1737556188.391,41.992,150.391,106.934,-1000.000,0.000
1737556188.395,19.531,4.395,74.707,-1000.000,0.000
1737556188.399,52.246,35.645,86.426,-1000.000,0.000
1737556188.403,58.105,104.492,52.246,-1000.000,0.000
1737556188.407,77.148,9.766,37.598,-1000.000,0.000
1737556188.411,76.660,157.227,27.344,-1000.000,0.000
1737556188.415,53.223,164.551,110.352,-1000.000,0.000
1737556188.419,-7.324,40.527,145.020,-1000.000,0.000
1737556188.423,-20.996,30.762,84.961,-1000.000,0.000
1737556188.427,7.324,51.758,82.031,-1000.000,0.000
1737556188.431,7.324,78.125,86.426,-1000.000,0.000
1737556188.434,-71.289,77.148,43.945,-1000.000,0.000
1737556188.438,-205.566,45.410,-2.930,-1000.000,0.000
1737556188.442,-229.492,67.871,24.902,-1000.000,0.000
1737556188.446,-245.605,23.438,-10.254,-1000.000,0.000
1737556188.450,-287.598,55.176,-76.660,-1000.000,0.000
1737556188.454,-515.137,94.727,-211.914,-1000.000,0.000
1737556188.458,-837.891,-62.012,-368.652,-994.629,0.000
1737556188.462,-971.191,-234.375,-542.969,-1000.000,0.000
1737556188.466,-1000.000,-17.090,-624.023,-976.074,0.000
1737556188.470,-996.582,254.395,-440.430,-836.426,0.000
1737556188.474,-1000.000,27.344,-291.504,-738.281,0.000
1737556188.477,-1000.000,-50.781,-269.043,-585.938,0.000
1737556188.481,-997.070,28.320,-256.836,-666.504,0.000
1737556188.485,-1000.000,10.742,-156.250,-974.609,0.000
1737556188.489,-979.004,43.457,-128.906,-934.570,0.000
1737556188.493,-931.641,-1.465,-253.906,-801.270,0.000
1737556188.497,-844.727,-35.645,-93.750,-794.434,0.000
1737556188.501,-806.152,-67.871,100.098,-836.914,0.000
1737556188.501,-806.152,-67.871,100.098,-836.914,0.000
1737556188.505,-708.008,79.590,34.668,-975.098,0.000
1737556188.509,-361.816,214.355,63.477,-958.008,0.000
1737556188.513,-147.461,89.355,105.957,-887.695,0.000
1737556188.517,-83.496,24.414,78.125,-821.289,0.000
1737556188.520,6.348,44.434,122.070,-755.371,0.000
1737556188.524,111.328,37.598,114.746,-681.152,0.000
1737556188.528,223.145,58.594,138.184,-812.500,0.000
1737556188.532,283.203,78.613,219.727,-1000.000,0.000
1737556188.536,308.594,35.156,188.477,-995.605,0.000
1737556188.540,362.305,15.625,143.066,-997.070,0.000
1737556188.544,412.109,38.574,160.156,-1000.000,0.000
1737556188.548,437.988,41.504,230.469,-1000.000,0.000
1737556188.552,483.398,82.520,202.148,-1000.000,0.000
1737556188.556,389.160,125.488,166.504,-1000.000,0.000
1737556188.560,265.625,28.320,171.875,-1000.000,0.000
1737556188.564,307.129,22.461,155.762,-1000.000,0.000
1737556188.567,406.250,88.867,160.645,-1000.000,0.000
1737556188.571,440.430,46.387,135.742,-1000.000,0.000
1737556188.575,381.348,9.277,105.957,-1000.000,0.000
1737556188.579,419.434,108.398,122.559,-1000.000,0.000
1737556188.583,477.539,46.387,107.422,-1000.000,0.000
1737556188.587,421.875,34.180,106.445,-1000.000,0.000
1737556188.591,389.648,76.172,112.305,-1000.000,0.000
1737556188.594,382.812,41.016,85.938,-1000.000,0.000
1737556188.599,395.996,83.496,97.656,-1000.000,0.000
1737556188.603,377.930,79.102,106.445,-1000.000,0.000
1737556188.607,383.301,67.871,101.074,-1000.000,0.000
1737556188.610,426.270,37.109,104.980,-1000.000,0.000
1737556188.614,404.297,144.043,77.148,-996.582,0.000
1737556188.618,323.730,62.988,44.434,-1000.000,0.000
1737556188.622,265.625,3.906,95.215,-959.961,0.000
1737556188.626,353.027,170.898,123.047,-876.465,0.000
1737556188.630,374.023,100.586,111.328,-941.406,0.000
1737556188.634,325.684,35.645,154.785,-973.633,0.000
1737556188.637,306.641,25.391,137.695,-975.586,0.000
1737556188.641,295.898,29.297,158.691,-1000.000,0.000
1737556188.641,295.898,29.297,158.691,-1000.000,0.000
1737556188.646,298.340,64.453,176.758,-992.676,0.000
1737556188.650,279.785,111.328,192.871,-988.770,0.000
1737556188.653,276.367,148.926,204.590,-1000.000,0.000
1737556188.657,182.129,110.840,142.578,-944.824,0.000
1737556188.661,128.418,37.109,125.000,-788.086,0.000
1737556188.665,168.945,91.309,201.172,-902.344,0.000
1737556188.669,166.016,106.445,190.430,-997.070,0.000
1737556188.673,126.465,37.598,125.000,-983.887,0.000
1737556188.677,87.402,23.926,105.957,-995.605,0.000
1737556188.680,112.793,54.199,114.746,-1000.000,0.000
1737556188.684,140.137,92.285,117.188,-995.117,0.000
1737556188.688,181.641,94.238,141.113,-1000.000,0.000
1737556188.693,173.340,56.641,146.973,-954.102,0.000
1737556188.696,103.027,53.223,104.492,-909.180,0.000
1737556188.700,99.609,52.246,79.590,-965.332,0.000
1737556188.704,134.766,53.223,105.957,-958.008,0.000
1737556188.708,164.551,36.621,124.023,-963.379,0.000
1737556188.712,178.223,59.570,115.234,-949.219,0.000
1737556188.716,146.484,70.312,108.398,-704.590,0.000
1737556188.720,126.953,78.613,74.707,-496.094,0.000
1737556188.723,158.691,83.496,72.754,-493.164,0.000
1737556188.727,185.059,53.711,83.984,-473.145,0.000
1737556188.731,202.637,53.711,111.816,-521.484,0.000
1737556188.735,165.039,83.496,123.047,-824.707,0.000
1737556188.739,89.355,46.387,83.496,-1000.000,0.000
1737556188.743,83.984,19.531,65.918,-991.699,0.000
1737556188.747,130.371,46.875,95.215,-992.188,0.000
1737556188.751,159.180,45.898,93.262,-946.777,0.000
1737556188.755,106.445,32.715,70.312,-922.852,0.000
1737556188.759,84.961,43.945,80.566,-917.480,0.000
1737556188.763,161.621,64.453,100.098,-636.719,0.000
1737556188.766,214.844,50.781,94.727,-500.977,0.000
1737556188.770,240.723,57.129,92.773,-495.605,0.000
1737556188.774,200.195,50.781,101.074,-712.891,0.000
1737556188.778,133.301,16.113,65.430,-974.609,0.000
1737556188.782,178.711,32.715,62.988,-904.785,0.000
1737556188.782,178.711,32.715,62.988,-904.785,0.000
1737556188.786,247.559,78.125,67.871,-991.211,0.000
1737556188.790,261.719,26.855,39.551,-891.602,0.000
1737556188.794,252.441,0.977,50.293,-608.887,0.000
1737556188.798,237.305,41.504,47.852,-408.203,0.000
1737556188.802,191.406,13.184,20.020,-535.156,0.000
1737556188.806,152.344,34.180,31.250,-926.270,0.000
1737556188.809,159.668,55.664,79.590,-1000.000,0.000
1737556188.813,148.438,16.602,116.699,-987.305,0.000
1737556188.817,81.055,7.812,97.656,-1000.000,0.000
1737556188.821,48.340,8.789,75.195,-1000.000,0.000
1737556188.825,95.703,26.367,99.121,-1000.000,0.000
1737556188.829,110.352,38.574,104.004,-998.047,0.000
1737556188.833,47.852,38.086,94.727,-992.188,0.000
1737556188.837,-34.180,25.391,85.938,-1000.000,0.000
1737556188.841,-46.875,20.508,66.406,-950.684,0.000
1737556188.845,-38.086,28.809,82.031,-890.137,0.000
1737556188.849,-31.250,41.016,108.887,-1000.000,0.000
1737556188.853,7.812,51.758,98.145,-530.762,0.000
1737556188.856,83.496,46.387,71.777,799.805,0.000
1737556188.860,85.938,40.039,43.457,999.512,0.000
1737556188.864,85.449,71.777,52.246,920.898,0.000
1737556188.868,104.980,45.410,54.688,981.934,0.000
1737556188.872,96.680,1.465,22.461,970.703,0.000
1737556188.876,73.730,10.254,11.719,970.703,0.000
1737556188.880,67.871,14.160,28.320,970.703,0.000
1737556188.884,97.656,11.230,28.809,970.703,0.000
1737556188.888,161.133,36.621,22.949,970.703,0.000
1737556188.892,198.242,46.875,22.949,970.703,0.000
1737556188.896,132.324,15.625,9.277,970.703,0.000
1737556188.899,128.418,12.695,0.977,970.703,0.000
1737556188.903,162.598,33.203,0.977,970.703,0.000
1737556188.907,172.363,62.500,40.527,970.703,0.000
1737556188.911,142.090,48.828,50.293,970.703,0.000
1737556188.915,22.461,-17.578,4.883,970.703,0.000
1737556188.919,-41.992,-43.945,-4.395,970.703,0.000
1737556188.923,-34.180,-3.418,8.301,970.703,0.000
1737556188.923,-34.180,-3.418,8.301,970.703,0.000
1737556188.927,14.160,25.391,17.090,970.703,0.000
1737556188.931,58.105,28.320,29.297,970.703,0.000
1737556188.935,57.617,30.273,25.879,970.703,0.000
1737556188.939,40.527,15.625,11.230,970.703,0.000
1737556188.942,39.551,-5.371,-5.371,970.703,0.000
1737556188.946,95.703,27.344,17.090,970.703,0.000
1737556188.950,136.230,68.359,72.266,970.703,0.000
1737556188.954,88.379,37.598,62.012,970.703,0.000
1737556188.958,43.457,17.090,54.199,970.703,0.000
1737556188.962,44.434,12.207,50.781,970.703,0.000
1737556188.966,44.434,8.789,43.457,970.703,0.000
1737556188.969,43.457,24.902,62.012,970.703,0.000
1737556188.974,69.824,35.156,65.918,970.703,0.000
1737556188.978,47.852,-4.395,35.156,970.703,0.000
1737556188.982,15.625,-29.297,35.156,970.703,0.000
1737556188.985,37.109,6.836,58.105,970.703,0.000
1737556188.989,77.637,47.363,89.844,970.703,0.000
1737556188.993,22.461,22.949,71.289,970.703,0.000
1737556188.997,-44.922,-3.418,39.551,970.703,0.000
1737556189.001,-52.734,-9.277,53.711,970.703,0.000
1737556189.005,-47.852,-0.488,73.242,970.703,0.000
1737556189.009,-18.066,11.230,86.426,970.703,0.000
1737556189.012,-20.020,4.395,82.520,970.703,0.000
1737556189.016,-66.406,0.488,66.406,970.703,0.000
1737556189.021,-93.262,13.184,47.363,970.703,0.000
1737556189.025,-95.703,4.395,43.457,970.703,0.000
1737556189.028,-57.617,11.230,93.750,970.703,0.000
1737556189.032,-53.223,13.184,77.148,970.703,0.000
1737556189.036,-93.750,-29.297,37.109,970.703,0.000
1737556189.040,-88.379,-8.301,63.965,970.703,0.000
1737556189.044,-86.914,11.230,81.543,970.703,0.000
1737556189.048,-51.270,20.996,109.375,970.703,0.000
1737556189.052,-46.387,28.809,105.469,970.703,0.000
1737556189.055,-73.242,17.090,77.637,970.703,0.000
1737556189.059,-81.055,22.461,83.496,970.703,0.000
1737556189.063,-126.465,7.812,74.707,970.703,0.000
1737556189.063,-126.465,7.812,74.707,970.703,0.000
1737556189.068,-141.602,-13.184,71.289,970.703,0.000
1737556189.071,-126.465,-8.789,79.102,970.703,0.000
1737556189.075,-150.391,-10.254,58.594,970.703,0.000
1737556189.079,-167.969,-14.648,44.434,970.703,0.000
1737556189.083,-150.391,-29.785,40.527,970.703,0.000
1737556189.087,-99.121,-6.348,62.988,970.703,0.000
1737556189.091,-71.289,3.906,49.805,970.703,0.000
1737556189.095,-61.035,1.953,28.809,970.703,0.000
1737556189.098,-78.613,14.160,43.457,970.703,0.000
1737556189.102,-138.184,-26.855,33.691,970.703,0.000
1737556189.106,-92.285,-0.977,41.016,970.703,0.000
1737556189.110,-47.363,12.695,48.828,970.703,0.000
1737556189.114,-74.707,-5.371,60.547,970.703,0.000
1737556189.118,-99.121,-11.230,63.965,970.703,0.000
1737556189.122,-100.098,-12.695,53.223,970.703,0.000
1737556189.126,-70.312,7.812,68.359,970.703,0.000
1737556189.130,-53.711,11.230,78.613,970.703,0.000
1737556189.134,-81.543,1.465,68.848,970.703,0.000
1737556189.138,-94.727,1.953,63.477,970.703,0.000
1737556189.141,-109.375,-8.789,48.340,970.703,0.000
1737556189.145,-105.957,-30.762,46.875,970.703,0.000
1737556189.149,-75.684,-17.090,60.059,970.703,0.000
1737556189.153,-80.078,-6.348,44.922,970.703,0.000
1737556189.157,-111.328,-27.344,26.367,970.703,0.000
1737556189.161,-104.004,-36.133,20.020,970.703,0.000
1737556189.165,-62.988,-25.391,50.293,970.703,0.000
1737556189.169,-28.320,-6.836,66.895,970.703,0.000
1737556189.173,-3.906,19.043,46.875,970.703,0.000
1737556189.177,-27.344,7.324,32.227,970.703,0.000
1737556189.181,-47.852,-14.648,39.551,970.703,0.000
1737556189.184,-19.531,-3.418,57.129,970.703,0.000
1737556189.188,16.602,-9.277,49.316,970.703,0.000
1737556189.192,24.414,-10.254,41.992,970.703,0.000
1737556189.196,-9.766,-2.930,30.273,970.703,0.000
1737556189.200,-40.039,-23.438,20.996,970.703,0.000
1737556189.204,-23.926,-19.043,43.457,970.703,0.000
1737556189.204,-23.926,-19.043,43.457,970.703,0.000
1737556189.208,-10.254,-21.484,50.781,970.703,0.000
1737556189.212,-20.996,-24.902,51.758,970.703,0.000
1737556189.216,-39.551,-5.371,34.668,970.703,0.000
1737556189.220,-65.430,-20.996,7.324,970.703,0.000
1737556189.224,-63.965,-22.949,12.695,970.703,0.000
1737556189.227,-17.090,12.207,33.691,970.703,0.000
1737556189.231,4.395,16.113,30.762,970.703,0.000
1737556189.235,-41.992,-29.785,7.324,970.703,0.000
1737556189.239,-70.312,-37.598,15.625,970.703,0.000
1737556189.243,-43.945,-16.113,31.250,970.703,0.000
1737556189.247,-7.324,-8.301,33.203,970.703,0.000
1737556189.251,9.277,3.906,34.180,970.703,0.000
1737556189.255,-19.043,-9.766,24.902,970.703,0.000
1737556189.259,-53.223,-21.973,14.160,970.703,0.000
1737556189.263,-41.504,-10.742,13.184,970.703,0.000
1737556189.267,-3.418,5.371,25.391,970.703,0.000
1737556189.271,8.301,1.953,32.715,970.703,0.000
1737556189.274,-19.043,-4.883,17.090,970.703,0.000
1737556189.278,-69.336,-30.273,-22.461,970.703,0.000
1737556189.282,-70.801,-22.461,-15.137,970.703,0.000
1737556189.286,-12.207,3.418,37.598,970.703,0.000
1737556189.290,30.762,9.277,52.246,970.703,0.000
1737556189.294,-3.418,8.301,40.039,970.703,0.000
1737556189.298,-54.688,-17.578,17.578,970.703,0.000
1737556189.302,-69.336,-33.203,-5.371,970.703,0.000
1737556189.306,-41.016,-24.902,5.859,970.703,0.000
1737556189.310,-4.395,-5.859,34.180,970.215,0.000
1737556189.314,-20.996,-14.648,35.645,970.215,0.000
1737556189.317,-54.199,-34.180,0.000,970.703,0.000
1737556189.321,-22.461,12.207,18.555,970.703,0.000
1737556189.325,7.324,19.043,22.949,970.703,0.000
1737556189.329,-20.996,-33.203,1.953,970.703,0.000
1737556189.333,-28.809,-26.367,28.320,970.703,0.000
1737556189.337,-41.504,-23.438,17.090,970.703,0.000
1737556189.341,-47.852,-27.344,-6.348,970.703,0.000
1737556189.344,-9.277,-17.090,13.184,970.703,0.000
1737556189.344,-9.277,-17.090,13.184,970.703,0.000
1737556189.349,17.090,-10.254,0.977,970.703,0.000
1737556189.353,-1.465,-4.883,-18.066,970.703,0.000
1737556189.357,-20.020,-7.324,30.273,970.703,0.000
1737556189.360,-22.461,-18.066,50.781,970.703,0.000
1737556189.364,-16.602,-15.625,39.062,970.703,0.000
1737556189.368,5.371,3.418,49.805,970.703,0.000
1737556189.372,-13.672,-17.090,41.016,970.703,0.000
1737556189.376,-76.172,-52.734,-0.977,970.703,0.000
1737556189.380,-96.680,-58.105,-20.508,970.703,0.000
1737556189.384,-62.500,-38.086,3.906,970.703,0.000
1737556189.387,-9.766,-1.465,20.996,970.703,0.000
1737556189.391,-14.648,-19.531,9.277,970.703,0.000
1737556189.396,-57.129,-37.598,5.371,970.703,0.000
1737556189.400,-77.637,-11.230,-5.371,970.703,0.000
1737556189.403,-63.965,-20.508,8.789,970.703,0.000
1737556189.407,-20.996,-7.812,31.738,970.703,0.000
1737556189.411,-20.020,-0.977,23.926,970.703,0.000
1737556189.415,-46.875,-4.883,22.461,970.703,0.000
1737556189.419,-51.270,-2.930,12.695,970.703,0.000
1737556189.423,-61.523,-18.066,-5.371,970.215,0.000
1737556189.427,-41.992,-12.207,12.695,970.703,0.000
1737556189.430,-11.719,0.488,15.137,970.703,0.000
1737556189.434,-24.902,-20.996,-5.371,970.703,0.000
1737556189.438,-53.711,-32.227,-7.812,970.703,0.000
1737556189.443,-52.734,-14.648,-1.953,970.703,0.000
1737556189.446,-14.160,-7.812,11.719,970.703,0.000
1737556189.450,0.488,-1.465,25.879,970.703,0.000
1737556189.454,-24.414,-7.324,30.273,970.703,0.000
1737556189.458,-54.199,-22.461,17.090,970.703,0.000
1737556189.462,-53.711,8.789,3.418,970.703,0.000
1737556189.466,-41.504,7.812,20.020,970.703,0.000
1737556189.470,-30.273,-23.438,28.320,970.703,0.000
1737556189.473,-55.176,-28.809,19.531,970.703,0.000
1737556189.477,-100.586,-43.457,4.395,970.703,0.000
1737556189.481,-89.355,-27.832,-0.977,970.703,0.000
1737556189.485,-62.988,-16.602,-0.488,970.703,0.000
1737556189.485,-62.988,-16.602,-0.488,970.703,0.000
1737556189.489,-40.527,-31.250,3.418,970.703,0.000
1737556189.493,-26.855,-20.020,14.160,970.703,0.000
1737556189.497,-49.805,-12.207,0.488,970.703,0.000
1737556189.501,-67.871,-31.250,-13.184,970.703,0.000
1737556189.505,-35.645,-10.254,5.371,970.703,0.000
1737556189.509,-7.324,10.254,25.391,970.703,0.000
1737556189.513,-25.391,-8.301,14.160,970.703,0.000
1737556189.516,-72.754,-48.828,-27.832,970.703,0.000
1737556189.520,-68.848,-50.781,-29.297,970.703,0.000
1737556189.524,-25.391,-20.020,3.418,970.703,0.000
1737556189.528,3.906,-6.348,18.555,970.703,0.000
1737556189.532,-14.648,-20.508,-11.719,970.703,0.000
1737556189.536,-50.781,-25.391,-36.621,970.703,0.000
1737556189.540,-53.711,-39.551,-18.066,970.703,0.000
1737556189.544,-28.320,-39.062,-6.348,970.703,0.000
1737556189.548,-12.207,-22.949,-6.348,970.703,0.000
1737556189.552,-16.113,-24.902,-12.207,970.703,0.000
1737556189.556,-38.086,-13.672,-17.090,970.703,0.000
1737556189.559,-58.105,-16.113,-22.949,970.703,0.000
1737556189.563,-41.992,-21.973,-13.672,970.703,0.000
1737556189.567,-22.461,-15.625,5.859,970.703,0.000
1737556189.571,-14.648,-16.602,8.301,971.191,0.000
1737556189.575,-45.410,-37.109,-10.254,970.703,0.000
1737556189.579,-83.496,-56.641,-20.508,970.703,0.000
1737556189.583,-74.707,-52.734,-19.531,970.703,0.000
1737556189.587,-38.086,-31.738,-20.508,970.703,0.000
1737556189.591,-13.184,-19.531,-7.324,970.703,0.000
1737556189.595,-37.109,-32.227,-3.906,970.703,0.000
1737556189.599,-69.336,-19.043,-33.691,970.703,0.000
1737556189.602,-64.941,5.371,-36.621,970.703,0.000
1737556189.606,-39.062,-14.160,-4.395,970.703,0.000
1737556189.610,-24.902,-29.297,19.043,970.703,0.000
1737556189.614,-67.383,-40.527,12.207,970.703,0.000
1737556189.618,-95.703,-47.852,-12.207,970.703,0.000
1737556189.622,-67.383,-21.973,-13.184,970.703,0.000
1737556189.626,-34.668,-12.695,10.742,970.703,0.000
1737556189.626,-34.668,-12.695,10.742,970.703,0.000
1737556189.630,-30.762,-26.855,3.418,970.703,0.000
1737556189.634,-69.336,-34.180,-14.160,970.703,0.000
1737556189.638,-96.680,-27.344,-7.812,970.703,0.000
1737556189.642,-101.074,-28.809,-17.578,970.703,0.000
1737556189.645,-75.684,-31.250,-13.672,970.703,0.000
1737556189.649,-29.785,-24.902,8.789,970.703,0.000
1737556189.653,-28.320,-16.602,5.371,970.703,0.000
1737556189.657,-69.824,-32.227,-29.785,970.703,0.000
1737556189.661,-81.543,-61.035,-49.805,970.703,0.000
1737556189.665,-39.551,-42.480,-27.832,970.703,0.000
1737556189.669,4.395,-24.902,11.719,970.703,0.000
1737556189.673,3.418,-27.832,2.930,970.703,0.000
1737556189.677,-25.391,-28.320,-31.738,970.703,0.000
1737556189.681,-20.020,-11.719,-41.504,970.703,0.000
1737556189.685,-12.207,-14.160,-26.367,970.703,0.000
1737556189.688,-23.926,-42.480,-12.207,970.703,0.000
1737556189.692,-38.086,-44.922,-8.301,970.703,0.000
1737556189.696,-52.246,-34.180,-11.719,970.703,0.000
1737556189.700,-51.758,-20.508,-21.484,970.703,0.000
1737556189.704,-56.641,-32.227,-19.531,970.703,0.000
1737556189.708,-39.062,-20.020,-5.859,970.703,0.000
1737556189.712,-27.832,-3.906,2.441,970.703,0.000
1737556189.716,-60.059,-30.273,-14.648,970.703,0.000
1737556189.719,-85.449,-59.082,-37.109,970.703,0.000
1737556189.724,-70.801,-36.621,-14.648,970.703,0.000
1737556189.728,-55.176,-23.438,3.906,970.703,0.000
1737556189.732,-64.453,-46.387,-9.766,970.703,0.000
1737556189.735,-70.801,-39.551,-29.785,970.703,0.000
1737556189.739,-59.570,-26.855,-32.227,970.703,0.000
1737556189.743,-41.992,-15.137,-6.348,970.703,0.000
1737556189.747,-22.461,-4.883,6.836,970.703,0.000
1737556189.751,-25.879,-17.578,1.953,970.703,0.000
1737556189.755,-54.688,-24.414,-26.367,970.703,0.000
1737556189.759,-71.777,-48.828,-46.875,970.703,0.000
1737556189.762,-50.293,-44.434,-2.441,970.703,0.000
1737556189.766,-21.484,-4.395,17.578,970.703,0.000
1737556189.766,-21.484,-4.395,17.578,970.703,0.000
1737556189.771,-15.625,-10.742,-6.836,970.703,0.000
1737556189.775,-36.621,-27.832,-7.324,970.703,0.000
1737556189.778,-65.430,-39.062,-21.973,970.703,0.000
1737556189.782,-57.617,-29.297,-18.066,970.703,0.000
1737556189.786,-19.531,-12.695,22.461,970.703,0.000
1737556189.790,2.930,-3.418,36.133,970.703,0.000
1737556189.794,-40.039,-27.832,6.836,970.703,0.000
1737556189.798,-59.570,-43.945,-26.367,970.703,0.000
1737556189.802,-56.641,-40.039,-16.113,970.703,0.000
1737556189.805,-54.199,-32.715,15.137,970.703,0.000
1737556189.809,-34.668,-18.066,-15.137,970.703,0.000
1737556189.813,-42.969,-20.020,-29.785,970.703,0.000
1737556189.818,-55.664,-20.996,6.836,970.215,0.000
1737556189.821,-67.383,-28.809,-6.348,970.703,0.000
1737556189.825,-56.641,-30.762,-22.949,970.703,0.000
1737556189.829,-32.227,-24.902,1.465,970.703,0.000
1737556189.833,-31.738,-32.715,6.836,970.703,0.000
1737556189.837,-69.336,-22.949,-23.438,970.703,0.000
1737556189.841,-122.070,-30.762,-42.480,970.703,0.000
1737556189.845,-187.500,-40.039,-56.152,970.703,0.000
1737556189.848,-251.465,-25.879,-61.035,970.703,0.000
1737556189.852,-307.129,-40.527,-65.918,970.703,0.000
1737556189.856,-377.930,-46.387,-110.840,970.703,0.000
1737556189.860,-484.375,-47.363,-159.180,970.703,0.000
1737556189.864,-556.152,-55.176,-184.082,970.703,0.000
1737556189.868,-516.602,-54.688,-178.223,970.703,0.000
1737556189.872,-432.617,-46.387,-158.203,970.703,0.000
1737556189.876,-397.949,-64.453,-141.602,970.703,0.000
1737556189.880,-366.699,-64.941,-89.844,970.703,0.000
1737556189.884,-336.426,-51.758,-37.598,970.703,0.000
1737556189.888,-271.973,-56.152,-9.277,970.703,0.000
1737556189.891,-250.000,-72.754,-2.441,970.703,0.000
1737556189.895,-280.273,-90.820,4.395,970.703,0.000
1737556189.899,-230.469,-71.289,31.250,970.703,0.000
1737556189.903,-174.805,-50.781,4.883,970.703,0.000
1737556189.907,-104.004,-29.297,-31.738,970.703,0.000
1737556189.907,-104.004,-29.297,-31.738,970.703,0.000
1737556189.911,-69.824,-60.547,-2.930,970.703,0.000
1737556189.915,-31.738,-43.457,-14.160,970.703,0.000
1737556189.919,22.461,-37.109,-97.168,970.703,0.000
1737556189.923,69.824,-86.426,-119.141,970.703,0.000
1737556189.927,149.414,-22.461,-62.500,970.703,0.000
1737556189.931,104.004,-22.461,-70.312,970.703,0.000
1737556189.934,30.762,-54.688,-46.387,970.703,0.000
1737556189.938,-0.977,-42.480,-10.742,970.703,0.000
1737556189.942,-48.828,-41.992,-25.879,970.703,0.000
1737556189.946,-77.637,-38.574,9.277,970.703,0.000
1737556189.950,-78.613,-37.109,29.785,970.703,0.000
1737556189.954,-84.961,-22.461,23.926,970.703,0.000
1737556189.958,-126.465,-31.250,6.348,970.703,0.000
1737556189.962,-148.926,-40.039,3.906,970.703,0.000
1737556189.966,-106.934,-29.785,48.340,970.703,0.000
1737556189.970,-85.938,-43.457,35.645,970.703,0.000
1737556189.974,-95.703,-37.109,6.836,970.703,0.000
1737556189.977,-56.152,-21.484,29.785,970.703,0.000
1737556189.981,-61.035,-33.691,10.254,970.703,0.000
1737556189.985,-55.664,-2.441,0.977,970.703,0.000
1737556189.989,5.859,26.367,47.852,970.703,0.000
1737556189.993,8.301,-1.465,32.227,970.703,0.000
1737556189.997,-21.484,-36.621,7.812,970.703,0.000
1737556190.001,-37.109,-64.941,-2.930,970.703,0.000
1737556190.005,21.973,-23.438,13.184,970.703,0.000
1737556190.009,66.406,-3.906,25.879,970.703,0.000
1737556190.013,57.617,-15.625,18.066,970.703,0.000
1737556190.017,33.203,-1.953,10.742,970.703,0.000
1737556190.020,45.410,2.441,18.066,970.703,0.000
1737556190.024,83.008,11.719,26.367,970.703,0.000
1737556190.028,113.770,18.555,38.086,970.703,0.000
1737556190.032,101.562,-0.977,42.480,970.703,0.000
1737556190.036,64.453,-24.414,22.949,970.703,0.000
1737556190.040,62.012,-33.203,4.883,970.703,0.000
1737556190.044,88.379,-12.695,3.418,970.703,0.000
1737556190.048,105.957,-4.395,8.789,970.703,0.000
1737556190.048,105.957,-4.395,8.789,970.703,0.000
1737556190.052,101.562,-0.488,-2.930,970.703,0.000
1737556190.056,47.363,-13.672,-33.691,970.703,0.000
1737556190.060,33.203,-24.414,-37.598,970.703,0.000
1737556190.063,42.480,-28.320,-41.016,970.703,0.000
1737556190.067,47.363,-28.320,-44.922,970.703,0.000
1737556190.071,72.266,-1.953,-28.809,970.703,0.000
1737556190.075,56.152,-2.441,-37.109,970.703,0.000
1737556190.079,41.016,-26.367,-58.105,970.215,0.000
1737556190.083,63.477,-17.578,-43.945,970.703,0.000
1737556190.087,96.191,5.371,-21.484,970.703,0.000
1737556190.091,112.793,20.996,-4.395,970.703,0.000
1737556190.094,68.359,-2.441,-14.648,970.703,0.000
1737556190.099,10.742,-34.180,-41.016,970.703,0.000
1737556190.103,9.277,-33.691,-39.062,970.703,0.000
1737556190.106,50.293,-3.906,-2.441,970.703,0.000
1737556190.110,29.297,-7.812,-8.301,970.703,0.000
1737556190.114,-29.785,-39.551,-34.668,970.703,0.000
1737556190.118,-36.133,-37.109,-30.273,970.703,0.000
1737556190.122,-22.949,-31.250,-30.762,970.703,0.000
1737556190.126,5.371,-34.180,-24.414,970.703,0.000
1737556190.130,19.043,-38.086,-17.090,970.215,0.000
1737556190.134,12.207,-17.578,-24.414,970.703,0.000
1737556190.137,-7.324,-19.531,-38.574,970.703,0.000
1737556190.141,-12.695,-18.555,-33.203,970.703,0.000
1737556190.146,-0.488,-11.230,-26.855,970.703,0.000
1737556190.149,16.602,-10.742,-19.043,970.703,0.000
1737556190.153,-14.648,-21.484,-33.691,970.703,0.000
1737556190.157,-50.293,-40.527,-58.594,970.703,0.000
1737556190.161,-35.156,-42.480,-59.570,970.703,0.000
1737556190.165,-3.418,-28.809,-37.598,970.703,0.000
1737556190.169,22.949,-10.742,-23.926,970.703,0.000
1737556190.173,8.301,-27.832,-26.855,970.703,0.000
1737556190.177,-8.789,-34.180,-53.711,970.703,0.000
1737556190.180,-12.695,-18.066,-62.500,970.703,0.000
1737556190.184,4.395,3.418,-6.348,970.703,0.000
1737556190.188,5.859,-24.414,10.254,970.703,0.000
1737556190.188,5.859,-24.414,10.254,970.703,0.000
1737556190.192,-20.020,-52.246,-16.113,970.215,0.000
1737556190.196,-41.992,-39.551,-41.504,970.703,0.000
1737556190.200,-60.547,-42.480,-63.965,970.703,0.000
1737556190.204,-59.082,-37.598,-44.922,970.703,0.000
1737556190.208,-20.508,-10.254,3.906,970.703,0.000
1737556190.212,-17.578,-3.418,5.371,970.703,0.000
1737556190.216,-68.359,-31.250,-29.785,970.703,0.000
1737556190.220,-84.961,-52.246,-38.086,970.703,0.000
1737556190.223,-63.477,-41.016,-25.879,970.703,0.000
1737556190.227,-15.625,-24.414,-24.902,970.703,0.000
1737556190.231,-12.207,-33.691,-49.316,970.703,0.000
1737556190.235,-27.344,-14.160,-31.250,970.703,0.000
1737556190.239,-23.926,0.000,3.906,970.703,0.000
1737556190.243,-61.523,-41.504,-21.973,970.703,0.000
1737556190.247,-43.945,-48.340,-11.230,970.703,0.000
1737556190.251,-19.043,-24.902,-6.836,970.703,0.000
1737556190.255,-42.969,-20.508,-41.016,970.703,0.000
1737556190.259,-52.246,-28.320,-29.785,970.703,0.000
1737556190.263,-45.410,-26.855,-11.719,970.703,0.000
1737556190.266,-33.691,-39.062,-23.926,970.703,0.000
1737556190.270,-26.367,-41.992,-26.855,970.703,0.000
1737556190.274,-48.340,-29.785,-19.043,970.703,0.000
1737556190.278,-70.801,-29.785,-32.227,970.703,0.000
1737556190.282,-46.875,-14.160,-31.738,970.703,0.000
1737556190.286,-28.320,-0.488,-10.742,970.703,0.000
1737556190.290,-55.664,-19.043,-10.254,970.703,0.000
1737556190.294,-97.168,-40.039,-28.320,970.703,0.000
1737556190.298,-111.328,-47.363,-51.758,970.703,0.000
1737556190.302,-98.633,-50.293,-41.504,970.703,0.000
1737556190.306,-67.383,-34.180,-17.578,970.703,0.000
1737556190.309,-49.805,-26.367,-16.113,970.703,0.000
1737556190.313,-61.035,-41.016,-26.367,970.703,0.000
1737556190.317,-74.707,-40.527,-35.156,970.703,0.000
1737556190.321,-57.129,-32.227,-42.480,970.703,0.000
1737556190.325,-25.391,-27.344,-29.297,970.703,0.000
1737556190.329,-9.277,-14.648,-19.043,970.703,0.000
1737556190.329,-9.277,-14.648,-19.043,970.703,0.000
1737556190.333,14.160,14.160,-11.719,970.703,0.000
1737556190.337,-24.902,-9.766,-29.297,970.703,0.000
1737556190.341,-85.938,-51.758,-56.641,970.703,0.000
1737556190.345,-73.730,-43.457,-45.410,970.703,0.000
1737556190.349,-39.551,-31.738,-46.387,970.703,0.000
1737556190.352,-30.762,-9.766,-34.668,970.703,0.000
1737556190.356,-75.195,-46.387,-18.555,970.703,0.000
1737556190.360,-92.285,-74.219,-29.297,970.703,0.000
1737556190.364,-54.688,-58.594,-41.504,970.703,0.000
1737556190.368,-21.484,-42.969,-30.273,970.703,0.000
1737556190.372,-34.668,-13.184,-5.371,970.703,0.000
1737556190.376,-70.312,-14.160,-25.879,970.703,0.000
1737556190.380,-92.285,-35.645,-32.715,970.703,0.000
1737556190.384,-103.516,-45.410,-19.531,970.703,0.000
1737556190.388,-86.426,-32.227,-10.254,970.703,0.000
1737556190.392,-76.172,-30.273,-9.277,970.703,0.000
1737556190.395,-100.098,-38.086,-36.133,970.703,0.000
1737556190.399,-102.539,-32.227,-43.945,970.703,0.000
1737556190.403,-88.867,-34.668,-30.762,970.703,0.000
1737556190.407,-67.871,-40.527,-22.461,970.703,0.000
1737556190.411,-39.551,-22.461,-22.461,970.703,0.000
1737556190.415,-54.199,-23.438,-37.109,970.703,0.000
1737556190.419,-63.477,-37.598,-40.039,970.703,0.000
1737556190.423,-63.965,-42.969,-40.527,970.703,0.000
1737556190.427,-42.969,-30.762,-40.039,970.703,0.000
1737556190.431,-27.344,-20.020,-39.062,970.703,0.000
1737556190.435,-59.570,-38.086,-39.551,970.703,0.000
1737556190.438,-71.289,-51.270,-41.016,970.703,0.000
1737556190.442,-48.828,-40.527,-32.715,970.703,0.000
1737556190.446,-33.203,-20.508,-17.090,970.703,0.000
1737556190.450,-30.273,-13.184,-16.113,970.703,0.000
1737556190.454,-46.875,-24.414,-38.086,970.703,0.000
1737556190.458,-82.520,-42.480,-61.035,970.703,0.000
1737556190.462,-78.613,-40.039,-45.410,970.703,0.000
1737556190.466,-45.898,-34.180,-27.344,970.703,0.000
1737556190.469,-40.039,-31.738,-23.438,970.703,0.000
1737556190.469,-40.039,-31.738,-23.438,970.703,0.000
1737556190.474,-60.059,-29.785,-32.715,970.703,0.000
1737556190.478,-83.984,-41.504,-41.504,970.703,0.000
1737556190.481,-97.168,-53.711,-56.152,970.703,0.000
1737556190.485,-83.008,-56.641,-48.828,970.703,0.000
1737556190.489,-66.406,-47.363,-0.977,970.703,0.000
1737556190.493,-74.219,-30.273,-1.953,970.703,0.000
1737556190.497,-100.586,-38.574,-43.457,970.703,0.000
1737556190.501,-110.840,-49.805,-54.688,970.703,0.000
1737556190.505,-90.332,-40.527,-50.293,970.703,0.000
1737556190.509,-50.293,-30.762,-40.039,970.703,0.000
1737556190.512,-39.551,-22.949,-24.414,970.703,0.000
1737556190.516,-60.059,-29.785,-39.062,970.703,0.000
1737556190.521,-71.777,-36.133,-52.734,970.703,0.000
1737556190.524,-70.312,-41.016,-37.109,970.703,0.000
1737556190.528,-44.434,-41.504,-16.602,970.703,0.000
1737556190.532,-40.527,-37.109,-29.785,970.703,0.000
1737556190.536,-79.590,-47.852,-53.223,970.703,0.000
1737556190.540,-90.332,-33.203,-47.852,970.703,0.000
1737556190.544,-78.613,-36.621,-41.504,970.703,0.000
1737556190.548,-64.453,-49.805,-42.969,970.703,0.000
1737556190.552,-62.988,-35.156,-38.574,970.703,0.000
1737556190.555,-97.168,-44.434,-50.781,970.703,0.000
1737556190.559,-107.910,-51.270,-62.012,970.703,0.000
1737556190.563,-96.680,-46.387,-40.527,970.703,0.000
1737556190.567,-76.172,-22.461,-30.273,970.703,0.000
1737556190.571,-64.453,-23.438,-30.273,970.703,0.000
1737556190.575,-98.145,-51.758,-35.156,970.703,0.000
1737556190.579,-107.422,-44.922,-40.527,970.703,0.000
1737556190.583,-99.609,-40.527,-34.180,970.215,0.000
1737556190.587,-79.102,-29.785,-25.879,970.703,0.000
1737556190.591,-59.082,-26.855,-16.602,970.703,0.000
1737556190.595,-70.801,-49.316,-30.762,970.703,0.000
1737556190.598,-78.125,-47.363,-47.363,970.703,0.000
1737556190.602,-81.543,-57.617,-54.199,970.703,0.000
1737556190.606,-59.082,-62.012,-30.762,970.703,0.000
1737556190.610,-38.086,-41.504,-7.324,970.703,0.000
1737556190.610,-38.086,-41.504,-7.324,970.703,0.000
1737556190.614,-64.941,-41.016,-25.391,970.703,0.000
1737556190.618,-80.078,-46.875,-47.363,970.703,0.000
1737556190.622,-89.844,-57.617,-55.664,970.703,0.000
1737556190.626,-89.844,-54.688,-36.133,970.703,0.000
1737556190.630,-70.312,-36.621,-28.320,970.703,0.000
1737556190.634,-72.754,-23.926,-44.922,970.703,0.000
1737556190.638,-98.633,-37.109,-52.734,970.703,0.000
1737556190.641,-94.238,-41.016,-48.828,970.703,0.000
1737556190.645,-68.848,-26.367,-50.293,970.703,0.000
1737556190.649,-48.340,-23.926,-30.273,970.703,0.000
1737556190.653,-48.828,-29.297,-20.020,970.703,0.000
1737556190.657,-91.797,-53.223,-62.012,970.703,0.000
1737556190.661,-96.680,-56.152,-71.289,970.703,0.000
1737556190.665,-75.684,-42.480,-43.945,970.703,0.000
1737556190.669,-53.711,-37.598,-30.273,970.703,0.000
1737556190.673,-50.293,-46.387,-43.945,970.703,0.000
1737556190.677,-87.402,-65.430,-51.758,970.703,0.000
1737556190.680,-92.285,-47.852,-67.871,970.703,0.000
1737556190.684,-62.988,-8.789,-80.566,970.703,0.000
1737556190.688,-41.992,-19.043,-39.551,970.703,0.000
1737556190.692,-47.852,-38.574,-10.742,970.703,0.000
1737556190.696,-70.312,-39.062,-29.297,970.703,0.000
1737556190.700,-82.520,-42.969,-58.594,970.703,0.000
1737556190.704,-83.496,-47.852,-51.758,970.703,0.000
1737556190.708,-64.941,-40.527,-22.461,970.703,0.000
1737556190.712,-53.711,-30.762,-19.531,970.703,0.000
1737556190.716,-73.242,-25.879,-34.180,970.703,0.000
1737556190.720,-106.934,-50.781,-50.293,970.703,0.000
1737556190.724,-107.910,-56.641,-43.945,970.703,0.000
1737556190.727,-63.477,-16.113,-28.809,970.703,0.000
1737556190.731,-56.641,-9.277,-29.785,970.703,0.000
1737556190.735,-86.914,-28.809,-47.852,970.703,0.000
1737556190.739,-94.238,-40.527,-40.039,970.703,0.000
1737556190.743,-99.121,-50.781,-40.039,970.703,0.000
1737556190.747,-76.660,-39.062,-38.086,970.703,0.000
1737556190.751,-53.711,-28.320,-39.551,970.703,0.000
1737556190.751,-53.711,-28.320,-39.551,970.703,0.000
1737556190.755,-70.801,-40.527,-70.801,970.703,0.000
1737556190.759,-88.379,-54.688,-73.730,970.703,0.000
1737556190.763,-81.543,-46.875,-62.012,970.703,0.000
1737556190.767,-47.363,-29.297,-42.969,970.703,0.000
1737556190.770,-27.832,-17.578,-46.875,970.703,0.000
1737556190.774,-48.340,-14.160,-72.754,970.703,0.000
1737556190.778,-65.430,-19.043,-51.270,970.703,0.000
1737556190.782,-66.895,-30.762,-16.602,970.703,0.000
1737556190.786,-54.688,-34.180,-10.254,970.703,0.000
1737556190.790,-54.199,-24.414,-21.973,970.703,0.000
1737556190.794,-79.590,-29.785,-48.340,970.703,0.000
1737556190.797,-100.586,-39.551,-62.012,970.703,0.000
1737556190.802,-98.633,-39.062,-68.359,970.703,0.000
1737556190.806,-86.914,-47.363,-60.059,970.703,0.000
1737556190.810,-64.941,-39.551,-47.852,970.703,0.000
1737556190.813,-72.754,-26.367,-45.410,970.703,0.000
1737556190.817,-114.258,-47.363,-47.363,970.703,0.000
1737556190.821,-144.043,-41.504,-60.547,970.703,0.000
1737556190.825,-149.414,-21.973,-61.523,970.703,0.000
1737556190.829,-161.133,-29.297,-53.711,970.703,0.000
1737556190.833,-221.191,-37.598,-86.914,970.703,0.000
1737556190.837,-298.340,-51.758,-106.934,970.703,0.000
1737556190.841,-340.332,-42.480,-115.234,970.703,0.000
1737556190.844,-370.605,-44.922,-163.574,970.703,0.000
1737556190.849,-381.836,-59.570,-207.520,970.703,0.000
1737556190.853,-378.906,-53.223,-254.883,970.703,0.000
1737556190.856,-400.879,-49.316,-286.133,970.703,0.000
1737556190.860,-408.203,-74.707,-287.598,970.703,0.000
1737556190.864,-371.582,-94.238,-260.254,970.703,0.000
1737556190.868,-317.871,-68.359,-183.105,970.703,0.000
1737556190.872,-290.527,-61.523,-116.699,970.703,0.000
1737556190.876,-294.922,-72.266,-97.168,970.703,0.000
1737556190.880,-271.973,-78.125,-88.867,970.703,0.000
1737556190.884,-220.215,-79.590,-26.367,970.703,0.000
1737556190.887,-149.902,-58.594,43.457,970.703,0.000
1737556190.891,-154.297,-62.500,10.742,970.703,0.000
1737556190.891,-154.297,-62.500,10.742,970.703,0.000
1737556190.896,-190.918,-78.613,-33.203,970.703,0.000
1737556190.899,-181.152,-61.523,-60.059,970.703,0.000
1737556190.903,-155.762,-63.477,-92.285,970.703,0.000
1737556190.907,-91.309,-64.453,-99.121,970.703,0.000
1737556190.911,-53.711,-54.199,-105.469,970.703,0.000
1737556190.915,-56.641,-55.176,-122.070,970.703,0.000
1737556190.919,-44.434,-55.176,-115.234,970.703,0.000
1737556190.923,-23.438,-62.500,-98.145,970.703,0.000
1737556190.927,-11.719,-65.918,-63.965,970.703,0.000
1737556190.930,-4.395,-50.293,-26.367,970.703,0.000
1737556190.934,-52.246,-49.316,-27.344,970.703,0.000
1737556190.938,-104.492,-66.406,-41.016,970.703,0.000
1737556190.942,-107.422,-70.801,-34.180,970.703,0.000
1737556190.946,-76.660,-62.988,-9.766,970.703,0.000
1737556190.950,-39.062,-33.691,9.766,970.703,0.000
1737556190.954,-50.293,-19.043,24.414,970.703,0.000
1737556190.958,-87.891,-34.668,4.395,970.703,0.000
1737556190.962,-97.168,-44.434,1.465,970.703,0.000
1737556190.966,-76.172,-44.434,5.859,970.703,0.000
1737556190.970,-47.852,-39.062,5.371,970.703,0.000
1737556190.973,-57.129,-47.852,6.836,970.703,0.000
1737556190.977,-82.031,-59.570,-4.883,970.703,0.000
1737556190.981,-73.242,-60.059,-11.719,970.703,0.000
1737556190.985,-28.809,-31.250,-4.395,970.703,0.000
1737556190.989,18.066,-2.930,-14.648,970.703,0.000
1737556190.993,32.715,-14.648,-15.625,970.703,0.000
1737556190.997,29.297,-26.367,-13.184,970.703,0.000
1737556191.001,48.828,-20.996,-22.461,970.703,0.000
1737556191.005,83.496,-3.418,-20.020,970.703,0.000
1737556191.009,117.188,18.066,-6.348,970.703,0.000
1737556191.012,120.117,13.184,-1.953,970.215,0.000
1737556191.016,70.801,-23.926,-22.461,970.215,0.000
1737556191.020,39.062,-46.875,-29.785,970.703,0.000
1737556191.024,63.965,-24.414,-19.043,970.703,0.000
1737556191.028,104.980,-2.930,-0.488,970.703,0.000
1737556191.032,107.422,-6.836,-7.324,970.703,0.000
1737556191.032,107.422,-6.836,-7.324,970.703,0.000
1737556191.036,54.688,-11.719,-26.367,970.703,0.000
1737556191.040,13.672,-27.344,-19.043,970.703,0.000
1737556191.044,12.207,-20.508,-12.207,970.703,0.000
1737556191.048,34.668,-3.418,-8.301,970.703,0.000
1737556191.052,45.410,-4.883,-8.789,970.703,0.000
1737556191.055,20.996,-7.324,-26.855,970.703,0.000
1737556191.059,4.883,-21.973,-43.457,970.703,0.000
1737556191.063,6.836,-33.691,-43.945,970.703,0.000
1737556191.067,34.180,-23.926,-19.531,970.703,0.000
1737556191.071,54.688,-14.160,-8.789,970.703,0.000
1737556191.075,33.691,-15.137,-26.855,970.703,0.000
1737556191.079,26.855,-18.066,-32.227,970.703,0.000
1737556191.083,29.785,-10.254,-27.344,970.703,0.000
1737556191.087,19.531,-20.020,-33.691,970.703,0.000
1737556191.091,21.484,-32.715,-22.949,970.703,0.000
1737556191.095,26.367,-26.367,-10.254,970.703,0.000
1737556191.098,9.766,-26.855,-23.926,970.703,0.000
1737556191.102,-22.461,-27.344,-29.297,970.703,0.000
1737556191.106,-24.902,-19.531,-15.625,970.703,0.000
1737556191.110,-23.438,-24.902,-8.301,970.703,0.000
1737556191.114,-52.246,-33.203,-19.531,970.703,0.000
1737556191.118,-84.961,-42.969,-47.852,970.703,0.000
1737556191.122,-75.684,-29.297,-45.410,970.703,0.000
1737556191.126,-39.551,-11.719,-24.902,970.703,0.000
1737556191.130,-21.973,-20.508,-22.461,970.703,0.000
1737556191.134,-34.668,-24.414,-39.062,970.703,0.000
1737556191.138,-53.223,-22.461,-51.758,970.703,0.000
1737556191.142,-50.293,-18.555,-43.457,970.703,0.000
1737556191.145,-26.855,-2.930,-51.758,970.703,0.000
1737556191.149,-12.207,-9.766,-38.574,970.703,0.000
1737556191.153,-38.574,-39.062,-29.785,970.703,0.000
1737556191.157,-83.984,-57.617,-61.523,970.703,0.000
1737556191.161,-88.379,-57.617,-65.918,970.703,0.000
1737556191.165,-45.410,-29.297,-52.246,970.703,0.000
1737556191.169,-18.555,-18.066,-39.062,970.703,0.000
1737556191.172,-40.039,-29.297,-28.320,970.703,0.000
1737556191.172,-40.039,-29.297,-28.320,970.703,0.000
1737556191.177,-72.266,-38.086,-40.527,970.703,0.000
1737556191.181,-73.242,-40.039,-70.801,970.703,0.000
1737556191.185,-57.617,-22.461,-64.941,970.703,0.000
1737556191.188,-42.480,-20.020,-33.691,970.703,0.000
1737556191.192,-34.668,-20.508,-32.715,970.703,0.000
1737556191.196,-67.871,-19.531,-43.457,970.703,0.000
1737556191.200,-103.516,-28.320,-40.527,970.703,0.000
1737556191.204,-112.305,-40.039,-35.645,970.703,0.000
1737556191.208,-80.078,-31.738,-22.949,970.703,0.000
1737556191.212,-78.125,-25.391,-17.090,970.703,0.000
1737556191.215,-112.793,-44.434,-38.574,970.703,0.000
1737556191.219,-110.352,-47.852,-48.828,970.703,0.000
1737556191.224,-87.891,-24.902,-39.551,970.703,0.000
1737556191.228,-54.688,-15.625,-34.668,970.703,0.000
1737556191.231,-38.574,-23.926,-16.113,970.703,0.000
1737556191.235,-67.383,-38.086,-36.133,970.703,0.000
1737556191.239,-82.520,-45.410,-69.336,970.703,0.000
1737556191.243,-60.547,-20.508,-50.293,970.703,0.000
1737556191.247,-40.527,-9.277,-17.090,970.703,0.000
1737556191.251,-45.898,-29.297,-31.250,970.703,0.000
