timestamps,TP9,AF7,AF8,TP10,Right AUX
1737553709.209,25.391,-34.668,-8.301,155.762,0.000
1737553709.213,24.414,-36.133,-13.672,121.582,0.000
1737553709.217,10.254,-38.086,-12.695,23.438,0.000
1737553709.221,4.395,-40.039,-9.277,20.508,0.000
1737553709.225,11.719,-32.227,-4.395,97.168,0.000
1737553709.229,16.113,-22.949,0.488,164.062,0.000
1737553709.233,9.766,-22.949,-5.371,140.625,0.000
1737553709.237,19.043,-28.320,-6.836,34.668,0.000
1737553709.241,8.301,-33.691,-5.371,14.160,0.000
1737553709.245,-3.906,-35.645,-9.277,90.820,0.000
1737553709.248,17.090,-26.855,-7.812,164.551,0.000
1737553709.252,27.344,-20.020,-5.859,181.152,0.000
1737553709.256,32.227,-28.320,-11.719,112.305,0.000
1737553709.260,-21.973,-35.645,-16.113,53.711,0.000
1737553709.264,-27.832,-34.180,-12.207,111.816,0.000
1737553709.268,4.395,-34.180,-11.719,187.012,0.000
1737553709.272,5.859,-32.715,-16.113,195.312,0.000
1737553709.276,2.930,-32.227,-18.066,107.910,0.000
1737553709.280,-15.137,-28.320,-13.672,43.457,0.000
1737553709.284,-18.555,-28.809,-12.695,92.285,0.000
1737553709.287,-16.113,-38.574,-20.508,151.855,0.000
1737553709.291,-5.371,-32.715,-18.555,172.852,0.000
1737553709.295,-2.441,-28.809,-16.113,106.445,0.000
1737553709.299,-7.812,-32.227,-18.066,28.320,0.000
1737553709.303,19.043,-28.320,-16.602,59.082,0.000
1737553709.307,0.977,-32.227,-18.066,138.672,0.000
1737553709.311,-6.348,-33.203,-16.602,180.176,0.000
1737553709.315,7.812,-35.645,-15.137,104.980,0.000
1737553709.319,-5.859,-38.574,-16.602,16.602,0.000
1737553709.323,-4.395,-30.762,-15.137,78.613,0.000
1737553709.327,-1.465,-29.297,-16.602,166.016,0.000
1737553709.330,4.883,-27.344,-15.137,195.312,0.000
1737553709.334,2.930,-28.809,-14.648,141.602,0.000
1737553709.338,-0.488,-35.156,-18.066,53.223,0.000
1737553709.342,-9.766,-33.691,-14.648,71.777,0.000
1737553709.346,5.371,-26.367,-13.184,166.504,0.000
1737553709.350,29.785,-18.066,-9.277,220.703,0.000
1737553709.354,31.738,-13.184,-9.277,162.598,0.000
1737553709.358,2.930,-22.949,-13.672,62.500,0.000
1737553709.362,-20.508,-33.203,-20.508,65.430,0.000
1737553709.366,-18.555,-30.762,-28.809,139.648,0.000
1737553709.370,-37.598,-40.527,-20.996,172.363,0.000
1737553709.373,-98.145,-42.480,-23.926,72.754,0.000
1737553709.377,-212.891,-67.383,-90.332,-150.879,0.000
1737553709.381,-250.977,-136.719,-112.305,-208.496,0.000
1737553709.385,-291.504,-118.164,-107.422,-220.215,0.000
1737553709.389,-236.816,-47.852,-62.012,-126.465,0.000
1737553709.393,46.387,31.738,91.797,153.809,0.000
1737553709.397,42.480,75.195,85.449,39.062,0.000
1737553709.401,-259.766,-7.812,-65.430,-339.844,0.000
1737553709.405,-492.676,-85.938,-111.328,-527.344,0.000
1737553709.409,-484.863,0.488,20.996,-380.371,0.000
1737553709.412,-320.801,37.598,17.578,-160.156,0.000
1737553709.416,-299.316,10.742,20.996,-120.605,0.000
1737553709.420,-385.742,65.430,82.520,-222.168,0.000
1737553709.424,-426.270,55.664,101.562,-211.426,0.000
1737553709.428,-319.336,193.848,182.129,-20.508,0.000
1737553709.432,-272.461,358.398,221.680,3.906,0.000
1737553709.436,-475.098,282.715,174.805,-323.730,0.000
1737553709.440,-447.266,264.160,194.336,-379.395,0.000
1737553709.444,-265.625,283.691,258.301,-90.820,0.000
1737553709.448,-259.277,208.496,313.965,-11.230,0.000
1737553709.452,-408.691,124.023,255.859,-161.133,0.000
1737553709.455,-474.121,105.469,217.285,-372.559,0.000
1737553709.459,-462.891,177.246,240.723,-521.484,0.000
1737553709.463,-442.871,218.750,179.199,-489.746,0.000
1737553709.467,-525.391,227.539,81.055,-563.965,0.000
1737553709.471,-564.941,247.070,30.762,-767.090,0.000
1737553709.475,-564.453,207.520,-41.016,-944.336,0.000
1737553709.479,-586.426,204.102,-118.164,-1000.000,0.000
1737553709.483,-563.965,208.984,-154.297,-993.652,0.000
1737553709.487,-533.203,208.496,-216.797,-1000.000,0.000
1737553709.491,-502.930,270.508,-270.508,-1000.000,0.000
1737553709.494,-466.309,334.961,-337.891,-1000.000,0.000
1737553709.498,-474.609,386.230,-412.109,-1000.000,0.000
1737553709.502,-495.605,440.918,-448.730,-1000.000,0.000
1737553709.506,-466.797,494.629,-491.211,-1000.000,0.000
1737553709.510,-444.336,530.273,-540.527,-1000.000,0.000
1737553709.514,-399.414,541.016,-576.172,-1000.000,0.000
1737553709.518,-363.281,549.316,-605.957,-1000.000,0.000
1737553709.522,-368.652,513.672,-614.258,-995.605,0.000
1737553709.526,-330.078,485.840,-632.324,-1000.000,0.000
1737553709.530,-294.922,459.961,-626.465,-964.355,0.000
1737553709.534,-298.340,382.812,-616.211,-877.930,0.000
1737553709.537,-296.387,338.867,-608.887,-895.508,0.000
1737553709.541,-281.250,330.078,-580.078,-829.590,0.000
1737553709.545,-249.023,255.859,-559.082,-666.504,0.000
1737553709.549,-195.312,195.801,-543.945,-520.508,0.000
1737553709.553,-164.551,198.730,-518.555,-469.727,0.000
1737553709.557,-166.504,182.129,-491.211,-535.156,0.000
1737553709.561,-128.906,208.496,-427.246,-477.051,0.000
1737553709.565,-69.336,280.273,-331.055,-336.914,0.000
1737553709.569,-10.742,348.633,-246.582,-186.035,0.000
1737553709.573,49.316,407.715,-167.480,-50.781,0.000
1737553709.577,100.586,465.332,-92.285,-64.941,0.000
1737553709.580,153.320,538.574,-1.465,-11.230,0.000
1737553709.584,210.449,580.078,105.469,164.551,0.000
1737553709.588,239.258,584.961,185.059,263.184,0.000
1737553709.592,268.066,556.152,229.980,292.969,0.000
1737553709.596,297.852,525.391,255.371,262.207,0.000
1737553709.600,304.688,510.254,271.484,277.344,0.000
1737553709.604,320.801,484.375,287.598,392.578,0.000
1737553709.608,334.473,448.242,295.410,475.098,0.000
1737553709.612,336.426,405.273,297.852,510.742,0.000
1737553709.616,326.172,364.258,290.039,449.219,0.000
1737553709.619,345.703,327.637,286.621,411.133,0.000
1737553709.623,360.840,287.598,281.738,468.750,0.000
1737553709.627,342.285,247.559,258.301,520.020,0.000
1737553709.631,314.941,192.871,236.328,533.691,0.000
1737553709.635,361.328,171.387,265.137,512.207,0.000
1737553709.639,323.730,138.672,228.516,406.250,0.000
1737553709.643,256.348,96.191,197.266,391.602,0.000
1737553709.647,320.312,68.359,250.977,529.785,0.000
1737553709.651,281.250,72.266,205.078,508.301,0.000
1737553709.655,180.664,73.730,173.828,332.031,0.000
1737553709.659,-2.930,-50.781,135.742,20.508,0.000
1737553709.662,34.668,-68.848,149.902,41.992,0.000
1737553709.666,224.121,21.973,263.184,324.219,0.000
1737553709.670,177.734,56.641,244.141,293.457,0.000
1737553709.674,94.238,45.898,191.895,115.723,0.000
1737553709.678,20.508,31.738,176.758,-45.410,0.000
1737553709.682,-38.086,4.395,160.645,-60.547,0.000
1737553709.686,-98.633,9.277,136.719,-37.109,0.000
1737553709.690,-87.891,39.551,132.812,11.230,0.000
1737553709.694,-55.176,31.738,128.906,-11.719,0.000
1737553709.698,-57.617,27.832,112.305,-144.531,0.000
1737553709.702,-81.055,11.719,101.074,-175.293,0.000
1737553709.705,-93.262,-27.344,85.449,-118.164,0.000
1737553709.709,-92.285,-45.410,77.148,-9.766,0.000
1737553709.713,-80.566,-57.617,79.102,35.156,0.000
1737553709.717,-82.031,-85.449,70.312,-20.996,0.000
1737553709.721,-86.426,-99.609,62.012,12.207,0.000
1737553709.725,-63.965,-116.211,63.965,128.418,0.000
1737553709.729,-50.293,-119.629,66.895,219.238,0.000
1737553709.733,-13.184,-122.070,62.012,220.703,0.000
1737553709.737,-50.293,-137.207,60.059,127.930,0.000
1737553709.741,-77.637,-140.625,61.523,124.023,0.000
1737553709.744,-33.691,-133.301,63.965,234.375,0.000
1737553709.748,-12.695,-136.719,58.594,307.617,0.000
1737553709.752,27.344,-131.836,48.340,305.176,0.000
1737553709.756,36.621,-122.559,52.246,213.379,0.000
1737553709.760,31.250,-131.836,55.176,151.367,0.000
1737553709.764,45.898,-126.953,49.805,224.121,0.000
1737553709.768,53.223,-105.469,49.805,341.797,0.000
1737553709.772,86.426,-94.727,49.805,368.652,0.000
1737553709.776,89.355,-91.309,48.340,266.602,0.000
1737553709.780,94.238,-80.078,50.781,205.078,0.000
1737553709.784,116.699,-60.059,50.293,243.164,0.000
1737553709.787,126.465,-53.711,46.387,291.992,0.000
1737553709.791,139.648,-56.152,48.340,336.426,0.000
1737553709.795,166.504,-63.965,45.898,273.438,0.000
1737553709.799,189.941,-85.449,42.480,150.391,0.000
1737553709.803,171.387,-94.727,46.875,178.223,0.000
1737553709.807,187.500,-104.492,51.270,267.578,0.000
1737553709.811,221.191,-118.652,53.223,313.965,0.000
1737553709.815,204.590,-112.305,46.875,252.441,0.000
1737553709.819,182.617,-111.816,35.645,159.180,0.000
1737553709.823,196.289,-118.164,30.762,186.523,0.000
1737553709.827,215.332,-118.652,34.668,253.418,0.000
1737553709.830,214.844,-123.047,38.574,296.875,0.000
1737553709.834,211.914,-125.000,42.969,250.488,0.000
1737553709.838,212.891,-122.559,40.527,165.039,0.000
1737553709.842,208.984,-127.441,39.551,172.852,0.000
1737553709.846,202.637,-129.883,43.945,237.793,0.000
1737553709.850,198.242,-126.465,39.551,287.598,0.000
1737553709.854,185.059,-132.324,33.203,243.164,0.000
1737553709.858,185.547,-138.672,29.785,142.578,0.000
1737553709.862,184.082,-136.230,31.250,145.508,0.000
1737553709.866,169.922,-136.719,27.344,214.355,0.000
1737553709.869,165.527,-139.648,24.414,277.832,0.000
1737553709.873,155.273,-139.160,25.879,254.395,0.000
1737553709.877,146.973,-134.766,23.438,138.672,0.000
1737553709.881,149.902,-129.883,21.973,127.441,0.000
1737553709.885,137.695,-120.117,20.020,202.148,0.000
1737553709.889,137.695,-116.211,19.531,265.625,0.000
1737553709.893,144.043,-122.559,16.602,241.699,0.000
1737553709.897,126.465,-121.582,16.113,128.906,0.000
1737553709.901,133.301,-120.117,12.207,90.820,0.000
1737553709.905,137.695,-113.281,13.184,171.387,0.000
1737553709.909,120.605,-108.398,15.625,249.023,0.000
1737553709.912,108.398,-112.793,12.207,233.887,0.000
1737553709.916,101.562,-115.234,9.766,109.375,0.000
1737553709.920,77.637,-115.723,11.230,24.902,0.000
1737553709.924,73.730,-112.793,9.277,90.820,0.000
1737553709.928,95.215,-107.910,3.418,171.387,0.000
1737553709.932,98.145,-104.980,0.000,189.941,0.000
1737553709.936,88.379,-106.934,4.883,96.191,0.000
1737553709.940,79.590,-106.445,13.184,5.859,0.000
1737553709.944,76.660,-104.004,9.277,61.035,0.000
1737553709.948,73.730,-95.703,5.371,147.461,0.000
1737553709.952,79.102,-87.891,7.324,169.434,0.000
1737553709.955,61.035,-91.797,4.883,84.961,0.000
1737553709.959,39.551,-91.797,3.418,-2.441,0.000
1737553709.963,45.410,-85.938,3.906,44.922,0.000
1737553709.967,50.293,-80.078,5.371,128.906,0.000
1737553709.971,61.523,-76.660,10.742,157.715,0.000
1737553709.975,50.293,-80.566,10.742,98.145,0.000
1737553709.979,48.828,-76.660,12.695,13.184,0.000
1737553709.983,35.645,-79.102,9.277,31.738,0.000
1737553709.987,45.410,-83.008,7.812,104.492,0.000
1737553709.991,28.809,-81.543,8.789,144.531,0.000
1737553709.994,-15.137,-84.961,8.301,69.824,0.000
1737553709.998,-9.766,-78.613,6.836,-69.824,0.000
1737553710.002,-8.789,-68.848,3.418,-47.852,0.000
1737553710.006,6.348,-69.824,4.883,50.781,0.000
1737553710.010,12.695,-75.684,4.883,78.125,0.000
1737553710.014,5.371,-79.102,5.859,36.621,0.000
1737553710.018,17.090,-78.125,2.441,-68.848,0.000
1737553710.022,8.789,-71.289,-0.977,-89.355,0.000
1737553710.026,17.090,-61.035,2.441,3.418,0.000
1737553710.030,24.902,-61.035,4.883,70.312,0.000
1737553710.034,2.930,-66.406,7.324,40.039,0.000
1737553710.037,-2.930,-62.988,4.883,-58.594,0.000
1737553710.041,-5.371,-62.500,1.953,-83.496,0.000
1737553710.045,1.465,-62.012,2.930,-1.953,0.000
1737553710.049,11.719,-61.035,2.441,74.219,0.000
1737553710.053,12.695,-61.035,1.465,44.922,0.000
1737553710.057,2.930,-62.988,-5.371,-69.336,0.000
1737553710.061,-6.836,-66.895,-11.230,-85.938,0.000
1737553710.065,-15.625,-63.965,-4.883,-11.719,0.000
1737553710.069,-3.906,-50.781,3.906,61.523,0.000
1737553710.073,6.348,-46.875,4.395,66.406,0.000
1737553710.077,0.488,-46.387,0.488,-29.785,0.000
1737553710.080,-9.766,-51.270,-0.977,-85.938,0.000
1737553710.084,-11.719,-62.012,0.000,-19.531,0.000
1737553710.088,-7.812,-59.570,-0.488,60.059,0.000
1737553710.092,-5.371,-49.805,0.000,64.941,0.000
1737553710.096,-12.207,-55.176,-0.977,-15.137,0.000
1737553710.100,-19.531,-55.664,-2.930,-67.871,0.000
1737553710.104,-18.066,-49.316,-1.465,-12.207,0.000
1737553710.108,-1.953,-52.246,-2.441,64.453,0.000
1737553710.112,-1.465,-53.711,-1.953,96.191,0.000
1737553710.116,-21.973,-58.105,-1.953,19.531,0.000
1737553710.119,-32.227,-60.059,-5.371,-60.547,0.000
1737553710.123,-7.812,-57.617,-6.836,-23.438,0.000
1737553710.127,0.000,-59.570,-7.812,69.824,0.000
1737553710.131,-19.531,-56.641,-6.348,104.004,0.000
1737553710.135,-10.254,-55.176,-9.277,14.648,0.000
1737553710.139,-24.902,-58.105,-14.648,-81.055,0.000
1737553710.143,-40.527,-56.152,-9.766,-47.363,0.000
1737553710.147,-24.902,-53.223,-3.906,39.062,0.000
1737553710.151,-15.137,-51.270,-8.789,77.148,0.000
1737553710.155,-18.555,-45.898,-16.113,22.949,0.000
1737553710.159,-21.484,-45.410,-13.672,-69.824,0.000
1737553710.162,-13.672,-46.387,-11.719,-41.016,0.000
1737553710.166,-8.301,-35.156,-11.230,48.828,0.000
1737553710.170,-4.395,-35.645,-12.207,91.797,0.000
1737553710.174,0.488,-43.945,-20.508,33.691,0.000
1737553710.178,-17.090,-45.410,-20.020,-67.871,0.000
1737553710.182,-32.715,-49.316,-13.672,-75.684,0.000
1737553710.186,-18.555,-48.340,-10.254,12.695,0.000
1737553710.190,-12.695,-48.828,-10.254,83.008,0.000
1737553710.194,-7.812,-46.387,-14.648,41.016,0.000
1737553710.198,-18.555,-47.852,-15.625,-67.871,0.000
1737553710.202,-28.320,-49.805,-15.625,-85.449,0.000
1737553710.205,-17.090,-43.945,-17.578,12.207,0.000
1737553710.209,-4.395,-45.410,-15.625,65.918,0.000
1737553710.213,-7.812,-47.363,-15.137,43.457,0.000
1737553710.217,-18.555,-48.828,-21.973,-36.621,0.000
1737553710.221,-0.977,-48.828,-21.484,-69.824,0.000
1737553710.225,-17.090,-45.410,-12.695,-12.207,0.000
1737553710.229,-25.391,-44.922,-11.719,62.988,0.000
1737553710.233,-10.254,-48.828,-11.230,77.637,0.000
1737553710.237,-19.043,-52.246,-11.719,-18.066,0.000
1737553710.241,-29.297,-53.711,-11.230,-75.684,0.000
1737553710.244,-24.414,-58.105,-11.719,-15.137,0.000
1737553710.248,-6.836,-54.199,-10.254,65.918,0.000
1737553710.252,-16.113,-48.340,-12.207,87.402,0.000
1737553710.256,-22.461,-53.223,-20.508,-17.090,0.000
1737553710.260,-23.438,-56.152,-24.414,-58.594,0.000
1737553710.264,-12.695,-57.129,-24.414,28.809,0.000
1737553710.268,-15.137,-47.363,-20.996,64.453,0.000
1737553710.272,-26.855,-45.410,-21.484,54.199,0.000
1737553710.276,-23.438,-51.270,-22.461,-11.230,0.000
1737553710.280,-25.391,-53.223,-20.020,-71.777,0.000
1737553710.284,-20.996,-48.828,-16.113,-9.277,0.000
1737553710.287,-18.066,-41.504,-16.602,72.754,0.000
1737553710.291,-17.090,-42.969,-20.020,93.750,0.000
1737553710.295,-18.066,-45.898,-21.973,11.230,0.000
1737553710.299,-27.344,-45.898,-27.832,-79.590,0.000
1737553710.303,-21.484,-43.945,-27.832,-26.367,0.000
1737553710.307,-10.742,-38.086,-22.949,69.824,0.000
1737553710.311,-26.855,-31.250,-19.043,83.984,0.000
1737553710.315,-53.711,-39.551,-21.973,-1.465,0.000
1737553710.319,-51.758,-39.062,-31.250,-103.516,0.000
1737553710.323,-67.383,-30.762,-29.785,-99.609,0.000
1737553710.326,-82.520,-25.391,-32.715,-55.176,0.000
1737553710.330,-73.730,-19.043,-34.180,-27.344,0.000
1737553710.334,-104.492,-15.625,-32.227,-95.215,0.000
1737553710.338,-156.250,-12.695,-24.414,-218.750,0.000
1737553710.342,-158.203,-14.648,-21.973,-225.586,0.000
1737553710.346,-176.270,-14.160,-28.320,-166.016,0.000
1737553710.350,-223.633,-15.625,-28.809,-148.926,0.000
1737553710.354,-261.230,-11.230,-24.902,-209.473,0.000
1737553710.358,-291.992,-17.578,-19.043,-340.332,0.000
1737553710.362,-306.641,-23.926,-17.578,-378.906,0.000
1737553710.366,-323.242,-28.320,-16.602,-324.219,0.000
1737553710.369,-339.355,-38.574,-8.789,-271.484,0.000
1737553710.373,-316.895,-46.875,0.000,-258.789,0.000
1737553710.377,-294.434,-57.617,-4.395,-330.078,0.000
1737553710.381,-283.203,-52.734,-6.836,-318.359,0.000
1737553710.385,-261.719,-41.016,-3.906,-213.867,0.000
1737553710.389,-230.469,-42.969,-9.766,-114.746,0.000
1737553710.393,-189.453,-45.410,-8.789,-66.895,0.000
1737553710.397,-152.832,-42.480,-2.930,-140.625,0.000
1737553710.401,-138.672,-45.410,-3.418,-141.602,0.000
1737553710.405,-121.094,-50.293,-7.812,-48.340,0.000
1737553710.409,-96.191,-46.387,-10.742,17.090,0.000
1737553710.412,-68.848,-41.016,-9.277,49.316,0.000
1737553710.416,-63.965,-45.410,-15.625,-25.879,0.000
1737553710.420,-61.035,-48.340,-21.973,-69.336,0.000
1737553710.424,-19.043,-45.898,-20.996,15.625,0.000
1737553710.428,-1.953,-45.898,-21.484,91.309,0.000
1737553710.432,1.465,-49.805,-21.484,97.168,0.000
1737553710.436,10.254,-51.758,-21.484,20.996,0.000
1737553710.440,14.160,-52.246,-23.438,-41.016,0.000
1737553710.444,30.273,-53.223,-20.508,14.648,0.000
1737553710.448,42.969,-44.922,-22.461,94.727,0.000
1737553710.451,52.246,-36.133,-21.484,130.371,0.000
1737553710.455,78.613,-41.016,-21.484,70.801,0.000
1737553710.459,61.035,-49.316,-26.855,-21.973,0.000
1737553710.463,30.762,-46.875,-22.949,12.695,0.000
1737553710.467,63.477,-47.363,-22.461,97.656,0.000
1737553710.471,81.055,-48.340,-21.484,147.461,0.000
1737553710.475,60.059,-47.363,-19.531,92.285,0.000
1737553710.479,64.941,-44.922,-27.832,1.465,0.000
1737553710.483,68.359,-45.410,-27.832,37.598,0.000
1737553710.487,73.730,-42.969,-19.531,111.328,0.000
1737553710.491,77.148,-45.898,-21.484,154.785,0.000
1737553710.494,74.707,-47.363,-21.973,117.676,0.000
1737553710.498,54.199,-45.898,-21.484,17.578,0.000
1737553710.502,37.598,-56.641,-23.438,21.484,0.000
1737553710.506,58.105,-55.176,-20.996,117.188,0.000
1737553710.510,76.172,-47.852,-20.996,185.059,0.000
1737553710.514,73.730,-49.805,-21.484,143.066,0.000
1737553710.518,55.176,-52.246,-22.949,42.969,0.000
1737553710.522,49.805,-51.758,-21.973,51.758,0.000
1737553710.526,73.730,-48.828,-18.066,135.254,0.000
1737553710.530,64.453,-49.316,-17.578,184.082,0.000
1737553710.534,40.527,-51.270,-18.555,158.203,0.000
1737553710.537,47.852,-51.758,-17.090,60.547,0.000
1737553710.541,39.062,-53.711,-14.648,29.785,0.000
1737553710.545,37.109,-57.617,-19.531,93.262,0.000
1737553710.549,41.992,-62.500,-27.344,139.648,0.000
1737553710.553,44.922,-59.082,-26.367,114.746,0.000
1737553710.557,43.457,-52.734,-25.391,17.090,0.000
1737553710.561,65.918,-51.270,-19.531,-4.883,0.000
1737553710.565,59.082,-50.293,-15.137,52.734,0.000
1737553710.569,30.762,-46.387,-16.602,109.375,0.000
1737553710.573,30.762,-43.945,-11.719,124.512,0.000
1737553710.576,34.668,-43.945,-16.113,24.414,0.000
1737553710.580,39.551,-44.434,-21.973,-34.180,0.000
1737553710.584,28.809,-47.852,-20.020,33.691,0.000
1737553710.588,28.809,-48.828,-20.020,108.887,0.000
1737553710.592,38.086,-43.945,-19.043,135.254,0.000
1737553710.596,31.250,-48.828,-23.926,37.598,0.000
1737553710.600,14.648,-53.711,-26.855,-49.316,0.000
1737553710.604,16.602,-48.828,-21.484,11.230,0.000
1737553710.608,22.949,-45.410,-18.555,81.055,0.000
1737553710.612,23.926,-45.898,-20.020,95.703,0.000
1737553710.616,22.949,-43.945,-18.066,22.461,0.000
1737553710.619,16.602,-43.457,-17.090,-45.410,0.000
1737553710.623,18.066,-42.480,-11.719,11.230,0.000
1737553710.627,19.531,-40.527,-4.883,82.520,0.000
1737553710.631,21.484,-42.969,-7.324,110.352,0.000
1737553710.635,31.250,-40.039,-10.254,38.574,0.000
1737553710.639,13.184,-41.992,-12.207,-42.969,0.000
1737553710.643,-13.672,-46.875,-20.020,-25.391,0.000
1737553710.647,-13.184,-45.898,-23.438,7.812,0.000
1737553710.651,2.930,-44.922,-19.531,48.340,0.000
1737553710.655,11.719,-45.898,-23.926,4.883,0.000
1737553710.659,-2.930,-48.828,-26.855,-91.797,0.000
1737553710.662,-12.695,-46.387,-27.344,-76.660,0.000
1737553710.666,-11.230,-44.922,-27.344,11.719,0.000
1737553710.670,2.930,-46.387,-21.973,72.754,0.000
1737553710.674,17.578,-43.945,-23.926,27.344,0.000
1737553710.678,5.371,-45.898,-27.344,-82.520,0.000
1737553710.682,-10.742,-50.293,-25.879,-67.383,0.000
1737553710.686,-1.465,-47.852,-24.902,4.883,0.000
1737553710.690,-5.371,-48.340,-24.902,37.109,0.000
1737553710.694,-13.672,-51.758,-27.832,9.766,0.000
1737553710.698,16.602,-46.875,-24.414,-81.055,0.000
1737553710.701,16.602,-46.875,-20.020,-97.656,0.000
1737553710.705,-7.812,-49.316,-16.602,-20.508,0.000
1737553710.709,3.418,-42.969,-17.578,53.223,0.000
1737553710.713,0.488,-46.387,-26.855,31.250,0.000
1737553710.717,-16.113,-50.293,-23.926,-62.012,0.000
1737553710.721,-2.930,-44.434,-21.973,-75.195,0.000
1737553710.725,6.348,-41.016,-23.438,-6.836,0.000
1737553710.729,2.930,-39.551,-17.090,51.758,0.000
1737553710.733,5.859,-41.504,-16.113,53.223,0.000
1737553710.737,-16.113,-47.363,-22.949,-41.992,0.000
1737553710.741,-18.066,-48.340,-21.973,-90.332,0.000
1737553710.744,-6.836,-46.387,-19.043,-35.156,0.000
1737553710.748,-13.672,-38.086,-16.602,35.645,0.000
1737553710.752,-4.395,-25.391,-18.066,45.410,0.000
1737553710.756,-61.035,-48.340,-36.621,-107.910,0.000
1737553710.760,-137.207,-62.012,-50.293,-258.301,0.000
1737553710.764,-219.238,-68.359,-66.406,-303.711,0.000
1737553710.768,-289.062,-108.398,-87.402,-323.730,0.000
1737553710.772,-236.328,-85.938,-87.891,-286.133,0.000
1737553710.776,-178.711,-44.434,-20.020,-296.387,0.000
1737553710.780,-266.602,-56.641,12.695,-479.004,0.000
1737553710.784,-243.652,-44.434,6.348,-447.266,0.000
1737553710.787,-160.645,22.461,26.367,-250.488,0.000
1737553710.791,-288.574,29.785,-3.418,-330.078,0.000
1737553710.795,-288.574,16.602,21.484,-415.039,0.000
1737553710.799,-214.355,63.965,37.598,-426.270,0.000
1737553710.803,-344.238,41.016,-32.227,-518.066,0.000
1737553710.807,-370.605,27.344,-19.043,-450.684,0.000
1737553710.811,-295.898,62.500,23.926,-366.699,0.000
1737553710.815,-316.895,39.062,-14.648,-485.352,0.000
1737553710.819,-290.039,64.453,-22.461,-534.180,0.000
1737553710.823,-289.062,95.703,-3.906,-480.957,0.000
1737553710.826,-312.988,114.746,-3.906,-388.672,0.000
1737553710.830,-281.250,134.766,-26.855,-331.543,0.000
1737553710.834,-246.094,104.980,-9.766,-358.398,0.000
1737553710.838,-235.840,68.359,26.367,-396.973,0.000
1737553710.842,-207.520,41.016,-15.625,-363.770,0.000
1737553710.846,-214.355,4.395,-37.109,-273.926,0.000
1737553710.850,-284.180,-29.785,-44.922,-228.027,0.000
1737553710.854,-253.906,-47.852,-62.500,-276.367,0.000
1737553710.858,-230.957,-63.965,-74.707,-367.676,0.000
1737553710.862,-234.863,-74.707,-74.707,-346.680,0.000
1737553710.866,-210.449,-80.078,-64.941,-229.980,0.000
1737553710.869,-170.410,-83.496,-62.988,-123.047,0.000
1737553710.873,-161.621,-93.750,-63.477,-68.848,0.000
1737553710.877,-139.160,-127.441,-62.988,-117.676,0.000
1737553710.881,-95.215,-136.230,-64.453,-132.812,0.000
1737553710.885,-102.051,-118.652,-65.430,-17.578,0.000
1737553710.889,-84.473,-109.863,-61.523,89.844,0.000
1737553710.893,-58.594,-141.113,-50.781,117.676,0.000
1737553710.897,-45.898,-132.812,-47.852,33.203,0.000
1737553710.901,-33.691,-86.914,-48.340,-33.203,0.000
1737553710.905,-10.254,-81.055,-40.527,25.879,0.000
1737553710.909,20.020,-66.406,-29.297,120.117,0.000
1737553710.912,51.270,-54.199,-17.090,160.645,0.000
1737553710.916,64.453,-45.410,-12.207,96.680,0.000
1737553710.920,79.590,-18.555,-16.113,82.520,0.000
1737553710.924,115.723,3.418,-10.742,177.734,0.000
1737553710.928,132.324,10.254,-6.836,266.602,0.000
1737553710.932,152.344,5.371,-7.812,299.805,0.000
1737553710.936,169.434,-5.371,-9.277,243.164,0.000
1737553710.940,173.828,-15.137,-8.301,173.340,0.000
1737553710.944,184.570,-28.809,-8.789,193.359,0.000
1737553710.948,196.289,-37.598,-12.695,276.855,0.000
1737553710.951,204.102,-44.922,-16.113,312.012,0.000
1737553710.955,180.176,-62.988,-28.320,215.820,0.000
1737553710.959,140.137,-76.172,-36.133,113.281,0.000
1737553710.963,139.648,-81.543,-36.621,139.648,0.000
1737553710.967,170.898,-80.566,-37.598,227.051,0.000
1737553710.971,153.320,-101.562,-48.340,252.441,0.000
1737553710.975,65.918,-120.605,-60.059,93.262,0.000
1737553710.979,113.281,-82.520,-23.926,39.062,0.000
1737553710.983,84.961,-120.605,-37.598,20.020,0.000
1737553710.987,-41.504,-124.512,-92.285,-46.387,0.000
1737553710.991,81.055,-51.270,-37.598,100.098,0.000
1737553710.994,240.234,-28.320,27.344,178.711,0.000
1737553710.998,127.930,-12.207,33.691,-43.945,0.000
1737553711.002,-117.676,-83.496,-8.789,-326.172,0.000
1737553711.006,-79.102,-50.293,-10.742,-218.750,0.000
1737553711.010,-30.762,20.996,17.578,-43.457,0.000
1737553711.014,-286.133,-85.938,-35.156,-312.500,0.000
1737553711.018,-395.508,-67.871,-62.012,-534.668,0.000
1737553711.022,-202.637,41.992,5.371,-286.133,0.000
1737553711.026,-108.398,52.734,28.809,-86.426,0.000
1737553711.030,-102.051,80.078,36.621,-14.648,0.000
1737553711.034,-108.398,86.914,20.508,-13.672,0.000
1737553711.037,-171.875,92.773,3.906,-142.578,0.000
1737553711.041,-213.867,70.312,12.695,-211.426,0.000
1737553711.045,-223.145,39.062,4.395,-164.062,0.000
1737553711.049,-244.629,6.348,2.441,-127.441,0.000
1737553711.053,-213.379,-18.066,2.930,-140.625,0.000
1737553711.057,-197.266,-52.734,-9.277,-246.582,0.000
1737553711.061,-215.820,-83.008,-15.625,-265.137,0.000
1737553711.065,-195.801,-73.730,-12.695,-155.762,0.000
1737553711.069,-158.203,-82.031,-14.648,-67.383,0.000
1737553711.073,-159.668,-86.426,-20.020,-51.758,0.000
1737553711.076,-154.785,-76.172,-19.531,-131.836,0.000
1737553711.080,-137.207,-108.398,-18.555,-152.832,0.000
1737553711.084,-111.816,-111.816,-26.367,-52.246,0.000
1737553711.088,-83.496,-90.332,-28.320,10.742,0.000
1737553711.092,-69.336,-104.980,-26.367,8.789,0.000
1737553711.096,-42.969,-103.027,-24.902,-45.410,0.000
1737553711.100,-38.086,-73.242,-22.461,-106.934,0.000
1737553711.104,-13.184,-66.406,-20.508,-63.965,0.000
1737553711.108,11.230,-62.500,-22.949,10.742,0.000
1737553711.112,27.344,-33.203,-18.066,53.711,0.000
1737553711.116,71.289,-13.672,-13.672,23.438,0.000
1737553711.119,79.590,20.020,-20.020,-39.062,0.000
1737553711.123,81.055,60.059,-27.344,17.578,0.000
1737553711.127,114.258,63.965,-29.297,125.488,0.000
1737553711.131,167.969,59.570,-27.344,195.801,0.000
1737553711.135,160.645,53.711,-30.273,179.199,0.000
1737553711.139,130.859,42.969,-36.621,89.355,0.000
1737553711.143,166.992,33.691,-40.527,124.023,0.000
1737553711.147,197.266,28.809,-39.062,202.637,0.000
1737553711.151,191.895,26.855,-39.551,212.402,0.000
1737553711.155,181.152,19.531,-43.457,158.203,0.000
1737553711.159,156.738,11.230,-42.480,47.363,0.000
1737553711.162,167.969,5.371,-47.852,60.059,0.000
1737553711.166,191.406,5.371,-49.805,153.320,0.000
1737553711.170,200.684,-0.488,-43.457,192.871,0.000
1737553711.174,185.547,-10.254,-43.945,138.672,0.000
1737553711.178,163.574,-10.254,-39.062,49.805,0.000
1737553711.182,158.203,-9.277,-44.434,37.109,0.000
1737553711.186,131.348,-13.672,-49.805,111.816,0.000
1737553711.190,153.809,-6.836,-34.668,188.965,0.000
1737553711.194,114.746,-23.926,-63.477,126.953,0.000
1737553711.198,119.629,-30.762,-56.152,59.082,0.000
1737553711.201,189.453,-0.488,-7.812,133.789,0.000
1737553711.205,149.902,-15.625,-31.738,159.668,0.000
1737553711.209,135.254,-18.066,-34.180,179.199,0.000
1737553711.213,125.000,-2.441,-18.555,144.043,0.000
1737553711.217,86.426,-21.484,-40.527,15.137,0.000
1737553711.221,85.938,-51.270,-34.180,-38.574,0.000
1737553711.225,78.613,-41.016,-14.648,17.090,0.000
1737553711.229,57.617,-18.066,-27.344,21.484,0.000
1737553711.233,-13.184,-42.969,-28.809,-79.102,0.000
1737553711.237,-155.762,-93.750,-39.551,-297.852,0.000
1737553711.241,-186.523,-117.676,-79.102,-377.930,0.000
1737553711.244,-74.707,-53.711,-61.035,-159.668,0.000
1737553711.248,1.953,11.230,-5.859,26.367,0.000
1737553711.252,-21.973,-7.812,11.230,-21.484,0.000
1737553711.256,-45.898,-20.020,26.367,-129.395,0.000
1737553711.260,-45.410,21.973,22.949,-148.438,0.000
1737553711.264,-161.621,0.977,-6.836,-189.453,0.000
1737553711.268,-176.758,-8.789,3.906,-120.605,0.000
1737553711.272,-108.398,40.039,32.227,41.016,0.000
1737553711.276,-187.988,51.758,15.625,-67.383,0.000
1737553711.280,-236.816,63.965,4.395,-192.383,0.000
1737553711.283,-189.453,73.730,11.719,-160.156,0.000
1737553711.287,-206.055,66.895,5.859,-148.926,0.000
1737553711.291,-249.512,73.242,15.625,-160.156,0.000
1737553711.295,-247.070,74.219,10.742,-270.996,0.000
1737553711.299,-248.535,69.824,-8.301,-372.559,0.000
1737553711.303,-249.512,67.871,-5.859,-314.453,0.000
1737553711.307,-227.051,55.664,-7.812,-163.086,0.000
1737553711.311,-217.773,45.898,-16.113,-63.477,0.000
1737553711.315,-200.684,37.598,-16.113,-119.141,0.000
1737553711.319,-184.570,12.695,-20.996,-187.988,0.000
1737553711.323,-187.012,-3.418,-20.996,-136.230,0.000
1737553711.326,-178.223,0.977,-16.113,-39.062,0.000
1737553711.330,-162.598,1.953,-17.090,7.324,0.000
1737553711.334,-146.973,2.930,-26.367,-43.457,0.000
1737553711.338,-123.535,2.441,-25.391,-127.930,0.000
1737553711.342,-94.727,0.488,-19.531,-124.023,0.000
1737553711.346,-98.145,-11.719,-21.973,-57.617,0.000
1737553711.350,-81.055,-20.020,-22.949,4.883,0.000
1737553711.354,-39.551,-21.484,-22.949,-4.883,0.000
1737553711.358,-24.414,-31.738,-23.438,-83.984,0.000
1737553711.362,-11.719,-41.992,-23.926,-74.707,0.000
1737553711.366,13.184,-53.223,-31.250,24.414,0.000
1737553711.369,49.805,-80.078,-41.992,114.258,0.000
1737553711.373,62.500,-97.168,-40.527,106.445,0.000
1737553711.377,62.988,-85.938,-38.574,2.441,0.000
1737553711.381,91.309,-78.613,-40.527,-12.695,0.000
1737553711.385,111.328,-84.473,-41.016,90.332,0.000
1737553711.389,117.188,-86.426,-41.016,154.785,0.000
1737553711.393,128.418,-96.680,-40.527,145.996,0.000
1737553711.397,135.742,-120.605,-46.387,48.340,0.000
1737553711.401,132.324,-123.047,-50.293,-11.719,0.000
1737553711.405,147.949,-100.098,-44.922,57.617,0.000
1737553711.408,170.898,-86.426,-45.410,137.207,0.000
1737553711.412,157.227,-95.703,-49.805,183.105,0.000
1737553711.416,149.902,-101.074,-47.363,103.516,0.000
1737553711.420,157.715,-103.516,-45.898,22.461,0.000
1737553711.424,162.598,-102.051,-46.875,99.609,0.000
1737553711.428,165.527,-91.309,-45.410,178.711,0.000
1737553711.432,166.992,-85.938,-47.363,217.285,0.000
1737553711.436,156.250,-88.379,-43.945,164.062,0.000
1737553711.440,142.090,-93.750,-44.434,91.797,0.000
1737553711.444,151.855,-89.844,-43.457,133.301,0.000
1737553711.448,167.969,-90.820,-40.039,193.848,0.000
1737553711.451,155.762,-93.750,-40.527,228.027,0.000
1737553711.455,136.230,-86.426,-36.621,160.645,0.000
1737553711.459,145.996,-83.008,-35.156,55.176,0.000
1737553711.463,126.465,-89.355,-36.621,68.848,0.000
1737553711.467,97.168,-87.891,-32.715,156.250,0.000
1737553711.471,125.000,-79.590,-30.273,201.660,0.000
1737553711.475,138.672,-78.613,-29.297,136.230,0.000
1737553711.479,104.492,-78.613,-30.762,46.875,0.000
1737553711.483,86.914,-75.195,-31.738,71.777,0.000
1737553711.487,107.910,-75.195,-28.809,142.090,0.000
1737553711.491,91.309,-76.660,-28.809,168.945,0.000
1737553711.494,69.336,-82.031,-33.691,126.465,0.000
1737553711.498,74.219,-83.984,-36.133,32.715,0.000
1737553711.502,62.988,-80.566,-33.691,34.180,0.000
1737553711.506,82.520,-74.219,-25.879,116.211,0.000
1737553711.510,85.938,-67.383,-20.996,182.617,0.000
1737553711.514,59.082,-68.359,-26.855,146.484,0.000
1737553711.518,52.246,-72.266,-32.227,21.973,0.000
1737553711.522,42.480,-70.312,-37.109,8.301,0.000
1737553711.526,52.246,-63.965,-39.062,83.008,0.000
1737553711.530,71.777,-61.523,-34.180,141.602,0.000
1737553711.533,71.289,-60.547,-32.227,135.254,0.000
1737553711.537,50.781,-57.617,-30.273,46.387,0.000
1737553711.541,42.480,-56.152,-29.297,9.766,0.000
1737553711.545,34.668,-61.035,-29.785,51.270,0.000
1737553711.549,22.461,-62.988,-31.250,100.098,0.000
1737553711.553,26.367,-60.059,-28.809,116.211,0.000
1737553711.557,23.926,-60.059,-24.902,21.973,0.000
1737553711.561,20.508,-58.594,-26.855,-51.270,0.000
1737553711.565,12.695,-53.223,-29.297,10.254,0.000
1737553711.569,11.230,-48.340,-25.391,90.332,0.000
1737553711.573,26.855,-45.898,-15.137,131.836,0.000
1737553711.576,36.133,-49.805,-21.973,27.832,0.000
1737553711.580,26.367,-48.828,-38.086,-80.566,0.000
1737553711.584,13.184,-43.945,-36.621,-11.719,0.000
1737553711.588,14.648,-44.434,-36.621,45.410,0.000
1737553711.592,31.738,-42.480,-35.645,64.453,0.000
1737553711.596,18.555,-38.574,-33.691,-2.930,0.000
1737553711.600,-10.254,-44.922,-35.645,-89.355,0.000
1737553711.604,-18.066,-54.199,-33.691,-54.688,0.000
1737553711.608,-23.438,-53.223,-33.691,25.391,0.000
1737553711.612,-1.465,-47.363,-30.762,74.707,0.000
1737553711.616,-3.418,-49.316,-34.668,-13.184,0.000
1737553711.619,-24.414,-50.293,-39.062,-105.469,0.000
1737553711.623,-20.508,-52.734,-36.621,-45.898,0.000
1737553711.627,-16.602,-58.105,-31.738,37.109,0.000
1737553711.631,-5.859,-54.688,-31.738,58.105,0.000
1737553711.635,0.000,-53.711,-31.738,2.441,0.000
1737553711.639,-9.766,-55.664,-28.809,-77.637,0.000
1737553711.643,-27.832,-58.105,-35.645,-73.730,0.000
1737553711.647,-29.297,-60.547,-40.039,-12.695,0.000
1737553711.651,-6.836,-59.570,-31.738,41.504,0.000
1737553711.655,-5.859,-62.500,-31.738,4.395,0.000
1737553711.658,-19.531,-65.430,-36.133,-101.562,0.000
1737553711.662,-17.090,-62.988,-34.180,-79.590,0.000
1737553711.666,1.465,-58.105,-33.691,7.812,0.000
1737553711.670,5.371,-58.105,-31.738,53.223,0.000
1737553711.674,-19.043,-65.430,-30.762,24.414,0.000
1737553711.678,-44.434,-68.848,-31.738,-83.008,0.000
1737553711.682,-37.109,-68.359,-33.691,-90.332,0.000
1737553711.686,-21.973,-60.547,-27.832,-7.324,0.000
1737553711.690,-17.578,-57.617,-22.949,43.457,0.000
1737553711.694,-21.973,-60.547,-28.320,22.949,0.000
1737553711.698,-38.086,-60.547,-31.738,-83.008,0.000
1737553711.701,-30.762,-59.570,-32.227,-122.070,0.000
1737553711.705,-22.949,-50.781,-30.273,-30.762,0.000
1737553711.709,-11.719,-41.504,-28.809,30.762,0.000
1737553711.713,12.207,-37.109,-27.832,21.484,0.000
1737553711.717,-9.277,-36.621,-24.902,-79.102,0.000
1737553711.721,-35.156,-41.016,-26.367,-125.977,0.000
1737553711.725,-28.809,-41.016,-28.809,-47.363,0.000
1737553711.729,-20.508,-40.527,-29.785,26.367,0.000
1737553711.733,-21.973,-44.434,-30.273,41.016,0.000
1737553711.737,-45.410,-48.340,-28.809,-45.898,0.000
1737553711.741,-40.039,-51.270,-33.691,-114.258,0.000
1737553711.744,-34.180,-51.758,-39.062,-64.453,0.000
1737553711.748,-29.297,-47.852,-35.156,16.602,0.000
1737553711.752,-12.695,-43.945,-34.668,49.805,0.000
1737553711.756,-24.902,-40.527,-35.645,-30.273,0.000
1737553711.760,-30.273,-36.621,-34.668,-101.562,0.000
1737553711.764,-24.902,-38.574,-35.156,-50.293,0.000
1737553711.768,-15.137,-44.922,-35.156,36.133,0.000
1737553711.772,-1.465,-41.016,-33.691,60.059,0.000
1737553711.776,-29.297,-36.621,-34.180,-23.926,0.000
1737553711.780,-55.176,-38.574,-32.715,-101.074,0.000
1737553711.783,-45.410,-42.480,-31.250,-46.387,0.000
1737553711.787,-37.109,-43.945,-34.668,47.363,0.000
1737553711.791,-27.832,-41.992,-35.645,71.777,0.000
1737553711.795,-22.949,-41.016,-34.180,8.789,0.000
1737553711.799,-45.898,-43.945,-37.598,-82.031,0.000
1737553711.803,-45.410,-50.293,-41.016,-53.223,0.000
1737553711.807,-21.973,-51.270,-38.086,33.203,0.000
1737553711.811,-22.949,-53.223,-34.668,64.453,0.000
1737553711.815,-25.879,-56.152,-36.621,16.602,0.000
1737553711.819,-22.461,-54.199,-39.551,-74.707,0.000
1737553711.823,-10.742,-53.711,-41.016,-57.617,0.000
1737553711.826,-3.906,-53.223,-38.574,32.227,0.000
1737553711.830,-11.230,-53.223,-37.598,93.750,0.000
1737553711.834,-5.859,-53.711,-39.551,58.105,0.000
1737553711.838,-32.227,-58.594,-44.922,-51.270,0.000
1737553711.842,-27.344,-61.035,-45.410,-61.523,0.000
1737553711.846,7.812,-54.688,-37.109,19.531,0.000
1737553711.850,-2.930,-56.152,-35.645,71.289,0.000
1737553711.854,-2.930,-52.734,-37.598,60.547,0.000
1737553711.858,-13.672,-48.340,-38.086,-20.020,0.000
1737553711.862,-22.461,-55.176,-36.621,-54.688,0.000
1737553711.866,-14.648,-57.129,-38.086,24.414,0.000
1737553711.869,-8.789,-53.223,-43.945,99.609,0.000
1737553711.873,-15.625,-56.641,-44.922,78.125,0.000
1737553711.877,-21.484,-56.152,-45.410,-23.926,0.000
1737553711.881,-16.113,-54.688,-42.969,-49.316,0.000
1737553711.885,-16.113,-59.570,-37.598,5.859,0.000
1737553711.889,8.789,-55.176,-38.574,71.289,0.000
1737553711.893,9.766,-56.152,-34.668,90.820,0.000
1737553711.897,-38.086,-70.801,-37.598,-24.902,0.000
1737553711.901,-41.992,-74.707,-43.457,-93.262,0.000
1737553711.905,-5.859,-69.824,-39.551,-21.973,0.000
1737553711.908,2.930,-72.266,-38.574,46.387,0.000
1737553711.912,-17.090,-72.754,-40.527,64.453,0.000
1737553711.916,-13.672,-70.312,-38.574,-12.207,0.000
1737553711.920,-8.789,-63.965,-37.598,-78.125,0.000
1737553711.924,-20.996,-57.129,-34.180,-22.949,0.000
1737553711.928,-18.555,-56.152,-30.762,62.500,0.000
1737553711.932,15.625,-56.641,-32.715,75.684,0.000
1737553711.936,-7.812,-57.129,-35.645,-13.184,0.000
1737553711.940,-29.785,-49.316,-34.180,-67.871,0.000
1737553711.944,-20.508,-43.457,-34.180,-20.996,0.000
1737553711.948,-24.414,-44.434,-32.715,40.039,0.000
1737553711.951,-8.789,-41.504,-29.785,86.426,0.000
1737553711.955,-3.418,-44.922,-36.621,37.598,0.000
1737553711.959,-22.461,-53.223,-41.016,-60.547,0.000
1737553711.963,-32.227,-52.246,-41.016,-54.199,0.000
1737553711.967,-10.254,-46.875,-39.551,14.160,0.000
1737553711.971,1.953,-44.922,-37.109,61.523,0.000
1737553711.975,-19.043,-46.387,-41.016,8.789,0.000
1737553711.979,-19.043,-45.898,-39.551,-80.078,0.000
1737553711.983,-6.348,-41.504,-36.621,-62.500,0.000
1737553711.987,-9.766,-36.133,-29.297,21.484,0.000
1737553711.991,-11.230,-38.086,-25.879,76.172,0.000
1737553711.994,-12.695,-37.598,-28.809,44.434,0.000
1737553711.998,-22.949,-34.180,-29.785,-49.316,0.000
1737553712.002,-42.969,-39.062,-33.203,-77.148,0.000
1737553712.006,-26.855,-40.527,-40.527,-30.762,0.000
1737553712.010,-8.789,-38.574,-38.086,40.039,0.000
1737553712.014,-25.879,-37.109,-31.250,16.602,0.000
1737553712.018,-29.785,-38.574,-33.203,-99.609,0.000
1737553712.022,-41.992,-38.086,-31.250,-118.652,0.000
1737553712.026,-30.762,-33.203,-29.785,-37.109,0.000
1737553712.030,-13.184,-31.738,-32.227,39.062,0.000
1737553712.033,-3.418,-29.785,-29.785,30.273,0.000
1737553712.037,-26.367,-33.691,-29.785,-68.848,0.000
1737553712.041,-28.320,-34.668,-32.715,-99.609,0.000
1737553712.045,-11.719,-30.273,-36.133,-26.367,0.000
1737553712.049,-12.695,-33.203,-33.203,25.879,0.000
1737553712.053,-14.160,-30.273,-32.227,32.227,0.000
1737553712.057,-18.555,-25.391,-37.598,-52.734,0.000
1737553712.061,-20.996,-24.902,-38.574,-104.980,0.000
1737553712.065,-25.879,-24.902,-35.645,-33.203,0.000
1737553712.069,-18.555,-20.508,-32.715,47.363,0.000
1737553712.073,-18.555,-26.855,-35.156,57.129,0.000
1737553712.076,-30.762,-31.738,-40.039,-32.715,0.000
1737553712.080,-36.133,-20.508,-42.480,-95.703,0.000
1737553712.084,-22.949,-10.742,-39.551,-37.109,0.000
1737553712.088,-15.625,-4.883,-29.297,18.555,0.000
1737553712.092,-27.832,-0.977,-28.809,28.320,0.000
1737553712.096,-62.988,-7.324,-37.598,-78.125,0.000
1737553712.100,-91.797,-18.555,-44.922,-190.430,0.000
1737553712.104,-105.469,-14.160,-44.922,-162.109,0.000
1737553712.108,-133.301,3.906,-37.598,-107.422,0.000
1737553712.112,-149.414,9.766,-34.668,-123.047,0.000
1737553712.115,-182.617,-12.207,-34.180,-234.375,0.000
1737553712.119,-215.820,-12.695,-35.645,-340.820,0.000
1737553712.123,-214.844,-1.465,-35.645,-342.773,0.000
1737553712.127,-264.160,-9.277,-32.715,-315.430,0.000
1737553712.131,-302.246,-15.625,-30.273,-290.039,0.000
1737553712.135,-309.570,-16.113,-37.109,-344.727,0.000
1737553712.139,-337.891,-17.090,-39.062,-453.613,0.000
1737553712.143,-327.637,-21.484,-36.621,-420.898,0.000
1737553712.147,-305.664,-25.879,-40.039,-333.496,0.000
1737553712.151,-284.180,-29.785,-35.156,-253.418,0.000
1737553712.155,-254.883,-41.504,-27.832,-231.445,0.000
1737553712.158,-234.375,-51.270,-28.320,-280.273,0.000
1737553712.162,-222.656,-57.617,-35.156,-246.582,0.000
1737553712.166,-188.965,-61.035,-36.621,-147.949,0.000
1737553712.170,-166.992,-68.848,-33.691,-62.012,0.000
1737553712.174,-140.137,-79.590,-33.203,-58.105,0.000
1737553712.178,-98.633,-84.473,-38.086,-136.230,0.000
1737553712.182,-86.914,-83.008,-37.109,-108.398,0.000
1737553712.186,-81.543,-84.961,-33.203,-26.367,0.000
1737553712.190,-43.945,-85.449,-32.715,18.555,0.000
1737553712.194,-20.020,-81.055,-29.297,37.109,0.000
1737553712.198,-7.812,-82.031,-32.715,-31.250,0.000
1737553712.201,7.812,-80.078,-36.133,-48.340,0.000
1737553712.205,13.184,-80.078,-37.109,41.992,0.000
1737553712.209,24.902,-79.102,-44.434,114.746,0.000
1737553712.213,40.527,-80.566,-47.363,118.652,0.000
1737553712.217,43.945,-81.055,-47.363,31.250,0.000
1737553712.221,42.969,-78.613,-51.758,-20.508,0.000
1737553712.225,47.852,-74.707,-49.805,49.316,0.000
1737553712.229,56.152,-67.383,-41.016,136.230,0.000
1737553712.233,61.523,-66.895,-39.551,166.504,0.000
1737553712.237,58.594,-71.777,-42.969,71.777,0.000
1737553712.240,52.734,-75.684,-42.480,5.859,0.000
1737553712.244,62.988,-73.730,-40.527,62.500,0.000
1737553712.248,79.102,-69.336,-38.574,140.137,0.000
1737553712.252,104.980,-63.965,-35.156,175.781,0.000
1737553712.256,94.238,-60.059,-37.109,98.145,0.000
1737553712.260,78.125,-63.965,-42.480,23.438,0.000
1737553712.264,83.008,-62.012,-37.598,68.359,0.000
1737553712.268,83.984,-59.082,-32.715,130.859,0.000
1737553712.272,83.496,-62.500,-34.180,150.879,0.000
1737553712.276,82.520,-59.082,-35.645,99.121,0.000
1737553712.280,72.266,-53.711,-44.434,33.203,0.000
1737553712.283,37.598,-72.266,-40.039,18.066,0.000
1737553712.287,-10.742,-75.195,-60.547,34.668,0.000
1737553712.291,-32.227,-61.035,-88.867,85.938,0.000
1737553712.295,-170.898,-166.992,-105.957,-139.160,0.000
1737553712.299,-348.145,-208.984,-150.391,-457.520,0.000
1737553712.303,-142.090,-88.867,-80.078,-220.215,0.000
1737553712.307,126.953,-1.465,20.020,104.492,0.000
1737553712.311,118.164,62.988,99.121,128.906,0.000
1737553712.315,-169.434,-47.363,0.488,-236.816,0.000
1737553712.319,-174.316,-41.016,-50.293,-332.031,0.000
1737553712.323,-209.961,-14.648,-13.672,-317.871,0.000
1737553712.326,-343.750,-30.762,-59.082,-347.656,0.000
1737553712.330,-107.910,83.984,40.039,42.480,0.000
1737553712.334,-69.336,95.703,64.453,115.234,0.000
1737553712.338,-350.098,3.418,-43.457,-316.895,0.000
1737553712.342,-407.715,47.852,-55.664,-500.488,0.000
1737553712.346,-180.664,184.082,27.344,-229.980,0.000
1737553712.350,-178.711,148.438,-3.418,-71.289,0.000
1737553712.354,-289.551,82.520,-77.148,-75.195,0.000
1737553712.358,-279.297,52.734,-59.570,-91.309,0.000
1737553712.362,-272.949,33.203,-16.113,-57.617,0.000
1737553712.365,-369.629,-29.785,-84.961,-43.945,0.000
1737553712.369,-260.742,-38.086,-50.781,125.977,0.000
1737553712.373,-154.785,7.324,47.363,233.398,0.000
1737553712.377,-262.695,-24.902,34.180,7.812,0.000
1737553712.381,-367.188,-75.684,20.020,-198.730,0.000
1737553712.385,-412.109,-67.871,8.301,-304.199,0.000
1737553712.389,-355.469,-55.664,0.977,-334.473,0.000
1737553712.393,-329.590,-52.246,1.465,-357.910,0.000
1737553712.397,-391.113,-62.012,-25.879,-487.793,0.000
1737553712.401,-376.953,-81.543,-62.500,-573.730,0.000
1737553712.405,-355.957,-105.957,-73.730,-559.082,0.000
1737553712.408,-376.953,-128.906,-85.938,-510.254,0.000
1737553712.412,-374.512,-109.863,-94.238,-524.902,0.000
1737553712.416,-340.332,-117.188,-97.656,-618.652,0.000
1737553712.420,-316.895,-156.250,-107.910,-715.820,0.000
1737553712.424,-330.078,-170.410,-113.281,-701.660,0.000
1737553712.428,-273.438,-183.105,-123.535,-596.680,0.000
1737553712.432,-230.469,-204.590,-136.230,-542.480,0.000
1737553712.436,-249.512,-213.867,-144.043,-582.520,0.000
1737553712.440,-214.844,-210.449,-141.602,-620.605,0.000
1737553712.444,-140.625,-191.895,-132.324,-532.715,0.000
1737553712.448,-88.379,-162.598,-120.605,-391.113,0.000
1737553712.451,-70.801,-112.305,-97.168,-301.270,0.000
1737553712.455,-20.508,-55.664,-72.754,-331.055,0.000
1737553712.459,23.438,7.324,-47.363,-374.023,0.000
1737553712.463,45.410,94.238,-15.137,-275.879,0.000
1737553712.467,86.914,176.758,20.996,-146.973,0.000
1737553712.471,136.719,224.121,49.805,-34.180,0.000
1737553712.475,171.387,253.418,74.707,-12.695,0.000
1737553712.479,187.500,255.859,88.867,-63.965,0.000
1737553712.483,202.148,246.094,104.980,12.207,0.000
1737553712.487,241.699,241.699,120.117,141.602,0.000
1737553712.490,275.391,230.469,120.605,220.215,0.000
1737553712.494,286.621,213.379,113.770,205.566,0.000
1737553712.498,275.879,200.195,99.121,124.512,0.000
1737553712.502,276.855,183.594,84.961,127.930,0.000
1737553712.506,283.691,167.969,74.707,219.238,0.000
1737553712.510,281.738,151.855,68.359,300.293,0.000
1737553712.514,278.809,135.254,57.617,271.484,0.000
1737553712.518,271.973,115.723,42.480,172.363,0.000
1737553712.522,260.254,84.961,30.762,175.781,0.000
1737553712.526,256.348,70.801,42.969,282.227,0.000
1737553712.530,218.750,42.969,15.625,229.004,0.000
1737553712.533,185.059,22.461,5.859,143.066,0.000
1737553712.537,295.410,62.500,49.316,224.609,0.000
1737553712.541,289.062,62.988,31.738,191.406,0.000
1737553712.545,190.918,32.227,17.578,132.324,0.000
1737553712.549,151.855,24.902,17.090,83.496,0.000
1737553712.553,88.867,16.113,2.441,-17.578,0.000
1737553712.557,44.434,22.461,-7.324,-170.898,0.000
1737553712.561,4.883,13.184,-8.301,-264.160,0.000
1737553712.565,-68.848,-8.789,-9.277,-236.328,0.000
1737553712.569,-89.355,-2.930,-7.324,-211.426,0.000
1737553712.573,-102.539,-0.977,1.953,-208.496,0.000
1737553712.576,-141.113,1.465,0.977,-283.691,0.000
1737553712.580,-139.160,14.160,-5.371,-326.660,0.000
1737553712.584,-127.930,18.555,-1.953,-216.797,0.000
1737553712.588,-127.930,23.926,-8.789,-121.582,0.000
1737553712.592,-112.305,28.809,-13.672,-84.961,0.000
1737553712.596,-157.227,20.508,-12.207,-141.602,0.000
1737553712.600,-174.316,20.996,-13.184,-195.801,0.000
1737553712.604,-131.836,21.973,-14.648,-127.441,0.000
1737553712.608,-118.164,14.160,-19.531,-41.504,0.000
1737553712.612,-106.934,11.230,-12.207,21.484,0.000
1737553712.615,-81.055,15.137,-6.348,1.465,0.000
1737553712.619,-84.961,12.695,-21.484,-60.059,0.000
1737553712.623,-72.754,12.207,-26.367,3.418,0.000
1737553712.627,-59.570,9.766,-16.113,116.699,0.000
1737553712.631,-40.039,0.000,-18.555,198.242,0.000
1737553712.635,-9.766,-8.789,-26.367,196.777,0.000
1737553712.639,-25.879,-19.043,-27.832,107.910,0.000
1737553712.643,-20.996,-25.391,-23.438,110.352,0.000
1737553712.647,19.531,-40.527,-18.066,193.848,0.000
1737553712.651,29.785,-52.734,-22.461,239.746,0.000
1737553712.655,60.547,-44.922,-28.809,196.777,0.000
1737553712.658,79.590,-48.340,-34.180,79.102,0.000
1737553712.662,71.777,-57.617,-36.133,68.848,0.000
1737553712.666,98.633,-60.059,-32.227,153.809,0.000
1737553712.670,136.230,-61.523,-29.297,223.633,0.000
1737553712.674,157.715,-68.848,-33.203,224.121,0.000
1737553712.678,162.109,-68.848,-39.062,143.555,0.000
1737553712.682,188.477,-69.824,-39.551,135.742,0.000
1737553712.686,207.031,-77.148,-42.969,229.980,0.000
1737553712.690,169.922,-81.055,-45.410,319.824,0.000
1737553712.694,176.758,-83.496,-48.340,315.430,0.000
1737553712.698,209.961,-79.590,-49.316,207.520,0.000
1737553712.701,196.777,-77.637,-43.457,153.320,0.000
1737553712.705,186.035,-74.707,-44.434,212.402,0.000
1737553712.709,191.895,-73.730,-45.410,270.508,0.000
1737553712.713,207.520,-70.312,-42.480,283.203,0.000
1737553712.717,196.289,-65.918,-41.016,210.938,0.000
1737553712.721,162.109,-68.848,-46.387,135.742,0.000
1737553712.725,167.480,-68.848,-53.223,181.152,0.000
1737553712.729,191.406,-65.918,-56.152,261.719,0.000
1737553712.733,187.012,-68.359,-58.594,285.645,0.000
1737553712.737,164.062,-68.848,-54.688,201.172,0.000
1737553712.740,149.902,-68.359,-49.316,138.672,0.000
1737553712.744,168.945,-62.500,-48.340,192.383,0.000
1737553712.748,171.387,-56.152,-46.875,262.207,0.000
1737553712.752,162.109,-54.688,-42.969,283.691,0.000
1737553712.756,154.297,-59.082,-44.434,218.750,0.000
1737553712.760,140.137,-69.336,-42.480,133.789,0.000
1737553712.764,138.184,-65.430,-37.598,173.828,0.000
1737553712.768,136.719,-58.594,-39.062,242.188,0.000
1737553712.772,123.047,-62.988,-42.969,262.695,0.000
1737553712.776,124.023,-66.895,-46.875,209.961,0.000
1737553712.780,133.301,-60.547,-45.898,118.652,0.000
1737553712.783,128.418,-52.734,-41.016,148.926,0.000
1737553712.787,118.164,-51.758,-36.621,221.680,0.000
1737553712.791,94.727,-51.758,-37.109,250.000,0.000
1737553712.795,87.891,-58.105,-43.457,195.801,0.000
1737553712.799,78.125,-64.453,-43.945,79.102,0.000
1737553712.803,82.520,-56.152,-40.039,88.867,0.000
1737553712.807,83.984,-54.688,-37.598,175.293,0.000
1737553712.811,67.871,-53.711,-33.203,216.797,0.000
1737553712.815,62.012,-47.852,-31.738,167.969,0.000
1737553712.819,70.801,-49.805,-31.738,51.270,0.000
1737553712.823,81.543,-54.199,-32.715,35.156,0.000
1737553712.826,55.176,-52.246,-33.203,123.047,0.000
1737553712.830,55.664,-53.711,-33.203,179.688,0.000
1737553712.834,75.684,-55.664,-36.133,139.160,0.000
1737553712.838,41.016,-47.363,-35.645,36.621,0.000
1737553712.842,23.926,-44.434,-29.785,17.578,0.000
1737553712.846,38.086,-45.410,-25.879,86.426,0.000
1737553712.850,37.598,-43.457,-29.297,144.531,0.000
1737553712.854,26.855,-43.457,-31.738,118.652,0.000
1737553712.858,19.531,-50.781,-34.668,1.953,0.000
1737553712.862,24.414,-51.270,-34.180,-34.180,0.000
1737553712.865,27.344,-47.852,-26.855,47.363,0.000
1737553712.869,37.109,-50.293,-23.926,110.352,0.000
1737553712.873,17.578,-47.363,-31.250,109.863,0.000
1737553712.877,3.418,-46.387,-33.203,-5.859,0.000
1737553712.881,16.113,-44.922,-28.809,-44.922,0.000
1737553712.885,22.949,-38.086,-24.414,54.688,0.000
1737553712.889,24.902,-34.668,-20.508,118.164,0.000
1737553712.893,15.137,-38.574,-27.344,105.469,0.000
1737553712.897,-2.930,-48.340,-31.250,0.488,0.000
1737553712.901,-3.418,-54.688,-29.297,-68.359,0.000
1737553712.905,14.160,-51.758,-31.738,9.766,0.000
1737553712.908,19.043,-48.340,-30.273,79.590,0.000
1737553712.912,-8.789,-46.875,-27.344,80.078,0.000
1737553712.916,-22.461,-45.898,-26.855,24.902,0.000
1737553712.920,2.441,-39.062,-30.273,-51.758,0.000
1737553712.924,-1.465,-35.156,-27.832,-19.531,0.000
1737553712.928,-11.230,-36.133,-25.879,58.105,0.000
1737553712.932,10.742,-28.809,-33.203,105.957,0.000
1737553712.936,13.184,-28.809,-32.715,48.340,0.000
1737553712.940,-6.348,-35.645,-27.832,-44.434,0.000
1737553712.944,-14.648,-32.715,-25.391,1.465,0.000
1737553712.947,-14.648,-37.598,-30.273,74.219,0.000
1737553712.951,-6.836,-38.574,-34.180,109.863,0.000
1737553712.955,0.000,-31.738,-34.180,76.660,0.000
1737553712.959,-3.418,-34.180,-37.598,5.859,0.000
1737553712.963,-16.602,-37.109,-36.133,21.484,0.000
1737553712.967,-27.344,-34.668,-35.156,73.242,0.000
1737553712.971,-15.137,-37.109,-42.969,111.328,0.000
1737553712.975,-6.836,-42.480,-45.410,34.668,0.000
1737553712.979,-21.484,-39.551,-44.434,-49.805,0.000
1737553712.983,-27.344,-41.504,-46.387,-4.883,0.000
1737553712.987,-21.484,-54.199,-46.875,33.203,0.000
1737553712.990,-7.324,-51.270,-41.504,71.289,0.000
1737553712.994,-4.883,-39.551,-36.133,66.406,0.000
1737553712.998,-27.832,-39.551,-39.551,-29.297,0.000
1737553713.002,-53.223,-40.039,-42.480,-47.363,0.000
1737553713.006,-33.203,-38.086,-39.551,24.902,0.000
1737553713.010,-20.996,-36.621,-37.598,80.078,0.000
1737553713.014,-14.648,-42.969,-37.109,62.988,0.000
1737553713.018,-9.277,-48.340,-38.086,-39.551,0.000
1737553713.022,-26.367,-48.340,-40.527,-71.777,0.000
1737553713.026,-8.301,-36.621,-35.156,4.883,0.000
1737553713.030,-1.465,-33.691,-30.273,73.242,0.000
1737553713.033,-1.465,-34.180,-30.273,66.406,0.000
1737553713.037,9.277,-29.297,-30.273,-30.762,0.000
1737553713.041,-16.602,-36.621,-32.227,-102.539,0.000
1737553713.045,-32.715,-37.598,-31.738,-38.086,0.000
1737553713.049,-8.301,-35.156,-30.762,76.660,0.000
1737553713.053,-3.906,-33.691,-28.320,93.262,0.000
1737553713.057,-22.461,-35.156,-34.180,-36.133,0.000
1737553713.061,-23.926,-41.504,-41.016,-101.562,0.000
1737553713.065,-13.672,-41.016,-38.086,-20.508,0.000
1737553713.069,-37.109,-33.691,-39.551,41.992,0.000
1737553713.072,-37.598,-34.668,-39.062,67.871,0.000
1737553713.076,8.789,-33.691,-34.180,6.836,0.000
1737553713.080,18.066,-36.621,-34.180,-86.914,0.000
1737553713.084,14.648,-36.621,-31.250,-26.367,0.000
1737553713.088,5.859,-27.344,-28.320,72.754,0.000
1737553713.092,1.465,-29.297,-29.785,75.684,0.000
1737553713.096,-6.836,-35.645,-28.320,2.930,0.000
1737553713.100,-29.297,-34.180,-30.762,-63.477,0.000
1737553713.104,-32.715,-36.133,-32.227,-22.949,0.000
1737553713.108,-7.812,-37.598,-29.297,58.594,0.000
1737553713.112,-10.742,-38.086,-33.203,108.887,0.000
1737553713.115,-21.484,-37.109,-35.156,58.105,0.000
1737553713.119,-10.254,-33.203,-34.180,-50.293,0.000
1737553713.123,-2.441,-29.785,-35.645,-39.551,0.000
1737553713.127,-2.441,-28.809,-30.762,47.852,0.000
1737553713.131,2.441,-28.809,-28.809,83.008,0.000
1737553713.135,-1.465,-24.902,-24.414,37.109,0.000
1737553713.139,-30.762,-24.902,-20.020,-37.598,0.000
1737553713.143,-39.551,-26.855,-23.926,-34.668,0.000
1737553713.147,-41.504,-27.832,-29.785,35.645,0.000
1737553713.151,-36.621,-24.414,-33.203,91.309,0.000
1737553713.155,-45.898,-19.043,-38.574,44.434,0.000
1737553713.158,-86.914,-23.926,-38.086,-85.449,0.000
1737553713.162,-98.633,-25.391,-37.109,-114.746,0.000
1737553713.166,-76.172,-16.602,-47.363,-71.289,0.000
1737553713.170,-90.820,-13.672,-53.223,-51.270,0.000
1737553713.174,-125.977,-12.207,-53.711,-98.633,0.000
1737553713.178,-160.156,-10.742,-49.316,-227.539,0.000
1737553713.182,-196.777,-4.883,-43.945,-266.113,0.000
1737553713.186,-212.891,-4.395,-43.457,-210.938,0.000
1737553713.190,-247.559,-6.348,-49.316,-213.379,0.000
1737553713.194,-264.648,-13.672,-49.805,-268.555,0.000
1737553713.197,-212.891,-12.207,-49.805,-372.559,0.000
1737553713.201,-193.848,-10.254,-59.570,-407.715,0.000
1737553713.205,-228.027,-11.719,-54.688,-370.117,0.000
1737553713.209,-255.371,-3.418,-50.781,-358.887,0.000
1737553713.213,-287.598,-11.719,-46.875,-325.684,0.000
1737553713.217,-299.316,-28.809,-36.133,-397.461,0.000
1737553713.221,-291.504,-37.109,-34.180,-485.840,0.000
1737553713.225,-341.309,-31.738,-30.273,-417.480,0.000
1737553713.229,-330.566,-31.738,-24.902,-315.430,0.000
1737553713.233,-254.395,-34.180,-26.367,-282.715,0.000
1737553713.237,-240.234,-36.133,-29.785,-318.359,0.000
1737553713.240,-216.797,-36.621,-31.738,-342.773,0.000
1737553713.244,-155.273,-38.574,-29.297,-251.465,0.000
1737553713.248,-126.465,-39.062,-33.203,-146.484,0.000
1737553713.252,-130.371,-42.969,-39.062,-106.445,0.000
1737553713.256,-96.680,-45.898,-41.016,-147.461,0.000
1737553713.260,-77.637,-42.969,-43.945,-186.035,0.000
1737553713.264,-65.918,-44.922,-38.086,-108.398,0.000
1737553713.268,-21.484,-41.992,-30.273,-20.020,0.000
1737553713.272,10.742,-33.691,-33.203,32.227,0.000
1737553713.276,19.531,-36.621,-32.715,12.207,0.000
1737553713.280,12.695,-43.945,-31.738,-24.414,0.000
1737553713.283,0.488,-41.016,-32.227,22.949,0.000
1737553713.287,38.574,-25.879,-31.250,99.609,0.000
1737553713.291,56.152,-21.484,-31.738,143.555,0.000
1737553713.295,49.805,-25.391,-35.156,85.449,0.000
1737553713.299,34.668,-25.879,-40.527,-24.414,0.000
1737553713.303,46.875,-25.391,-41.504,-11.719,0.000
1737553713.307,83.008,-20.020,-41.992,86.426,0.000
1737553713.311,109.863,-17.578,-41.016,123.047,0.000
1737553713.315,86.426,-26.855,-39.551,60.059,0.000
1737553713.319,40.527,-32.227,-37.109,-4.883,0.000
1737553713.322,70.312,-30.762,-30.762,28.809,0.000
1737553713.326,83.496,-28.809,-29.785,96.680,0.000
1737553713.330,71.289,-30.762,-32.227,156.250,0.000
1737553713.334,87.891,-33.203,-34.668,139.648,0.000
1737553713.338,60.059,-37.109,-40.039,20.996,0.000
1737553713.342,39.062,-32.715,-38.086,16.602,0.000
1737553713.346,77.148,-27.344,-35.156,111.816,0.000
1737553713.350,63.965,-37.598,-33.203,167.480,0.000
1737553713.354,45.410,-44.434,-35.645,140.137,0.000
1737553713.358,49.805,-45.898,-38.086,0.488,0.000
1737553713.362,39.551,-46.875,-35.156,-68.359,0.000
1737553713.365,30.273,-44.434,-38.574,16.602,0.000
1737553713.369,18.555,-42.969,-42.969,87.891,0.000
1737553713.373,26.367,-45.410,-47.363,62.988,0.000
1737553713.377,25.391,-49.805,-45.898,-30.762,0.000
1737553713.381,30.762,-50.781,-40.039,-88.379,0.000
1737553713.385,31.738,-48.340,-36.133,-11.719,0.000
1737553713.389,30.273,-47.363,-34.668,50.781,0.000
1737553713.393,21.973,-54.199,-37.598,54.688,0.000
1737553713.397,19.043,-54.688,-38.574,-3.906,0.000
1737553713.401,10.742,-61.035,-39.551,-74.219,0.000
1737553713.405,-2.441,-77.148,-34.180,-25.391,0.000
1737553713.408,12.695,-87.891,-31.738,35.156,0.000
1737553713.412,10.254,-95.703,-36.621,35.156,0.000
1737553713.416,15.625,-93.750,-38.086,-28.320,0.000
1737553713.420,8.789,-93.750,-43.945,-89.355,0.000
1737553713.424,2.930,-92.773,-47.852,-53.223,0.000
1737553713.428,20.996,-90.332,-40.527,21.973,0.000
1737553713.432,26.855,-89.355,-34.668,67.383,0.000
1737553713.436,1.953,-92.285,-41.504,6.348,0.000
1737553713.440,-26.367,-87.402,-43.945,-75.195,0.000
1737553713.444,-12.207,-80.566,-39.551,-45.410,0.000
1737553713.447,38.086,-81.055,-38.086,35.156,0.000
1737553713.451,49.316,-77.148,-32.715,82.031,0.000
1737553713.455,7.812,-69.824,-31.738,23.926,0.000
1737553713.459,-41.992,-72.754,-35.645,-80.078,0.000
1737553713.463,-32.227,-72.754,-43.457,-85.938,0.000
1737553713.467,33.203,-68.359,-48.828,-12.207,0.000
1737553713.471,39.551,-70.312,-43.457,48.828,0.000
1737553713.475,20.508,-72.266,-38.574,25.879,0.000
1737553713.479,14.160,-71.777,-38.086,-66.406,0.000
1737553713.483,-1.465,-69.824,-35.156,-79.590,0.000
1737553713.487,-3.906,-66.895,-31.250,-13.672,0.000
1737553713.490,18.066,-62.012,-30.762,38.574,0.000
1737553713.494,19.531,-59.570,-29.785,12.695,0.000
1737553713.498,8.789,-66.406,-28.809,-76.660,0.000
1737553713.502,-4.883,-74.219,-35.156,-123.535,0.000
1737553713.506,-6.836,-67.383,-35.156,-29.785,0.000
1737553713.510,9.766,-58.594,-34.180,57.617,0.000
1737553713.514,53.711,-49.805,-40.039,16.602,0.000
1737553713.518,51.758,-50.781,-35.156,-74.219,0.000
1737553713.522,18.555,-57.617,-30.762,-111.816,0.000
1737553713.526,12.207,-57.617,-35.645,-37.598,0.000
1737553713.530,11.230,-58.594,-43.457,7.812,0.000
1737553713.533,16.602,-58.594,-37.598,18.555,0.000
1737553713.537,7.324,-56.152,-38.574,-58.105,0.000
1737553713.541,-20.020,-57.617,-37.109,-116.699,0.000
1737553713.545,11.230,-57.617,-36.621,-60.059,0.000
1737553713.549,33.691,-57.129,-41.504,-10.742,0.000
1737553713.553,4.395,-57.129,-45.410,-19.531,0.000
1737553713.557,25.391,-48.828,-45.410,-86.426,0.000
1737553713.561,14.160,-51.758,-41.504,-131.348,0.000
1737553713.565,2.930,-58.105,-42.480,-83.496,0.000
1737553713.569,14.648,-50.293,-39.551,22.461,0.000
1737553713.572,-5.859,-55.176,-34.668,63.477,0.000
1737553713.576,-14.648,-62.012,-38.086,-22.461,0.000
1737553713.580,-15.625,-56.152,-45.898,-102.051,0.000
1737553713.584,-2.930,-54.199,-43.945,-105.957,0.000
1737553713.588,-22.949,-56.641,-35.645,-6.836,0.000
1737553713.592,-62.500,-62.500,-29.297,101.074,0.000
1737553713.596,-41.016,-65.430,-41.504,-24.414,0.000
1737553713.600,-77.637,-62.012,-47.852,-184.082,0.000
1737553713.604,-127.930,-58.105,-45.410,-191.406,0.000
1737553713.608,-124.023,-56.641,-43.945,-152.832,0.000
1737553713.612,-80.078,-60.059,-50.781,-61.035,0.000
1737553713.615,-59.082,-56.641,-51.270,-89.355,0.000
1737553713.619,-120.117,-63.477,-43.945,-164.062,0.000
1737553713.623,-69.336,-57.129,-45.898,-93.262,0.000
1737553713.627,-6.348,-39.551,-48.340,-35.645,0.000
1737553713.631,-32.715,-37.109,-51.758,37.109,0.000
1737553713.635,-23.926,-32.227,-53.223,8.789,0.000
1737553713.639,-28.809,-36.133,-50.293,-114.258,0.000
1737553713.643,-62.988,-43.457,-46.875,-111.328,0.000
1737553713.647,-56.152,-41.992,-41.016,-8.301,0.000
1737553713.651,-12.695,-36.621,-41.016,10.742,0.000
1737553713.654,-35.645,-41.016,-45.898,-22.949,0.000
1737553713.658,-70.801,-45.410,-44.922,-94.238,0.000
1737553713.662,-36.133,-44.922,-47.852,-101.562,0.000
1737553713.666,-60.059,-42.480,-45.410,4.883,0.000
1737553713.670,-90.820,-42.969,-36.133,83.496,0.000
1737553713.674,18.555,-41.504,-39.551,77.637,0.000
1737553713.678,44.922,-38.086,-43.945,-31.738,0.000
1737553713.682,-0.977,-40.527,-50.293,-76.172,0.000
1737553713.686,-0.977,-40.039,-47.363,29.297,0.000
1737553713.690,-1.953,-40.527,-37.109,111.816,0.000
1737553713.694,-0.977,-39.551,-44.922,78.613,0.000
1737553713.697,-24.414,-45.898,-50.293,-26.367,0.000
1737553713.701,-27.832,-47.363,-48.828,-81.543,0.000
1737553713.705,-17.090,-42.969,-48.340,-49.805,0.000
1737553713.709,-26.367,-41.992,-43.457,-5.859,0.000
1737553713.713,-29.297,-41.992,-35.645,44.434,0.000
1737553713.717,-15.137,-35.645,-38.086,-2.441,0.000
1737553713.721,-16.113,-37.109,-43.457,-87.891,0.000
1737553713.725,-20.996,-46.387,-41.504,-82.520,0.000
1737553713.729,13.184,-40.527,-40.527,51.758,0.000
1737553713.733,21.973,-36.133,-37.598,163.086,0.000
1737553713.737,-8.789,-40.039,-34.180,70.801,0.000
1737553713.740,-9.277,-46.875,-30.273,-14.648,0.000
1737553713.744,19.531,-43.457,-29.297,41.016,0.000
1737553713.748,27.832,-36.133,-31.250,111.328,0.000
1737553713.752,22.461,-40.039,-34.180,129.883,0.000
1737553713.756,-4.883,-42.480,-34.668,65.430,0.000
1737553713.760,-19.043,-39.551,-32.227,-44.434,0.000
1737553713.764,-25.391,-37.598,-28.809,-0.488,0.000
1737553713.768,-23.438,-37.598,-28.809,82.031,0.000
1737553713.772,18.066,-42.480,-34.180,128.418,0.000
1737553713.776,20.508,-48.828,-39.062,113.770,0.000
1737553713.779,2.441,-46.387,-41.992,0.977,0.000
1737553713.783,12.207,-45.410,-33.203,21.973,0.000
1737553713.787,12.207,-46.875,-30.762,76.172,0.000
1737553713.791,32.227,-48.340,-36.621,97.168,0.000
1737553713.795,30.762,-49.805,-37.109,58.105,0.000
1737553713.799,11.230,-49.316,-36.133,-26.855,0.000
1737553713.803,21.973,-45.410,-35.156,-8.789,0.000
1737553713.807,23.438,-47.363,-34.668,85.449,0.000
1737553713.811,23.926,-42.969,-34.180,157.715,0.000
1737553713.815,39.551,-32.715,-32.715,136.719,0.000
1737553713.819,5.371,-36.621,-29.297,45.410,0.000
1737553713.822,-6.348,-40.527,-28.320,55.664,0.000
1737553713.826,0.488,-42.969,-31.250,95.215,0.000
1737553713.830,-9.277,-48.828,-35.156,115.234,0.000
1737553713.834,43.945,-45.898,-35.156,121.582,0.000
1737553713.838,44.434,-42.480,-34.668,-17.090,0.000
1737553713.842,-4.883,-41.504,-35.156,-60.547,0.000
1737553713.846,-10.742,-40.527,-39.551,9.766,0.000
1737553713.850,34.180,-37.598,-38.574,44.922,0.000
1737553713.854,30.762,-37.109,-32.227,41.504,0.000
1737553713.858,13.672,-37.598,-34.180,-50.293,0.000
1737553713.862,-2.441,-39.551,-38.086,-110.840,0.000
1737553713.865,-16.602,-42.969,-36.621,-52.734,0.000
1737553713.869,0.000,-35.645,-35.156,31.738,0.000
1737553713.873,-12.695,-36.621,-34.180,66.895,0.000
1737553713.877,-18.066,-41.504,-37.598,-41.504,0.000
1737553713.881,0.977,-40.039,-41.992,-100.586,0.000
1737553713.885,17.090,-42.480,-39.551,-3.418,0.000
1737553713.889,10.254,-42.480,-35.645,87.402,0.000
1737553713.893,9.277,-37.109,-39.062,98.145,0.000
1737553713.897,20.020,-34.668,-44.922,7.324,0.000
1737553713.901,-19.531,-40.527,-40.527,-48.340,0.000
1737553713.904,-26.367,-38.086,-32.715,9.766,0.000
1737553713.908,-11.230,-36.133,-33.691,89.844,0.000
1737553713.912,0.488,-38.086,-28.320,124.512,0.000
1737553713.916,1.953,-42.480,-18.555,74.219,0.000
1737553713.920,-3.418,-45.410,-20.996,5.371,0.000
1737553713.924,9.277,-37.109,-30.273,10.742,0.000
1737553713.928,13.184,-32.715,-33.203,76.172,0.000
1737553713.932,22.949,-32.227,-29.297,120.605,0.000
1737553713.936,3.906,-33.203,-34.180,83.984,0.000
1737553713.940,-4.883,-33.691,-41.504,12.207,0.000
1737553713.944,-16.113,-37.109,-39.551,20.996,0.000
1737553713.947,-23.926,-41.992,-32.227,91.309,0.000
1737553713.951,-1.465,-40.039,-26.855,132.812,0.000
1737553713.955,-10.254,-42.969,-27.344,70.312,0.000
1737553713.959,-7.324,-43.457,-31.250,-34.180,0.000
1737553713.963,0.000,-40.527,-33.691,-30.762,0.000
1737553713.967,2.441,-41.504,-30.762,39.551,0.000
1737553713.971,4.883,-41.992,-29.785,68.848,0.000
1737553713.975,-11.230,-41.992,-29.785,35.645,0.000
1737553713.979,-38.086,-47.852,-37.109,-62.500,0.000
1737553713.983,-12.695,-47.852,-41.016,-82.031,0.000
1737553713.987,7.812,-41.992,-37.598,-5.859,0.000
1737553713.990,-3.418,-36.621,-33.203,62.500,0.000
1737553713.994,14.648,-37.109,-34.180,55.176,0.000
1737553713.998,-4.883,-43.945,-39.551,-37.109,0.000
1737553714.002,-26.855,-43.945,-43.945,-67.871,0.000
1737553714.006,-6.348,-41.504,-48.828,-6.836,0.000
1737553714.010,5.859,-44.434,-48.340,63.965,0.000
1737553714.014,-11.719,-46.875,-42.969,57.129,0.000
1737553714.018,-15.137,-48.340,-38.574,-44.434,0.000
1737553714.022,13.184,-41.504,-38.086,-60.547,0.000
1737553714.026,11.719,-39.062,-40.527,5.371,0.000
1737553714.029,-7.812,-40.527,-34.180,61.035,0.000
1737553714.033,-2.930,-37.598,-32.227,76.172,0.000
1737553714.037,-16.113,-44.434,-34.668,-14.648,0.000
1737553714.041,-23.438,-46.875,-31.738,-60.547,0.000
1737553714.045,-20.996,-41.504,-29.785,10.742,0.000
1737553714.049,-15.625,-41.016,-27.832,65.918,0.000
1737553714.053,-31.738,-42.969,-32.715,59.082,0.000
1737553714.057,-29.785,-42.480,-37.598,-19.043,0.000
1737553714.061,-25.391,-42.480,-35.645,-105.469,0.000
1737553714.065,-47.363,-50.781,-30.762,-93.262,0.000
1737553714.069,-21.973,-52.734,-31.250,-16.113,0.000
1737553714.072,-1.465,-49.316,-31.250,14.160,0.000
1737553714.076,-7.324,-55.176,-27.832,-86.426,0.000
1737553714.080,-13.672,-53.711,-29.785,-173.828,0.000
1737553714.084,-31.250,-53.223,-34.180,-152.344,0.000
1737553714.088,-37.109,-57.129,-34.668,-72.266,0.000
1737553714.092,-13.184,-53.223,-38.574,-19.043,0.000
1737553714.096,-0.977,-56.641,-39.062,-91.309,0.000
1737553714.100,-9.766,-54.199,-29.785,-161.621,0.000
1737553714.104,-12.695,-45.410,-27.832,-113.770,0.000
1737553714.108,-14.648,-46.875,-30.762,-22.949,0.000
1737553714.112,-30.273,-49.805,-32.227,4.883,0.000
1737553714.115,-36.621,-52.246,-32.227,-50.781,0.000
1737553714.119,-22.461,-52.246,-34.668,-137.207,0.000
1737553714.123,-5.371,-43.457,-31.250,-135.742,0.000
1737553714.127,-8.789,-41.016,-27.344,-67.871,0.000
1737553714.131,-8.789,-46.387,-31.250,-42.969,0.000
1737553714.135,-13.672,-49.316,-32.715,-89.844,0.000
1737553714.139,-23.926,-50.293,-32.715,-182.129,0.000
1737553714.143,-27.344,-48.340,-34.180,-196.289,0.000
1737553714.147,-18.066,-48.340,-37.109,-116.211,0.000
1737553714.151,4.395,-44.434,-40.039,-55.176,0.000
1737553714.154,-9.766,-46.387,-35.645,-82.031,0.000
1737553714.158,-29.785,-48.340,-32.715,-185.547,0.000
1737553714.162,-37.598,-45.898,-34.180,-193.848,0.000
1737553714.166,-31.250,-41.992,-35.156,-111.816,0.000
1737553714.170,-27.344,-44.922,-38.574,-63.965,0.000
1737553714.174,-26.367,-51.758,-44.434,-71.289,0.000
1737553714.178,-16.113,-50.781,-44.434,-150.879,0.000
1737553714.182,-26.855,-54.199,-45.410,-188.965,0.000
1737553714.186,-26.367,-56.641,-43.457,-106.934,0.000
1737553714.190,-21.484,-47.852,-40.039,-34.180,0.000
1737553714.194,-32.715,-44.922,-41.992,-55.176,0.000
1737553714.197,-28.320,-49.805,-42.480,-138.184,0.000
1737553714.201,-22.949,-51.758,-46.875,-167.969,0.000
1737553714.205,-35.645,-52.246,-45.898,-108.398,0.000
1737553714.209,-40.039,-50.781,-43.457,-39.062,0.000
1737553714.213,-10.742,-44.434,-43.457,-9.277,0.000
1737553714.217,-8.789,-45.898,-41.504,-98.633,0.000
1737553714.221,-35.645,-51.758,-39.062,-172.363,0.000
1737553714.225,-37.109,-47.852,-34.180,-106.445,0.000
1737553714.229,-10.254,-41.992,-33.203,-20.508,0.000
1737553714.233,0.000,-42.969,-34.668,8.301,0.000
1737553714.237,6.348,-41.992,-35.156,-51.758,0.000
1737553714.240,-0.488,-39.062,-33.691,-119.141,0.000
1737553714.244,-49.805,-38.086,-34.180,-69.824,0.000
1737553714.248,-17.578,-40.039,-34.668,18.555,0.000
1737553714.252,24.902,-46.875,-34.668,40.527,0.000
1737553714.256,-15.137,-49.805,-35.156,-39.551,0.000
1737553714.260,-21.484,-47.852,-33.203,-85.449,0.000
1737553714.264,-22.461,-48.828,-35.156,-49.316,0.000
1737553714.268,-30.273,-50.781,-37.598,4.883,0.000
1737553714.272,-19.531,-43.457,-31.250,76.172,0.000
1737553714.276,-14.648,-41.016,-34.180,24.414,0.000
1737553714.279,-21.973,-45.898,-43.457,-99.609,0.000
1737553714.283,-28.809,-49.805,-39.062,-71.289,0.000
1737553714.287,-41.504,-49.316,-31.738,15.137,0.000
1737553714.291,-32.715,-43.457,-28.320,54.199,0.000
1737553714.295,-6.348,-46.387,-34.668,2.930,0.000
1737553714.299,-25.391,-53.223,-43.945,-92.773,0.000
1737553714.303,-7.812,-46.387,-40.039,-77.637,0.000
1737553714.307,-7.812,-39.062,-38.086,-10.254,0.000
1737553714.311,-31.738,-38.574,-37.598,38.086,0.000
1737553714.315,-29.785,-38.574,-35.156,15.625,0.000
1737553714.319,-30.273,-38.574,-34.180,-71.289,0.000
1737553714.322,-23.926,-45.410,-35.156,-87.891,0.000
1737553714.326,-21.973,-46.387,-35.645,-18.555,0.000
1737553714.330,-12.695,-44.434,-33.691,41.016,0.000
1737553714.334,4.395,-40.527,-33.691,1.465,0.000
1737553714.338,-8.789,-38.574,-36.621,-93.262,0.000
1737553714.342,-27.832,-44.434,-41.504,-110.840,0.000
1737553714.346,-11.230,-48.828,-40.039,-60.059,0.000
1737553714.350,-10.254,-47.852,-39.062,8.301,0.000
1737553714.354,-28.809,-42.969,-36.621,24.902,0.000
1737553714.358,-29.785,-39.551,-35.645,-85.449,0.000
1737553714.362,-9.766,-40.039,-37.598,-118.652,0.000
1737553714.365,-2.441,-40.039,-37.598,-22.461,0.000
1737553714.369,3.906,-36.621,-39.062,35.156,0.000
1737553714.373,2.930,-32.715,-38.086,46.875,0.000
1737553714.377,-13.184,-36.133,-36.133,-28.320,0.000
1737553714.381,1.953,-41.504,-40.039,-105.957,0.000
1737553714.385,-13.184,-36.133,-44.922,-54.688,0.000
1737553714.389,-31.738,-35.156,-46.387,12.695,0.000
1737553714.393,-13.184,-39.551,-41.016,26.367,0.000
1737553714.397,-20.508,-38.574,-38.574,-55.664,0.000
1737553714.401,-37.109,-36.621,-42.480,-125.977,0.000
1737553714.404,-40.039,-32.715,-42.969,-53.711,0.000
1737553714.408,-39.551,-31.738,-37.598,20.020,0.000
1737553714.412,-30.273,-37.109,-35.645,54.688,0.000
1737553714.416,-18.555,-41.016,-40.527,-14.648,0.000
1737553714.420,-16.602,-39.062,-44.922,-101.074,0.000
1737553714.424,-0.977,-35.645,-43.945,-66.895,0.000
1737553714.428,-20.996,-39.551,-44.434,2.930,0.000
1737553714.432,-19.531,-41.016,-41.504,50.781,0.000
1737553714.436,-3.906,-39.551,-37.598,5.859,0.000
1737553714.440,-20.020,-45.410,-40.527,-96.191,0.000
1737553714.444,-26.855,-45.898,-43.945,-74.219,0.000
1737553714.447,-22.461,-45.898,-41.504,12.207,0.000
1737553714.451,-39.062,-46.875,-41.992,47.363,0.000
1737553714.455,-27.344,-44.434,-46.875,1.465,0.000
1737553714.459,-23.926,-45.898,-46.875,-88.867,0.000
1737553714.463,-48.828,-45.898,-41.504,-66.895,0.000
1737553714.467,-27.832,-42.969,-39.551,3.418,0.000
1737553714.471,-17.090,-41.016,-38.086,52.246,0.000
1737553714.475,-24.902,-38.086,-31.250,30.762,0.000
1737553714.479,-35.156,-36.621,-32.715,-53.223,0.000
1737553714.483,-45.410,-33.203,-32.227,-72.754,0.000
1737553714.486,-62.500,-40.527,-34.180,-52.734,0.000
1737553714.490,-95.703,-36.621,-36.133,-42.969,0.000
1737553714.494,-129.883,-33.691,-38.086,-112.793,0.000
1737553714.498,-164.062,-20.996,-34.180,-261.719,0.000
1737553714.502,-200.684,-24.414,-19.531,-328.125,0.000
1737553714.506,-252.930,-30.273,-33.203,-318.848,0.000
1737553714.510,-313.477,-23.438,-42.480,-329.102,0.000
1737553714.514,-352.539,-35.156,-13.184,-370.605,0.000
1737553714.518,-370.117,-40.527,-3.906,-478.516,0.000
1737553714.522,-413.086,-51.758,-28.320,-562.988,0.000
1737553714.526,-417.969,-27.832,-22.949,-500.977,0.000
1737553714.529,-400.391,-13.184,-25.879,-398.926,0.000
1737553714.533,-382.812,-10.742,-38.086,-440.430,0.000
1737553714.537,-337.891,-17.090,-28.320,-537.598,0.000
1737553714.541,-331.543,-20.996,-33.203,-550.293,0.000
1737553714.545,-326.660,-7.324,-29.785,-488.770,0.000
1737553714.549,-299.316,1.465,-26.367,-395.996,0.000
1737553714.553,-312.012,1.953,-28.320,-355.469,0.000
1737553714.557,-298.340,4.395,-21.484,-398.438,0.000
1737553714.561,-278.809,13.672,-24.902,-442.383,0.000
1737553714.565,-251.953,14.648,-33.203,-356.934,0.000
1737553714.569,-200.195,20.508,-38.574,-246.582,0.000
1737553714.572,-227.051,25.879,-35.645,-141.602,0.000
1737553714.576,-270.996,20.508,-30.273,-163.574,0.000
1737553714.580,-228.516,17.090,-30.762,-236.816,0.000
1737553714.584,-172.852,17.578,-30.762,-154.297,0.000
1737553714.588,-177.246,9.277,-24.414,-52.734,0.000
1737553714.592,-159.668,9.277,-22.461,-2.441,0.000
1737553714.596,-123.535,18.555,-25.391,-43.945,0.000
1737553714.600,-121.094,11.230,-28.320,-124.023,0.000
1737553714.604,-100.586,-16.602,-34.180,-82.031,0.000
1737553714.608,-54.688,-18.555,-39.551,9.277,0.000
1737553714.611,-51.270,-2.441,-41.992,50.293,0.000
1737553714.615,-44.434,-0.488,-41.504,18.555,0.000
1737553714.619,-27.344,-8.301,-44.434,-64.453,0.000
1737553714.623,-22.949,-22.461,-47.852,-50.781,0.000
1737553714.627,5.859,-32.715,-46.387,34.668,0.000
1737553714.631,41.016,-36.621,-47.852,100.586,0.000
1737553714.635,56.152,-42.480,-50.781,90.332,0.000
1737553714.639,72.754,-51.758,-48.828,23.926,0.000
1737553714.643,97.656,-57.617,-50.781,64.941,0.000
1737553714.647,127.930,-62.012,-46.875,169.922,0.000
1737553714.651,140.137,-64.453,-49.805,245.117,0.000
1737553714.654,136.230,-62.012,-58.105,226.562,0.000
1737553714.658,154.785,-64.453,-56.152,116.211,0.000
1737553714.662,152.344,-66.895,-52.246,108.887,0.000
1737553714.666,168.457,-59.082,-49.805,204.590,0.000
1737553714.670,188.965,-63.477,-51.758,267.090,0.000
1737553714.674,197.754,-71.777,-51.270,233.887,0.000
1737553714.678,199.707,-69.824,-50.781,139.160,0.000
1737553714.682,171.387,-66.895,-47.363,115.234,0.000
1737553714.686,161.621,-71.777,-42.969,170.410,0.000
1737553714.690,186.035,-68.848,-53.223,228.516,0.000
1737553714.694,189.941,-62.988,-51.758,237.305,0.000
1737553714.697,170.898,-64.941,-39.551,159.180,0.000
1737553714.701,167.480,-64.941,-40.039,108.887,0.000
1737553714.705,163.086,-59.570,-45.410,156.738,0.000
1737553714.709,142.090,-54.688,-37.598,196.289,0.000
1737553714.713,150.391,-54.688,-30.762,194.824,0.000
1737553714.717,110.840,-51.270,-35.645,90.332,0.000
1737553714.721,66.895,-50.781,-28.320,-3.906,0.000
1737553714.725,64.941,-49.805,-38.086,-8.789,0.000
1737553714.729,40.039,-42.480,-41.992,24.414,0.000
1737553714.733,-8.789,-53.711,-32.227,3.906,0.000
1737553714.736,-64.453,-47.852,-41.992,-109.375,0.000
1737553714.740,-115.723,-38.086,-40.527,-230.957,0.000
1737553714.744,-182.617,-50.781,-31.250,-284.180,0.000
1737553714.748,-211.914,-52.734,-36.621,-265.625,0.000
1737553714.752,-244.629,-52.734,-29.297,-229.492,0.000
1737553714.756,-262.695,-55.176,-17.090,-286.621,0.000
1737553714.760,-288.574,-56.641,-18.555,-383.789,0.000
1737553714.764,-289.062,-60.059,-13.672,-346.191,0.000
1737553714.768,-247.559,-58.594,-10.742,-251.953,0.000
1737553714.772,-246.094,-48.340,-21.484,-207.031,0.000
1737553714.776,-237.305,-49.805,-17.578,-249.023,0.000
1737553714.779,-233.398,-50.781,-22.949,-319.336,0.000
1737553714.783,-226.562,-42.969,-35.645,-278.320,0.000
1737553714.787,-191.895,-40.039,-29.785,-193.848,0.000
1737553714.791,-182.129,-42.969,-27.344,-159.180,0.000
1737553714.795,-189.453,-46.387,-29.297,-194.336,0.000
1737553714.799,-200.195,-45.410,-29.785,-279.297,0.000
1737553714.803,-181.641,-43.457,-23.926,-253.418,0.000
1737553714.807,-149.414,-38.086,-19.043,-130.371,0.000
1737553714.811,-132.324,-36.133,-26.367,-53.711,0.000
1737553714.815,-87.891,-36.133,-28.809,-53.711,0.000
1737553714.819,-62.500,-39.062,-25.879,-164.551,0.000
1737553714.822,-87.891,-42.480,-32.227,-179.199,0.000
1737553714.826,-78.125,-41.992,-39.551,-76.660,0.000
1737553714.830,-29.297,-40.039,-39.062,19.043,0.000
1737553714.834,-7.324,-43.457,-37.598,24.902,0.000
1737553714.838,-14.648,-56.641,-38.574,-58.594,0.000
1737553714.842,10.742,-59.082,-41.504,-62.988,0.000
1737553714.846,56.152,-52.734,-39.062,36.133,0.000
1737553714.850,63.477,-50.781,-40.527,125.488,0.000
1737553714.854,86.914,-51.270,-43.945,143.066,0.000
1737553714.858,115.723,-49.805,-42.480,78.613,0.000
1737553714.861,106.445,-49.316,-45.898,41.016,0.000
1737553714.865,117.188,-54.688,-44.434,113.770,0.000
1737553714.869,132.812,-51.270,-42.969,183.105,0.000
1737553714.873,145.508,-47.363,-47.363,200.195,0.000
1737553714.877,152.344,-51.758,-50.293,125.977,0.000
1737553714.881,152.344,-52.246,-51.270,62.988,0.000
1737553714.885,169.922,-47.852,-44.434,141.602,0.000
1737553714.889,178.223,-40.039,-37.598,236.328,0.000
1737553714.893,194.824,-41.992,-41.504,246.582,0.000
1737553714.897,189.941,-47.852,-44.922,169.434,0.000
1737553714.901,181.152,-43.457,-43.457,128.906,0.000
1737553714.904,175.293,-43.457,-41.992,145.996,0.000
1737553714.908,163.086,-49.805,-40.527,188.477,0.000
1737553714.912,167.969,-56.641,-41.016,223.633,0.000
1737553714.916,165.527,-56.641,-42.969,161.621,0.000
1737553714.920,146.973,-52.246,-42.480,69.824,0.000
1737553714.924,145.020,-50.293,-44.922,87.402,0.000
1737553714.928,166.504,-44.434,-45.410,188.477,0.000
1737553714.932,167.480,-41.016,-42.480,218.750,0.000
1737553714.936,149.902,-48.340,-41.016,145.508,0.000
1737553714.940,119.141,-49.316,-41.016,59.570,0.000
1737553714.944,122.559,-40.527,-38.574,80.078,0.000
1737553714.947,129.883,-41.016,-38.574,158.691,0.000
1737553714.951,116.211,-45.898,-35.156,196.777,0.000
1737553714.955,117.676,-53.711,-32.715,149.902,0.000
1737553714.959,106.445,-54.688,-38.086,62.500,0.000
1737553714.963,87.402,-47.852,-41.504,70.801,0.000
1737553714.967,94.238,-48.828,-31.738,140.625,0.000
1737553714.971,99.121,-49.316,-30.273,191.406,0.000
1737553714.975,90.332,-47.363,-33.203,164.551,0.000
1737553714.979,72.754,-45.410,-31.250,61.523,0.000
1737553714.983,72.754,-42.969,-37.109,38.086,0.000
1737553714.986,73.730,-43.945,-39.551,116.699,0.000
1737553714.990,73.730,-42.969,-37.109,171.387,0.000
1737553714.994,70.801,-40.039,-33.203,156.738,0.000
1737553714.998,49.316,-38.086,-32.715,71.777,0.000
1737553715.002,52.246,-40.039,-35.645,42.969,0.000
1737553715.006,69.824,-47.852,-36.133,108.398,0.000
1737553715.010,76.660,-48.828,-32.227,163.086,0.000
1737553715.014,51.270,-43.457,-29.785,157.715,0.000
1737553715.018,37.598,-42.969,-37.109,60.059,0.000
1737553715.022,32.227,-43.457,-45.410,16.113,0.000
1737553715.026,35.645,-45.410,-43.945,73.242,0.000
1737553715.029,52.246,-37.598,-38.086,160.645,0.000
1737553715.033,40.039,-38.574,-39.062,168.945,0.000
1737553715.037,32.715,-46.875,-38.086,54.688,0.000
1737553715.041,20.508,-41.504,-36.133,-1.465,0.000
1737553715.045,20.020,-39.062,-37.109,63.965,0.000
1737553715.049,42.480,-46.387,-37.109,136.719,0.000
1737553715.053,30.273,-43.457,-34.668,149.902,0.000
1737553715.057,18.555,-45.898,-38.574,39.551,0.000
1737553715.061,27.832,-48.340,-40.039,-44.434,0.000
1737553715.065,11.230,-41.504,-40.039,17.578,0.000
1737553715.069,13.184,-44.922,-41.016,79.102,0.000
1737553715.072,28.809,-43.945,-41.016,99.609,0.000
1737553715.076,10.742,-43.457,-41.016,39.551,0.000
1737553715.080,2.441,-49.316,-39.062,-35.645,0.000
1737553715.084,-3.418,-49.805,-41.016,-7.812,0.000
1737553715.088,-6.836,-46.875,-38.086,86.914,0.000
1737553715.092,6.348,-38.574,-37.109,146.973,0.000
1737553715.096,5.371,-38.086,-45.898,60.059,0.000
1737553715.100,0.488,-41.992,-49.316,-40.039,0.000
1737553715.104,3.418,-40.527,-44.434,-6.836,0.000
1737553715.108,11.719,-41.016,-39.551,71.777,0.000
1737553715.111,17.578,-45.410,-39.062,119.629,0.000
1737553715.115,20.020,-44.922,-40.039,66.895,0.000
1737553715.119,6.348,-42.480,-41.504,-40.527,0.000
1737553715.123,7.812,-42.969,-40.039,-16.602,0.000
1737553715.127,15.137,-42.480,-37.109,62.500,0.000
1737553715.131,2.930,-44.922,-30.273,119.629,0.000
1737553715.135,11.230,-35.645,-26.367,114.258,0.000
1737553715.139,-5.371,-29.297,-30.273,9.277,0.000
1737553715.143,-21.973,-38.574,-33.691,-20.020,0.000
1737553715.147,-12.695,-39.551,-31.250,51.270,0.000
1737553715.151,-4.883,-40.039,-32.715,103.516,0.000
1737553715.154,-8.301,-43.945,-35.156,83.496,0.000
1737553715.158,-18.066,-44.434,-32.227,-11.719,0.000
1737553715.162,-18.555,-41.504,-30.273,-34.668,0.000
1737553715.166,-13.672,-39.062,-28.320,41.992,0.000
1737553715.170,7.812,-37.598,-26.367,103.027,0.000
1737553715.174,5.859,-36.621,-28.320,101.562,0.000
1737553715.178,-24.902,-43.457,-28.320,3.418,0.000
1737553715.182,-33.691,-50.781,-31.738,-53.223,0.000
1737553715.186,-25.879,-47.363,-34.180,24.902,0.000
1737553715.190,-6.348,-43.945,-34.180,82.520,0.000
1737553715.193,0.488,-42.480,-31.738,79.102,0.000
1737553715.197,-8.301,-41.504,-31.738,-16.113,0.000
1737553715.201,-10.254,-45.410,-30.273,-84.961,0.000
1737553715.205,-5.859,-42.480,-24.902,-15.625,0.000
1737553715.209,-3.906,-34.668,-24.414,67.383,0.000
1737553715.213,-9.277,-39.551,-24.902,73.242,0.000
1737553715.217,-16.602,-41.504,-23.438,0.000,0.000
1737553715.221,-15.137,-40.527,-26.855,-65.918,0.000
1737553715.225,-3.418,-40.527,-30.273,-12.207,0.000
1737553715.229,-17.578,-34.668,-26.367,79.102,0.000
1737553715.233,-20.996,-35.156,-29.297,88.379,0.000
1737553715.236,-17.578,-39.062,-31.738,14.160,0.000
1737553715.240,-26.855,-39.062,-29.297,-61.035,0.000
1737553715.244,-17.090,-41.504,-27.344,-23.438,0.000
1737553715.248,-6.836,-45.898,-31.738,51.758,0.000
1737553715.252,2.930,-40.039,-30.762,86.914,0.000
1737553715.256,-0.488,-41.016,-28.809,24.902,0.000
1737553715.260,-14.648,-47.852,-30.762,-54.688,0.000
1737553715.264,-8.789,-43.457,-27.832,-19.043,0.000
1737553715.268,-9.766,-41.504,-29.297,54.688,0.000
1737553715.272,0.488,-41.992,-30.273,117.676,0.000
1737553715.276,-5.371,-36.133,-28.809,71.777,0.000
1737553715.279,-39.062,-36.133,-27.832,-42.969,0.000
1737553715.283,-29.297,-41.016,-29.297,-30.273,0.000
1737553715.287,-20.508,-41.992,-29.297,41.504,0.000
1737553715.291,-21.484,-37.109,-25.879,95.703,0.000
1737553715.295,-24.414,-37.598,-31.250,63.477,0.000
1737553715.299,-41.504,-44.434,-33.691,-37.109,0.000
1737553715.303,-44.434,-44.922,-30.273,-38.086,0.000
1737553715.307,-33.203,-43.457,-30.762,45.898,0.000
1737553715.311,-28.320,-42.480,-28.809,98.633,0.000
1737553715.315,-11.230,-46.387,-31.250,66.895,0.000
1737553715.318,-14.648,-44.922,-36.133,-16.113,0.000
1737553715.322,-30.762,-41.504,-32.227,-41.016,0.000
1737553715.326,-22.461,-42.969,-28.809,20.996,0.000
1737553715.330,-28.809,-45.410,-32.227,91.309,0.000
1737553715.334,-28.809,-45.898,-32.227,74.707,0.000
1737553715.338,-24.902,-44.922,-33.203,-8.301,0.000
1737553715.342,-34.180,-45.898,-31.738,-37.109,0.000
1737553715.346,-28.809,-48.828,-30.762,17.090,0.000
1737553715.350,-8.301,-44.922,-28.809,92.773,0.000
1737553715.354,-8.301,-47.363,-27.832,90.820,0.000
1737553715.358,-24.414,-52.246,-30.762,-8.789,0.000
1737553715.361,-28.320,-47.852,-27.344,-50.781,0.000
1737553715.365,-23.926,-43.457,-20.020,6.836,0.000
1737553715.369,-1.953,-37.598,-19.531,96.191,0.000
1737553715.373,5.371,-33.691,-20.508,101.074,0.000
1737553715.377,-20.996,-40.039,-23.926,-13.672,0.000
1737553715.381,-37.598,-41.504,-24.902,-70.801,0.000
1737553715.385,-34.668,-40.527,-25.391,-20.020,0.000
1737553715.389,-37.109,-49.316,-26.367,54.199,0.000
1737553715.393,-26.855,-46.387,-25.879,83.984,0.000
1737553715.397,-15.625,-42.480,-31.738,8.789,0.000
1737553715.401,-23.926,-45.410,-39.062,-57.129,0.000
1737553715.404,-22.461,-46.875,-43.945,-16.602,0.000
1737553715.408,-15.137,-47.363,-44.922,44.434,0.000
1737553715.412,-12.207,-45.410,-43.457,73.730,0.000
1737553715.416,-15.137,-42.480,-38.086,20.996,0.000
1737553715.420,-15.137,-46.387,-40.527,-67.871,0.000
1737553715.424,-6.836,-47.363,-42.480,-48.828,0.000
1737553715.428,-14.160,-41.992,-32.227,38.574,0.000
1737553715.432,-29.297,-43.457,-23.438,90.332,0.000
1737553715.436,-23.926,-46.387,-25.879,40.527,0.000
1737553715.440,-21.484,-47.852,-33.691,-41.504,0.000
1737553715.443,-28.320,-48.828,-32.715,-4.883,0.000
1737553715.447,-10.742,-42.480,-28.320,78.125,0.000
1737553715.451,3.906,-38.086,-29.785,115.234,0.000
1737553715.455,1.465,-40.527,-25.879,66.406,0.000
1737553715.459,2.441,-48.340,-30.762,-33.203,0.000
1737553715.463,-4.395,-48.340,-36.133,-25.879,0.000
1737553715.467,-5.371,-44.922,-35.156,38.574,0.000
1737553715.471,-8.301,-48.828,-38.086,82.031,0.000
1737553715.475,-32.715,-53.223,-35.645,47.363,0.000
1737553715.479,-34.180,-51.758,-35.645,-48.340,0.000
1737553715.483,-19.043,-43.945,-29.785,-39.551,0.000
1737553715.486,-10.254,-39.062,-24.414,50.293,0.000
1737553715.490,-8.301,-43.945,-26.855,100.098,0.000
1737553715.494,-5.859,-48.828,-26.855,75.684,0.000
1737553715.498,-9.277,-46.387,-29.297,-15.625,0.000
1737553715.502,-16.602,-43.457,-27.832,-27.832,0.000
1737553715.506,-12.207,-40.039,-25.879,50.293,0.000
1737553715.510,0.488,-42.969,-27.832,108.398,0.000
1737553715.514,8.789,-46.875,-33.203,118.652,0.000
1737553715.518,-9.277,-43.945,-35.645,14.160,0.000
1737553715.522,-18.066,-43.945,-27.832,-47.363,0.000
1737553715.526,-24.902,-45.410,-21.484,15.137,0.000
1737553715.529,-20.020,-43.457,-21.973,89.355,0.000
1737553715.533,-1.953,-38.574,-19.531,92.773,0.000
1737553715.537,-12.207,-40.527,-19.531,13.672,0.000
1737553715.541,-20.996,-43.945,-25.879,-29.785,0.000
1737553715.545,-23.438,-44.922,-32.227,18.066,0.000
1737553715.549,-27.832,-40.039,-31.738,94.238,0.000
1737553715.553,-12.695,-42.969,-31.738,105.469,0.000
1737553715.557,-17.090,-31.738,-26.367,39.551,0.000
1737553715.561,-29.297,-20.020,-21.973,-23.438,0.000
1737553715.565,-35.645,-37.598,-24.414,-18.066,0.000
1737553715.568,-62.500,-35.156,-28.320,22.461,0.000
1737553715.572,-83.496,-39.062,-34.180,16.602,0.000
1737553715.576,-96.680,-29.297,-28.809,-76.172,0.000
1737553715.580,-145.996,-8.789,-23.926,-216.309,0.000
1737553715.584,-190.918,-20.996,-31.738,-252.441,0.000
1737553715.588,-183.594,-26.855,-30.762,-192.383,0.000
1737553715.592,-219.727,-21.973,-35.645,-206.543,0.000
1737553715.596,-307.617,-22.949,-24.902,-340.332,0.000
1737553715.600,-374.512,-39.551,-17.578,-483.887,0.000
1737553715.604,-393.555,-33.203,-32.715,-501.465,0.000
1737553715.608,-404.785,-26.855,-26.367,-468.262,0.000
1737553715.611,-416.504,-32.227,-24.414,-423.828,0.000
1737553715.615,-411.133,-31.250,-35.156,-457.031,0.000
1737553715.619,-406.250,-30.762,-27.832,-548.340,0.000
1737553715.623,-389.160,-23.926,-23.926,-516.113,0.000
1737553715.627,-375.000,-20.508,-24.902,-410.156,0.000
1737553715.631,-359.375,-14.648,-19.043,-320.312,0.000
1737553715.635,-345.215,-6.836,-27.344,-320.312,0.000
1737553715.639,-350.098,-11.230,-32.715,-405.273,0.000
1737553715.643,-326.660,-20.020,-27.832,-395.996,0.000
1737553715.647,-281.738,-16.113,-29.785,-286.133,0.000
1737553715.651,-271.484,-6.348,-32.227,-215.820,0.000
1737553715.654,-286.133,-2.930,-32.715,-207.520,0.000
1737553715.658,-251.465,-11.230,-25.879,-242.676,0.000
1737553715.662,-241.211,-15.625,-30.273,-269.043,0.000
1737553715.666,-262.207,-13.672,-36.133,-191.895,0.000
1737553715.670,-226.074,-3.906,-30.762,-84.473,0.000
1737553715.674,-184.082,-17.090,-20.020,-62.012,0.000
1737553715.678,-154.297,-50.781,-20.996,-150.391,0.000
1737553715.682,-139.648,-34.180,-27.832,-190.918,0.000
1737553715.686,-178.223,-6.348,-29.297,-111.328,0.000
1737553715.690,-157.227,-14.160,-31.738,-8.789,0.000
1737553715.693,-114.746,-15.137,-29.785,-6.348,0.000
1737553715.697,-114.258,-2.930,-29.297,-117.676,0.000
1737553715.701,-95.703,-8.301,-26.855,-145.996,0.000
1737553715.705,-66.406,-13.672,-29.297,-83.984,0.000
1737553715.709,-50.293,-16.113,-33.203,-23.438,0.000
1737553715.713,-23.438,-19.531,-29.297,18.555,0.000
1737553715.717,-12.695,-24.902,-29.785,-45.898,0.000
1737553715.721,-2.441,-24.902,-35.645,-101.074,0.000
1737553715.725,24.902,-25.879,-29.785,-19.531,0.000
1737553715.729,45.410,-32.715,-30.762,71.777,0.000
1737553715.733,60.059,-41.504,-33.203,111.328,0.000
1737553715.736,76.660,-45.410,-35.156,60.547,0.000
1737553715.740,103.516,-44.922,-43.457,17.578,0.000
1737553715.744,112.793,-43.945,-47.363,95.703,0.000
1737553715.748,118.164,-49.805,-49.316,177.734,0.000
1737553715.752,139.648,-55.664,-48.828,201.660,0.000
1737553715.756,145.508,-57.129,-50.293,156.738,0.000
1737553715.760,166.016,-59.082,-48.340,90.332,0.000
1737553715.764,175.781,-58.105,-43.945,124.023,0.000
1737553715.768,157.227,-57.129,-45.898,203.125,0.000
1737553715.772,166.016,-57.129,-45.898,240.234,0.000
1737553715.776,172.852,-56.152,-45.898,178.223,0.000
1737553715.779,171.875,-54.199,-47.852,76.172,0.000
1737553715.783,184.570,-44.922,-45.898,117.188,0.000
1737553715.787,161.133,-45.898,-45.898,174.805,0.000
1737553715.791,158.691,-45.898,-40.039,230.469,0.000
1737553715.795,154.785,-45.410,-34.180,200.684,0.000
1737553715.799,124.512,-53.711,-38.574,55.664,0.000
1737553715.803,94.727,-63.477,-41.504,16.602,0.000
1737553715.807,40.527,-64.453,-40.039,36.133,0.000
1737553715.811,17.578,-44.434,-42.969,44.434,0.000
1737553715.815,-27.832,-40.527,-35.645,-42.969,0.000
1737553715.818,-80.078,-47.852,-27.344,-219.727,0.000
1737553715.822,-108.398,-52.734,-32.227,-279.297,0.000
1737553715.826,-147.461,-69.336,-28.809,-249.023,0.000
1737553715.830,-158.203,-68.359,-28.320,-214.355,0.000
1737553715.834,-180.176,-55.176,-26.855,-247.070,0.000
1737553715.838,-230.957,-58.594,-22.949,-363.770,0.000
1737553715.842,-240.234,-56.641,-25.879,-416.016,0.000
1737553715.846,-229.004,-47.363,-29.297,-348.633,0.000
1737553715.850,-213.379,-39.551,-29.297,-243.164,0.000
1737553715.854,-172.363,-39.062,-31.738,-203.125,0.000
1737553715.858,-187.500,-44.434,-29.297,-259.277,0.000
1737553715.861,-206.543,-45.898,-22.461,-277.344,0.000
1737553715.865,-159.180,-48.340,-18.555,-189.453,0.000
1737553715.869,-152.832,-47.852,-18.555,-97.656,0.000
1737553715.873,-160.156,-44.434,-23.438,-82.520,0.000
1737553715.877,-148.438,-48.340,-26.855,-160.156,0.000
1737553715.881,-136.719,-56.152,-24.902,-194.336,0.000
1737553715.885,-122.559,-38.574,-25.879,-112.793,0.000
1737553715.889,-115.723,-29.785,-33.691,-19.531,0.000
1737553715.893,-79.590,-35.645,-40.527,0.000,0.000
1737553715.897,-49.805,-32.715,-39.062,-71.289,0.000
1737553715.901,-51.270,-30.273,-33.691,-110.840,0.000
1737553715.904,-34.180,-32.227,-27.832,-33.691,0.000
1737553715.908,-12.695,-36.133,-26.367,61.035,0.000
1737553715.912,9.277,-40.039,-31.738,88.867,0.000
1737553715.916,50.781,-38.574,-29.785,38.574,0.000
1737553715.920,55.176,-42.480,-28.320,-23.438,0.000
1737553715.924,53.711,-51.270,-32.715,14.160,0.000
1737553715.928,77.637,-47.852,-35.645,98.145,0.000
1737553715.932,107.910,-44.434,-36.621,154.297,0.000
1737553715.936,123.535,-53.223,-36.621,108.887,0.000
1737553715.940,118.164,-58.105,-36.621,24.902,0.000
1737553715.943,131.348,-56.152,-34.180,77.637,0.000
1737553715.947,145.996,-61.523,-37.109,164.551,0.000
1737553715.951,153.320,-63.965,-36.133,227.539,0.000
1737553715.955,175.781,-59.570,-30.273,207.031,0.000
1737553715.959,170.410,-64.941,-33.691,122.559,0.000
1737553715.963,159.180,-61.035,-36.133,116.699,0.000
1737553715.967,178.223,-49.316,-34.180,182.129,0.000
1737553715.971,176.758,-52.734,-32.715,232.422,0.000
1737553715.975,161.133,-58.594,-37.598,218.750,0.000
1737553715.979,167.480,-52.246,-40.527,139.648,0.000
1737553715.983,180.176,-46.387,-35.156,131.348,0.000
1737553715.986,184.082,-48.828,-35.645,192.871,0.000
1737553715.990,167.480,-52.734,-38.574,248.047,0.000
1737553715.994,158.203,-62.500,-35.645,235.840,0.000
1737553715.998,150.879,-68.359,-32.715,125.488,0.000
1737553716.002,125.488,-62.500,-33.691,98.633,0.000
1737553716.006,135.254,-59.570,-36.621,160.645,0.000
1737553716.010,138.672,-62.988,-33.203,213.867,0.000
1737553716.014,124.023,-64.453,-29.785,205.078,0.000
1737553716.018,126.953,-63.965,-31.250,111.328,0.000
1737553716.022,123.535,-65.430,-31.738,62.500,0.000
1737553716.026,130.859,-58.105,-31.738,116.211,0.000
1737553716.029,127.930,-53.223,-31.250,169.922,0.000
1737553716.033,109.375,-63.965,-29.297,166.504,0.000
1737553716.037,107.910,-72.754,-35.156,66.406,0.000
1737553716.041,107.422,-67.383,-38.574,1.465,0.000
1737553716.045,92.285,-64.941,-33.691,71.289,0.000
1737553716.049,80.566,-65.918,-35.156,135.254,0.000
1737553716.053,83.984,-58.105,-33.691,136.230,0.000
1737553716.057,65.430,-59.082,-33.691,62.988,0.000
1737553716.061,57.617,-57.617,-32.715,-8.789,0.000
1737553716.065,63.965,-56.152,-28.320,33.691,0.000
1737553716.068,74.707,-55.664,-25.879,110.352,0.000
1737553716.072,75.684,-49.316,-26.855,155.273,0.000
1737553716.076,72.754,-47.852,-29.785,89.844,0.000
1737553716.080,56.152,-48.340,-29.297,-11.719,0.000
1737553716.084,40.527,-48.340,-26.367,18.066,0.000
1737553716.088,33.691,-48.828,-25.391,103.027,0.000
1737553716.092,46.875,-46.387,-24.902,159.180,0.000
1737553716.096,45.410,-47.363,-29.785,109.375,0.000
1737553716.100,21.973,-55.176,-32.715,2.930,0.000
1737553716.104,32.227,-50.781,-31.738,21.484,0.000
1737553716.108,45.410,-42.480,-27.832,121.582,0.000
1737553716.111,41.504,-47.363,-27.344,162.109,0.000
1737553716.115,38.086,-55.176,-28.809,95.703,0.000
1737553716.119,44.922,-54.688,-30.762,15.137,0.000
1737553716.123,32.715,-47.852,-33.691,20.508,0.000
1737553716.127,16.602,-47.363,-30.762,98.145,0.000
1737553716.131,19.531,-51.270,-29.785,144.531,0.000
1737553716.135,16.113,-49.316,-30.273,95.703,0.000
1737553716.139,11.230,-43.457,-34.668,-6.348,0.000
1737553716.143,11.719,-41.992,-36.621,-20.508,0.000
1737553716.147,18.066,-47.363,-34.668,51.270,0.000
1737553716.150,15.137,-60.547,-34.668,109.375,0.000
1737553716.154,3.418,-53.711,-35.156,94.727,0.000
1737553716.158,15.625,-36.133,-36.133,-9.766,0.000
1737553716.162,22.461,-37.598,-38.574,-23.926,0.000
1737553716.166,15.137,-42.480,-36.133,52.246,0.000
1737553716.170,5.859,-43.457,-31.250,94.238,0.000
1737553716.174,-9.277,-40.527,-30.762,84.961,0.000
1737553716.178,3.418,-41.016,-31.738,0.977,0.000
1737553716.182,3.906,-44.922,-30.273,-35.156,0.000
1737553716.186,8.789,-37.598,-26.367,29.785,0.000
1737553716.190,22.461,-29.785,-21.973,100.586,0.000
1737553716.193,18.555,-34.180,-23.926,104.004,0.000
1737553716.197,9.277,-42.480,-26.367,2.441,0.000
1737553716.201,1.953,-42.480,-26.855,-57.129,0.000
1737553716.205,11.230,-39.551,-27.344,-1.953,0.000
1737553716.209,17.578,-36.621,-30.273,78.613,0.000
1737553716.213,6.836,-36.133,-32.715,113.770,0.000
1737553716.217,-8.789,-47.363,-34.668,10.254,0.000
1737553716.221,-20.996,-53.223,-29.785,-74.219,0.000
1737553716.225,-15.137,-51.758,-27.344,-23.926,0.000
1737553716.229,-3.906,-56.641,-30.762,27.832,0.000
1737553716.233,-1.953,-56.152,-31.738,62.012,0.000
1737553716.236,-7.812,-49.316,-34.180,4.395,0.000
1737553716.240,-8.789,-43.945,-33.691,-72.754,0.000
1737553716.244,-13.184,-42.969,-33.203,-33.203,0.000
1737553716.248,6.836,-44.434,-34.668,31.738,0.000
1737553716.252,20.020,-42.480,-35.156,68.359,0.000
1737553716.256,-9.277,-38.086,-32.227,9.277,0.000
1737553716.260,-25.879,-40.039,-30.762,-79.102,0.000
1737553716.264,-23.438,-43.945,-32.715,-47.852,0.000
1737553716.268,-28.809,-48.340,-38.574,11.230,0.000
1737553716.272,-30.273,-52.734,-36.621,34.668,0.000
1737553716.275,-19.043,-63.477,-31.738,-11.719,0.000
1737553716.279,-33.691,-55.176,-35.645,-105.469,0.000
1737553716.283,-32.227,-46.875,-33.203,-114.258,0.000
1737553716.287,-12.695,-50.293,-32.715,-28.809,0.000
1737553716.291,0.488,-43.945,-34.180,56.152,0.000
1737553716.295,-2.930,-40.039,-27.344,26.855,0.000
1737553716.299,-20.508,-42.969,-30.762,-68.359,0.000
1737553716.303,-22.949,-41.992,-31.250,-70.801,0.000
1737553716.307,-11.719,-36.133,-29.297,-5.371,0.000
1737553716.311,1.953,-40.039,-29.785,49.316,0.000
1737553716.315,-5.371,-51.270,-30.762,28.320,0.000
1737553716.318,-24.414,-53.223,-32.227,-59.570,0.000
1737553716.322,-25.879,-44.922,-29.785,-66.406,0.000
1737553716.326,-15.625,-46.387,-32.715,-0.488,0.000
1737553716.330,-6.836,-48.828,-29.785,60.059,0.000
1737553716.334,-0.977,-44.922,-27.832,48.828,0.000
1737553716.338,-11.719,-46.875,-32.715,-50.781,0.000
1737553716.342,-31.738,-49.805,-32.715,-94.727,0.000
1737553716.346,-17.090,-46.387,-27.832,-32.715,0.000
1737553716.350,0.000,-44.434,-24.414,39.551,0.000
1737553716.354,-1.953,-49.316,-28.320,51.758,0.000
1737553716.358,-24.414,-50.781,-32.227,-34.180,0.000
1737553716.361,-46.387,-53.711,-31.738,-98.633,0.000
1737553716.365,-38.574,-54.688,-33.691,-40.039,0.000
1737553716.369,-15.137,-50.781,-34.668,40.527,0.000
1737553716.373,-9.766,-46.875,-31.738,47.363,0.000
1737553716.377,-30.273,-43.457,-33.203,-42.969,0.000
1737553716.381,-24.414,-43.945,-38.086,-114.258,0.000
1737553716.385,-14.160,-45.898,-36.133,-61.523,0.000
1737553716.389,-20.508,-46.387,-31.738,19.531,0.000
1737553716.393,-8.789,-49.805,-30.273,63.965,0.000
1737553716.397,-18.555,-53.711,-28.809,-3.418,0.000
1737553716.400,-37.109,-44.922,-26.367,-94.238,0.000
1737553716.404,-24.414,-34.668,-25.879,-55.176,0.000
1737553716.408,-19.043,-34.180,-22.949,28.809,0.000
1737553716.412,-11.719,-35.156,-20.020,78.125,0.000
1737553716.416,-17.090,-36.133,-20.996,1.465,0.000
1737553716.420,-24.902,-34.668,-26.855,-95.215,0.000
1737553716.424,-21.973,-38.086,-25.879,-55.664,0.000
1737553716.428,-2.441,-40.527,-20.020,23.926,0.000
1737553716.432,2.930,-41.504,-23.926,46.875,0.000
1737553716.436,-22.949,-46.875,-30.273,-20.020,0.000
1737553716.440,-27.344,-49.805,-33.691,-98.145,0.000
1737553716.443,-18.066,-49.805,-33.691,-66.406,0.000
1737553716.447,-14.648,-40.039,-31.250,15.137,0.000
1737553716.451,-1.953,-38.574,-25.391,64.453,0.000
1737553716.455,9.766,-55.664,-26.855,20.508,0.000
1737553716.459,13.672,-53.711,-35.645,-76.172,0.000
1737553716.463,4.883,-35.645,-28.809,-70.312,0.000
1737553716.467,-1.465,-32.227,-15.625,0.488,0.000
1737553716.471,-7.812,-35.645,-19.043,56.641,0.000
1737553716.475,-7.812,-38.574,-25.879,45.410,0.000
1737553716.479,0.977,-37.109,-22.461,-50.293,0.000
1737553716.483,-7.812,-39.551,-19.043,-76.172,0.000
1737553716.486,-8.789,-45.898,-24.902,12.695,0.000
1737553716.490,-11.719,-43.457,-26.855,76.660,0.000
1737553716.494,-12.695,-40.527,-24.902,54.688,0.000
1737553716.498,11.230,-38.086,-24.902,-25.879,0.000
1737553716.502,0.977,-42.969,-24.902,-47.852,0.000
1737553716.506,-27.344,-53.223,-21.484,20.508,0.000
1737553716.510,-26.367,-53.711,-22.461,81.055,0.000
1737553716.514,-7.324,-42.969,-22.461,69.336,0.000
1737553716.518,-5.859,-36.133,-24.902,-14.648,0.000
1737553716.522,-22.949,-42.969,-29.297,-64.453,0.000
1737553716.525,-20.020,-44.922,-22.949,1.465,0.000
1737553716.529,-16.113,-41.504,-17.090,84.473,0.000
1737553716.533,-5.859,-43.457,-19.043,99.121,0.000
1737553716.537,-6.348,-42.969,-31.738,7.812,0.000
1737553716.541,4.883,-34.180,-31.250,-38.086,0.000
1737553716.545,21.484,-37.109,-27.344,21.973,0.000
1737553716.549,2.441,-46.387,-28.809,81.543,0.000
1737553716.553,-18.066,-47.852,-25.879,114.746,0.000
1737553716.557,-34.180,-47.363,-25.391,20.508,0.000
1737553716.561,-44.922,-46.387,-23.438,-54.199,0.000
1737553716.565,-35.645,-47.363,-23.438,-2.441,0.000
1737553716.568,-26.367,-46.387,-26.855,61.523,0.000
1737553716.572,-19.043,-42.969,-27.832,92.773,0.000
1737553716.576,-9.766,-41.504,-27.832,38.086,0.000
1737553716.580,-13.672,-43.945,-29.297,-43.945,0.000
1737553716.584,-16.113,-44.922,-29.297,-11.719,0.000
1737553716.588,-13.184,-40.039,-26.367,74.219,0.000
1737553716.592,-5.371,-38.574,-27.344,102.539,0.000
1737553716.596,-35.156,-52.246,-27.344,32.715,0.000
1737553716.600,-52.734,-57.617,-26.367,-54.688,0.000
1737553716.604,-30.273,-41.992,-22.949,-33.691,0.000
1737553716.608,-22.461,-34.668,-23.438,47.363,0.000
1737553716.611,-11.230,-42.969,-29.297,106.445,0.000
1737553716.615,-11.230,-47.852,-31.250,57.617,0.000
1737553716.619,-19.531,-43.457,-30.762,-57.129,0.000
1737553716.623,-29.297,-48.340,-26.367,-56.152,0.000
1737553716.627,-20.996,-62.012,-19.531,26.855,0.000
1737553716.631,-2.441,-51.270,-24.902,74.219,0.000
1737553716.635,-17.090,-33.203,-35.645,61.035,0.000
1737553716.639,-41.504,-38.574,-29.297,-48.340,0.000
1737553716.643,-20.020,-41.504,-17.090,-80.078,0.000
1737553716.647,-8.301,-40.527,-20.508,5.859,0.000
1737553716.650,-12.695,-43.457,-24.414,67.383,0.000
1737553716.654,-5.371,-38.574,-25.879,31.738,0.000
1737553716.658,-5.371,-39.551,-30.273,-83.984,0.000
1737553716.662,-20.020,-46.875,-25.391,-110.352,0.000
1737553716.666,-25.879,-41.504,-24.902,-9.766,0.000
1737553716.670,-2.930,-39.062,-30.273,57.129,0.000
1737553716.674,-20.996,-48.828,-32.227,35.156,0.000
1737553716.678,-27.344,-52.734,-33.691,-53.711,0.000
1737553716.682,-21.973,-48.828,-34.180,-99.609,0.000
1737553716.686,-25.391,-41.016,-30.273,-32.227,0.000
1737553716.690,-26.855,-47.852,-34.180,19.531,0.000
1737553716.693,-21.484,-39.062,-30.273,21.484,0.000
1737553716.697,-9.277,-28.809,-12.695,-37.598,0.000
1737553716.701,-3.906,-38.574,-12.695,-89.355,0.000
1737553716.705,-38.086,-37.598,-16.602,-46.387,0.000
1737553716.709,-77.637,-34.668,-30.273,-18.555,0.000
1737553716.713,-101.074,-4.883,-12.695,-61.523,0.000
1737553716.717,-125.977,-6.348,-8.789,-168.457,0.000
1737553716.721,-164.551,-47.852,-41.016,-285.645,0.000
1737553716.725,-191.895,-27.344,-29.785,-272.461,0.000
1737553716.729,-287.109,-41.016,-46.387,-308.105,0.000
1737553716.733,-354.004,-61.523,-35.645,-369.629,0.000
1737553716.736,-374.512,-18.555,-43.945,-478.027,0.000
1737553716.740,-555.176,-104.004,-134.766,-750.977,0.000
1737553716.744,-699.707,-181.641,-160.156,-870.605,0.000
1737553716.748,-439.453,-39.062,-25.391,-514.160,0.000
1737553716.752,-202.148,40.039,58.594,-212.402,0.000
1737553716.756,-203.125,87.891,46.875,-251.465,0.000
1737553716.760,-306.152,114.746,52.246,-405.273,0.000
1737553716.764,-403.809,75.684,14.648,-428.711,0.000
1737553716.768,-224.609,166.504,63.477,-142.090,0.000
1737553716.772,-311.523,206.055,62.500,-171.387,0.000
1737553716.775,-492.676,201.660,14.648,-364.746,0.000
1737553716.779,-308.105,273.926,63.477,-348.633,0.000
1737553716.783,-214.355,294.434,70.801,-280.273,0.000
1737553716.787,-311.523,239.746,9.277,-247.070,0.000
1737553716.791,-250.488,227.539,42.969,-162.598,0.000
1737553716.795,-167.480,243.652,86.914,-73.730,0.000
1737553716.799,-205.078,155.762,46.875,-242.188,0.000
1737553716.803,-301.758,74.219,-22.461,-364.258,0.000
1737553716.807,-330.566,49.316,-50.293,-308.105,0.000
1737553716.811,-322.266,8.789,-35.645,-297.363,0.000
1737553716.815,-349.609,-26.855,-30.762,-353.027,0.000
1737553716.818,-346.191,-55.664,-38.086,-459.473,0.000
1737553716.822,-314.453,-78.613,-40.039,-494.629,0.000
1737553716.826,-355.957,-116.211,-48.828,-459.961,0.000
1737553716.830,-387.695,-134.277,-59.570,-437.500,0.000
1737553716.834,-375.488,-132.324,-63.477,-425.293,0.000
1737553716.838,-351.562,-174.316,-60.059,-510.254,0.000
1737553716.842,-338.379,-204.590,-64.941,-583.008,0.000
1737553716.846,-303.223,-177.734,-75.195,-471.191,0.000
1737553716.850,-240.723,-169.922,-88.867,-399.902,0.000
1737553716.854,-269.531,-195.312,-109.863,-422.363,0.000
1737553716.857,-277.344,-212.891,-126.465,-455.566,0.000
1737553716.861,-223.145,-230.957,-131.836,-482.422,0.000
1737553716.865,-186.035,-227.051,-118.164,-388.672,0.000
1737553716.869,-137.695,-159.668,-97.168,-245.605,0.000
1737553716.873,-95.215,-106.445,-82.031,-183.594,0.000
1737553716.877,-68.359,-54.688,-65.918,-231.445,0.000
1737553716.881,-40.039,27.832,-47.363,-274.902,0.000
1737553716.885,-0.488,97.168,-25.391,-180.176,0.000
1737553716.889,60.059,135.254,-4.883,-41.992,0.000
1737553716.893,96.680,158.691,15.137,42.480,0.000
1737553716.897,122.559,171.387,37.109,30.762,0.000
1737553716.900,160.156,173.340,54.199,-12.207,0.000
1737553716.904,176.270,159.180,64.453,54.199,0.000
1737553716.908,201.172,146.973,65.430,147.949,0.000
1737553716.912,233.887,141.113,58.594,183.594,0.000
1737553716.916,244.629,133.301,43.457,121.582,0.000
1737553716.920,235.352,114.746,33.203,17.578,0.000
1737553716.924,231.445,90.332,36.133,27.344,0.000
1737553716.928,257.812,76.660,33.691,108.398,0.000
1737553716.932,274.902,66.406,28.320,176.758,0.000
1737553716.936,268.555,53.223,24.902,147.461,0.000
1737553716.940,266.602,34.180,20.020,58.105,0.000
1737553716.943,262.695,17.090,19.043,78.125,0.000
1737553716.947,250.977,10.742,16.113,162.109,0.000
1737553716.951,242.676,1.465,15.137,231.934,0.000
1737553716.955,227.051,-8.301,12.207,179.688,0.000
1737553716.959,192.383,-15.625,4.883,42.480,0.000
1737553716.963,150.879,-23.926,-8.789,0.488,0.000
1737553716.967,112.305,-35.645,-1.953,24.414,0.000
1737553716.971,68.848,-32.227,-5.859,8.789,0.000
1737553716.975,9.277,-32.715,-11.230,-93.262,0.000
1737553716.979,-20.508,-53.223,0.977,-232.910,0.000
1737553716.982,-81.543,-59.082,-2.441,-290.527,0.000
1737553716.986,-122.070,-59.570,3.906,-241.211,0.000
1737553716.990,-119.141,-58.594,6.348,-192.383,0.000
1737553716.994,-145.508,-61.523,8.301,-219.727,0.000
1737553716.998,-147.949,-61.523,3.418,-284.668,0.000
1737553717.002,-140.625,-41.992,-4.883,-312.988,0.000
1737553717.006,-165.527,-36.621,-2.441,-254.883,0.000
1737553717.010,-141.602,-40.039,-1.953,-139.160,0.000
1737553717.014,-135.254,-39.062,-12.695,-122.070,0.000
1737553717.018,-136.719,-49.316,-14.160,-197.266,0.000
1737553717.022,-126.953,-59.570,-8.301,-199.219,0.000
1737553717.025,-102.051,-77.637,-6.348,-89.844,0.000
1737553717.029,-91.797,-57.617,-0.488,4.883,0.000
1737553717.033,-108.398,-21.484,-0.488,31.250,0.000
1737553717.037,-99.609,-31.250,-7.324,-38.086,0.000
1737553717.041,-73.730,-32.715,-16.113,-83.496,0.000
1737553717.045,-42.969,-28.320,-14.160,-0.977,0.000
1737553717.049,-29.297,-46.875,-6.348,89.844,0.000
1737553717.053,-15.137,-60.059,-7.812,112.305,0.000
1737553717.057,-3.906,-48.828,-9.766,49.316,0.000
1737553717.061,9.766,-45.898,-8.789,-1.953,0.000
1737553717.065,20.508,-47.363,-11.230,28.809,0.000
1737553717.068,23.926,-45.898,-17.090,118.652,0.000
1737553717.072,71.777,-52.246,-12.695,160.645,0.000
1737553717.076,99.609,-60.547,-8.301,104.980,0.000
1737553717.080,93.750,-59.082,-12.207,50.781,0.000
1737553717.084,104.980,-60.059,-15.625,100.098,0.000
1737553717.088,133.789,-64.941,-19.043,201.660,0.000
1737553717.092,158.691,-70.801,-20.508,277.832,0.000
1737553717.096,144.043,-71.289,-24.414,215.332,0.000
1737553717.100,142.578,-63.965,-24.902,114.746,0.000
1737553717.104,161.621,-57.617,-20.020,154.297,0.000
1737553717.107,182.129,-59.082,-20.508,239.746,0.000
1737553717.111,193.359,-64.453,-24.902,281.250,0.000
1737553717.115,188.965,-68.359,-29.785,230.957,0.000
1737553717.119,181.152,-77.148,-33.203,135.742,0.000
1737553717.123,185.547,-66.895,-30.762,159.668,0.000
1737553717.127,205.078,-59.570,-26.367,244.629,0.000
1737553717.131,214.355,-66.406,-30.273,289.062,0.000
1737553717.135,191.406,-61.035,-31.250,260.742,0.000
1737553717.139,170.410,-62.012,-25.391,155.273,0.000
1737553717.143,168.945,-67.871,-25.879,145.996,0.000
1737553717.147,162.109,-66.406,-28.809,216.797,0.000
1737553717.150,158.691,-64.453,-31.738,266.602,0.000
1737553717.154,163.574,-66.895,-33.203,245.117,0.000
1737553717.158,139.160,-70.312,-34.180,135.254,0.000
1737553717.162,131.348,-72.754,-30.762,119.141,0.000
1737553717.166,147.461,-73.730,-31.250,188.965,0.000
1737553717.170,145.508,-66.895,-33.691,232.910,0.000
1737553717.174,141.602,-56.152,-33.203,223.633,0.000
1737553717.178,110.352,-61.035,-25.879,122.559,0.000
1737553717.182,110.840,-65.918,-26.367,72.754,0.000
1737553717.186,115.234,-63.477,-33.691,117.188,0.000
1737553717.190,83.008,-66.895,-31.738,151.855,0.000
1737553717.193,44.922,-58.594,-20.508,127.930,0.000
1737553717.197,37.598,-43.457,-17.090,30.762,0.000
1737553717.201,48.340,-41.504,-28.809,-48.828,0.000
1737553717.205,-0.488,-53.223,-32.227,-38.086,0.000
1737553717.209,-53.223,-54.199,-25.879,-19.043,0.000
1737553717.213,-79.590,-28.809,-26.855,-53.223,0.000
1737553717.217,-142.090,-41.992,-21.973,-203.125,0.000
1737553717.221,-206.543,-65.918,-9.277,-353.516,0.000
1737553717.225,-241.211,-54.199,-13.672,-354.492,0.000
1737553717.229,-258.789,-54.199,-18.555,-299.316,0.000
1737553717.232,-279.297,-54.688,-14.648,-249.023,0.000
1737553717.236,-288.086,-53.711,-3.906,-290.527,0.000
1737553717.240,-280.273,-56.641,-6.348,-370.117,0.000
1737553717.244,-283.203,-45.898,-12.207,-326.660,0.000
1737553717.248,-299.805,-41.016,-8.789,-256.348,0.000
1737553717.252,-282.227,-52.246,-6.348,-211.914,0.000
1737553717.256,-257.324,-54.199,-6.836,-236.816,0.000
1737553717.260,-245.117,-51.758,-6.348,-299.805,0.000
1737553717.264,-229.004,-51.270,-3.906,-253.906,0.000
1737553717.268,-231.934,-48.828,-7.324,-166.016,0.000
1737553717.272,-195.801,-51.758,-8.789,-81.055,0.000
1737553717.275,-173.340,-46.875,-12.695,-90.332,0.000
1737553717.279,-170.410,-42.969,-16.113,-178.223,0.000
1737553717.283,-151.367,-45.410,-17.090,-189.453,0.000
1737553717.287,-119.629,-54.199,-19.531,-104.492,0.000
1737553717.291,-76.660,-59.082,-12.695,-0.977,0.000
1737553717.295,-72.754,-50.293,-13.184,-9.277,0.000
1737553717.299,-68.359,-48.340,-18.555,-110.840,0.000
1737553717.303,-26.855,-45.410,-17.578,-92.285,0.000
1737553717.307,0.488,-37.109,-15.625,12.695,0.000
1737553717.311,18.555,-39.551,-17.090,77.637,0.000
1737553717.315,31.250,-47.363,-20.508,79.102,0.000
1737553717.318,37.598,-53.223,-24.414,0.488,0.000
1737553717.322,34.668,-46.387,-27.832,-25.879,0.000
1737553717.326,53.711,-40.527,-26.367,69.336,0.000
1737553717.330,90.332,-40.039,-27.344,167.969,0.000
1737553717.334,108.398,-43.457,-33.203,165.039,0.000
1737553717.338,102.051,-47.852,-37.598,73.730,0.000
1737553717.342,94.238,-42.480,-27.832,58.105,0.000
1737553717.346,113.281,-41.992,-23.438,136.230,0.000
1737553717.350,122.070,-41.016,-32.715,225.586,0.000
1737553717.354,131.836,-37.109,-33.203,238.770,0.000
1737553717.357,112.793,-44.434,-30.273,144.043,0.000
1737553717.361,104.004,-51.758,-37.109,100.586,0.000
1737553717.365,119.141,-49.805,-36.133,164.551,0.000
1737553717.369,120.117,-47.363,-34.668,216.797,0.000
1737553717.373,119.629,-49.805,-30.273,222.168,0.000
1737553717.377,131.836,-55.664,-31.250,145.508,0.000
1737553717.381,102.051,-59.570,-29.785,77.637,0.000
1737553717.385,89.355,-52.734,-22.949,122.070,0.000
1737553717.389,111.816,-48.828,-26.367,191.895,0.000
1737553717.393,83.984,-54.199,-21.973,218.262,0.000
1737553717.397,88.867,-56.152,-21.973,126.953,0.000
1737553717.400,93.750,-60.059,-29.785,39.551,0.000
1737553717.404,104.980,-65.430,-29.785,81.543,0.000
1737553717.408,121.582,-53.711,-24.902,146.973,0.000
1737553717.412,114.746,-40.527,-21.973,185.547,0.000
1737553717.416,97.656,-44.922,-26.367,131.836,0.000
1737553717.420,97.168,-50.293,-28.320,20.996,0.000
1737553717.424,77.148,-51.758,-29.785,42.480,0.000
1737553717.428,62.012,-48.828,-25.879,125.000,0.000
1737553717.432,83.496,-41.016,-20.508,173.828,0.000
1737553717.436,82.031,-52.734,-24.902,111.816,0.000
1737553717.440,70.801,-59.082,-31.738,6.348,0.000
1737553717.443,58.105,-46.387,-27.344,34.668,0.000
1737553717.447,69.824,-39.551,-22.949,103.027,0.000
1737553717.451,87.402,-40.039,-25.879,136.719,0.000
1737553717.455,71.777,-43.945,-27.832,96.191,0.000
1737553717.459,66.895,-43.457,-21.484,7.812,0.000
1737553717.463,43.457,-42.480,-18.066,7.324,0.000
1737553717.467,17.090,-39.062,-24.902,87.891,0.000
1737553717.471,17.090,-40.527,-23.438,116.211,0.000
1737553717.475,42.480,-47.852,-23.438,42.480,0.000
1737553717.479,51.758,-45.410,-26.855,-15.137,0.000
1737553717.482,28.809,-43.945,-26.367,-7.812,0.000
1737553717.486,43.457,-45.410,-20.508,28.809,0.000
1737553717.490,45.410,-46.387,-19.043,89.844,0.000
1737553717.494,28.809,-46.387,-20.996,73.730,0.000
1737553717.498,14.648,-45.410,-18.555,-47.852,0.000
1737553717.502,20.508,-42.480,-12.695,-74.707,0.000
1737553717.506,24.414,-42.480,-16.113,6.348,0.000
1737553717.510,20.508,-40.527,-21.973,63.965,0.000
1737553717.514,33.203,-36.621,-15.625,61.035,0.000
1737553717.518,30.762,-39.062,-15.625,-21.484,0.000
1737553717.522,4.883,-44.434,-18.066,-89.355,0.000
1737553717.525,2.930,-41.016,-15.625,-32.227,0.000
1737553717.529,39.551,-37.109,-16.113,40.527,0.000
1737553717.533,58.105,-43.945,-17.578,28.809,0.000
1737553717.537,44.434,-53.223,-22.949,-69.824,0.000
1737553717.541,16.602,-51.270,-24.414,-122.559,0.000
1737553717.545,-4.395,-49.316,-18.066,-43.945,0.000
1737553717.549,-28.320,-50.781,-12.695,35.156,0.000
1737553717.553,-37.109,-52.246,-16.602,44.434,0.000
1737553717.557,33.691,-45.410,-17.578,-34.668,0.000
1737553717.561,23.926,-39.551,-16.602,-104.004,0.000
1737553717.565,-9.277,-41.504,-13.184,-51.270,0.000
1737553717.568,9.766,-41.016,-11.230,18.066,0.000
1737553717.572,23.926,-44.922,-18.066,32.227,0.000
1737553717.576,23.926,-41.992,-21.973,-31.250,0.000
1737553717.580,4.883,-36.621,-22.461,-110.352,0.000
1737553717.584,13.672,-35.645,-21.973,-77.148,0.000
1737553717.588,15.137,-36.133,-18.555,-1.465,0.000
1737553717.592,6.348,-34.180,-14.648,35.156,0.000
1737553717.596,13.672,-35.645,-16.602,-12.207,0.000
1737553717.600,-6.348,-41.504,-18.555,-108.887,0.000
1737553717.604,-7.812,-42.969,-17.578,-104.004,0.000
1737553717.607,-10.742,-43.457,-12.695,-32.227,0.000
1737553717.611,-18.066,-40.527,-8.301,33.691,0.000
1737553717.615,-1.465,-36.133,-16.113,14.160,0.000
1737553717.619,0.488,-36.133,-21.973,-102.051,0.000
1737553717.623,6.836,-35.645,-15.137,-108.887,0.000
1737553717.627,9.277,-41.016,-13.672,-33.691,0.000
1737553717.631,-0.488,-41.016,-13.184,28.809,0.000
1737553717.635,-10.742,-38.574,-9.277,5.371,0.000
1737553717.639,-8.301,-39.062,-10.254,-73.242,0.000
1737553717.643,-11.719,-39.551,-12.207,-68.848,0.000
1737553717.647,-11.230,-43.457,-13.184,0.488,0.000
1737553717.650,11.230,-38.574,-17.090,57.129,0.000
1737553717.654,-0.488,-36.621,-20.020,31.738,0.000
1737553717.658,-16.602,-44.922,-22.461,-59.082,0.000
1737553717.662,-18.066,-47.852,-26.855,-85.449,0.000
1737553717.666,-20.508,-37.598,-19.531,-5.859,0.000
1737553717.670,-25.879,-38.574,-18.066,62.500,0.000
1737553717.674,-5.371,-41.504,-26.367,47.363,0.000
1737553717.678,-0.488,-36.133,-28.320,-43.457,0.000
1737553717.682,-23.926,-37.598,-22.949,-86.914,0.000
1737553717.686,-5.859,-37.598,-18.555,-17.090,0.000
1737553717.689,1.465,-41.016,-22.461,55.176,0.000
1737553717.693,-1.953,-47.852,-23.926,37.109,0.000
1737553717.697,-2.930,-40.527,-19.043,-38.086,0.000
1737553717.701,-31.738,-46.387,-15.625,-85.938,0.000
1737553717.705,-33.691,-50.293,-15.137,-44.434,0.000
1737553717.709,-23.438,-39.551,-14.648,31.250,0.000
1737553717.713,-18.555,-35.645,-18.555,61.035,0.000
1737553717.717,-13.672,-38.574,-20.508,-25.391,0.000
1737553717.721,-26.367,-39.551,-12.207,-104.980,0.000
1737553717.725,-29.785,-40.527,-11.719,-40.527,0.000
1737553717.729,-13.672,-41.992,-15.137,41.016,0.000
1737553717.732,-10.742,-38.086,-9.766,62.988,0.000
1737553717.736,-22.949,-38.574,-10.742,5.371,0.000
1737553717.740,-12.695,-41.504,-18.555,-89.844,0.000
1737553717.744,-14.648,-40.039,-21.484,-67.383,0.000
1737553717.748,-30.273,-37.109,-19.531,17.090,0.000
1737553717.752,-4.395,-34.668,-17.578,69.336,0.000
1737553717.756,-5.859,-30.762,-15.137,18.555,0.000
1737553717.760,-24.902,-37.598,-13.672,-82.520,0.000
1737553717.764,-22.461,-41.016,-17.090,-58.594,0.000
1737553717.768,-28.809,-35.156,-18.555,9.277,0.000
1737553717.772,-32.227,-34.180,-17.090,52.734,0.000
1737553717.775,-37.598,-34.180,-11.719,28.320,0.000
1737553717.779,-25.391,-34.668,-12.695,-68.359,0.000
1737553717.783,-18.066,-40.039,-18.555,-70.312,0.000
1737553717.787,-17.578,-41.016,-16.602,12.207,0.000
1737553717.791,-15.625,-35.645,-17.578,62.988,0.000
1737553717.795,-3.906,-33.691,-21.973,25.391,0.000
1737553717.799,-9.766,-35.156,-20.020,-68.359,0.000
1737553717.803,-49.316,-31.250,-14.160,-57.617,0.000
1737553717.807,-21.484,-24.414,-11.719,23.438,0.000
1737553717.811,14.160,-26.855,-11.230,73.730,0.000
1737553717.814,-11.230,-34.668,-14.160,37.598,0.000
1737553717.818,-38.086,-39.551,-20.020,-81.543,0.000
1737553717.822,-42.480,-44.922,-22.949,-118.164,0.000
1737553717.826,-12.695,-41.016,-22.949,-51.270,0.000
1737553717.830,-33.203,-32.227,-21.484,21.484,0.000
1737553717.834,-55.664,-38.574,-22.461,20.508,0.000
1737553717.838,-36.133,-45.410,-26.367,-87.402,0.000
1737553717.842,-23.926,-41.504,-24.414,-113.770,0.000
1737553717.846,-27.344,-37.598,-18.555,-24.414,0.000
1737553717.850,-9.766,-35.156,-18.555,27.832,0.000
1737553717.854,20.996,-28.809,-17.578,44.922,0.000
1737553717.857,-2.441,-29.785,-19.043,-38.086,0.000
1737553717.861,-36.133,-34.668,-19.043,-104.004,0.000
1737553717.865,-54.199,-38.574,-16.602,-38.574,0.000
1737553717.869,-25.879,-37.598,-17.090,41.992,0.000
1737553717.873,6.836,-34.668,-16.113,61.523,0.000
1737553717.877,-8.301,-43.457,-21.484,-37.598,0.000
1737553717.881,-17.578,-45.410,-26.367,-106.445,0.000
1737553717.885,-2.441,-41.504,-27.832,-59.082,0.000
1737553717.889,1.465,-39.062,-25.391,2.441,0.000
1737553717.893,-16.113,-38.086,-22.461,20.508,0.000
1737553717.897,-47.852,-43.457,-20.996,-54.199,0.000
1737553717.900,-41.504,-43.945,-21.973,-114.746,0.000
1737553717.904,-31.738,-45.410,-23.926,-75.684,0.000
1737553717.908,-9.766,-46.875,-22.461,-20.508,0.000
1737553717.912,7.324,-39.062,-20.996,16.602,0.000
1737553717.916,-6.348,-40.039,-18.066,-45.898,0.000
1737553717.920,-12.207,-38.086,-19.531,-127.441,0.000
1737553717.924,-26.855,-33.203,-25.879,-108.887,0.000
1737553717.928,-9.766,-30.762,-26.855,-14.160,0.000
1737553717.932,-18.555,-26.855,-20.996,31.250,0.000
1737553717.936,-34.180,-30.762,-20.508,-47.852,0.000
1737553717.939,-41.992,-27.344,-22.461,-135.742,0.000
1737553717.943,-62.012,-29.785,-23.438,-126.465,0.000
1737553717.947,-60.059,-31.738,-21.973,-61.035,0.000
1737553717.951,-75.195,-16.113,-20.508,-27.832,0.000
1737553717.955,-100.586,-11.719,-23.438,-114.746,0.000
1737553717.959,-133.789,-23.438,-18.066,-267.090,0.000
1737553717.963,-161.621,-20.020,-19.043,-275.391,0.000
1737553717.967,-159.668,-15.137,-19.531,-209.961,0.000
1737553717.971,-181.152,-26.855,-16.602,-205.566,0.000
1737553717.975,-191.406,-28.320,-16.113,-239.746,0.000
1737553717.979,-247.070,-23.926,-16.602,-379.883,0.000
1737553717.982,-293.457,-28.809,-15.137,-421.875,0.000
1737553717.986,-272.949,-29.785,-11.719,-328.613,0.000
1737553717.990,-277.832,-23.438,-10.742,-319.336,0.000
1737553717.994,-291.992,-20.996,-6.836,-342.285,0.000
1737553717.998,-297.852,-25.879,-8.301,-398.438,0.000
1737553718.002,-280.273,-36.621,-4.883,-416.016,0.000
1737553718.006,-267.090,-35.156,-4.883,-320.801,0.000
1737553718.010,-253.418,-33.691,-6.836,-212.891,0.000
1737553718.014,-235.352,-44.922,-8.789,-190.430,0.000
1737553718.018,-218.262,-40.527,-14.648,-279.297,0.000
1737553718.022,-195.312,-25.391,-12.695,-285.156,0.000
1737553718.025,-186.523,-28.320,-13.672,-165.527,0.000
1737553718.029,-173.340,-37.109,-18.066,-74.219,0.000
1737553718.033,-115.234,-40.039,-17.578,-39.062,0.000
1737553718.037,-80.078,-42.969,-21.973,-125.000,0.000
1737553718.041,-62.500,-40.527,-22.461,-164.551,0.000
1737553718.045,-35.156,-39.551,-20.020,-83.496,0.000
1737553718.049,-22.461,-39.062,-22.461,-24.902,0.000
1737553718.053,-2.930,-38.574,-20.508,17.090,0.000
1737553718.057,7.812,-41.504,-17.578,-40.039,0.000
1737553718.061,12.207,-41.504,-19.043,-104.492,0.000
1737553718.064,22.949,-44.434,-25.879,-51.758,0.000
1737553718.068,24.414,-49.316,-29.785,34.668,0.000
1737553718.072,20.996,-45.898,-25.879,94.727,0.000
1737553718.076,31.738,-41.992,-27.832,57.129,0.000
1737553718.080,33.691,-42.480,-32.227,1.465,0.000
1737553718.084,38.086,-41.504,-28.809,52.734,0.000
1737553718.088,46.387,-34.180,-25.879,149.414,0.000
1737553718.092,63.477,-34.180,-28.809,191.895,0.000
1737553718.096,59.082,-40.039,-31.250,114.258,0.000
1737553718.100,36.133,-43.457,-31.250,27.832,0.000
1737553718.104,66.406,-46.387,-32.715,51.270,0.000
1737553718.107,72.266,-44.922,-29.785,143.555,0.000
1737553718.111,41.992,-42.969,-27.344,204.102,0.000
1737553718.115,38.086,-45.410,-26.367,155.273,0.000
1737553718.119,25.391,-50.781,-25.879,59.570,0.000
1737553718.123,16.602,-51.270,-24.902,54.199,0.000
1737553718.127,35.156,-49.316,-24.414,141.602,0.000
1737553718.131,45.410,-47.363,-26.367,210.449,0.000
1737553718.135,42.969,-44.434,-27.832,144.531,0.000
1737553718.139,3.906,-42.480,-29.785,46.875,0.000
1737553718.143,-0.977,-53.711,-20.020,37.109,0.000
1737553718.147,20.996,-57.129,-22.461,62.500,0.000
1737553718.150,62.012,-53.711,-26.855,125.977,0.000
