timestamps,TP9,AF7,AF8,TP10,Right AUX
1737550640.005,-547.852,-28.320,13.672,-1000.000,0.000
1737550640.009,-485.352,-20.996,21.484,-822.754,0.000
1737550640.013,-368.652,-17.090,23.438,-788.574,0.000
1737550640.017,-308.594,-17.578,26.367,-1000.000,0.000
1737550640.021,-304.199,-9.766,28.320,-974.609,0.000
1737550640.025,-396.484,-1.953,25.391,-1000.000,0.000
1737550640.029,-406.738,-3.906,16.113,-629.883,0.000
1737550640.032,-431.152,-4.395,20.508,-424.316,0.000
1737550640.036,-492.676,-11.230,22.949,-1000.000,0.000
1737550640.040,-431.152,-17.578,23.926,-1000.000,0.000
1737550640.044,-351.074,-10.742,26.367,-980.957,0.000
1737550640.048,-288.574,-11.230,25.391,-1000.000,0.000
1737550640.052,-282.227,-11.719,20.020,-1000.000,0.000
1737550640.056,-270.996,-11.230,14.648,-1000.000,0.000
1737550640.060,-340.332,-16.113,14.160,-1000.000,0.000
1737550640.064,-332.520,-15.625,2.441,-1000.000,0.000
1737550640.068,-228.516,-12.695,2.441,-1000.000,0.000
1737550640.072,-179.199,-11.230,13.672,-1000.000,0.000
1737550640.075,-122.070,-13.672,14.648,-1000.000,0.000
1737550640.079,-101.562,-20.996,6.836,-1000.000,0.000
1737550640.083,-84.473,-20.508,4.883,-1000.000,0.000
1737550640.087,-55.176,-18.555,5.371,-1000.000,0.000
1737550640.091,-30.273,-17.578,-9.766,-1000.000,0.000
1737550640.095,1.953,-15.625,-15.137,-1000.000,0.000
1737550640.099,4.395,-20.020,-17.578,-1000.000,0.000
1737550640.103,-14.160,-32.715,-15.625,-1000.000,0.000
1737550640.107,-6.836,-33.203,-8.301,-1000.000,0.000
1737550640.111,21.973,-18.555,-17.090,-1000.000,0.000
1737550640.114,-37.598,-19.531,-21.484,-1000.000,0.000
1737550640.118,-93.750,-21.973,-20.996,-933.105,0.000
1737550640.122,-136.230,-26.367,-26.855,-1000.000,0.000
1737550640.126,-72.266,-31.738,-27.832,-465.820,0.000
1737550640.130,73.242,-25.391,-25.391,899.902,0.000
1737550640.134,103.516,-21.484,-27.344,999.512,0.000
1737550640.138,124.512,-22.949,-21.484,924.805,0.000
1737550640.142,148.926,-20.020,-25.879,981.934,0.000
1737550640.146,160.156,-18.066,-28.320,970.703,0.000
1737550640.150,125.000,-25.391,-13.184,970.703,0.000
1737550640.154,68.848,-30.762,-12.695,970.703,0.000
1737550640.157,96.191,-28.320,-22.461,970.703,0.000
1737550640.161,97.656,-25.391,-17.090,970.703,0.000
1737550640.165,112.305,-20.996,-12.207,970.703,0.000
1737550640.169,232.422,-12.695,-11.719,970.703,0.000
1737550640.173,333.496,-13.184,-20.508,970.703,0.000
1737550640.177,289.062,-14.648,-33.203,970.703,0.000
1737550640.181,234.863,-12.207,-31.250,970.703,0.000
1737550640.185,285.156,-17.090,-26.367,970.703,0.000
1737550640.189,328.613,-14.648,-26.367,970.703,0.000
1737550640.193,332.520,-14.160,-28.320,970.703,0.000
1737550640.197,263.184,-19.043,-31.738,970.703,0.000
1737550640.200,229.004,-11.719,-26.855,970.703,0.000
1737550640.204,231.445,-2.441,-20.508,970.703,0.000
1737550640.208,210.938,-3.418,-15.625,970.703,0.000
1737550640.212,178.223,-12.207,-11.719,970.703,0.000
1737550640.216,162.598,-7.812,-20.508,970.703,0.000
1737550640.220,26.367,2.930,-22.949,970.703,0.000
1737550640.224,-123.535,0.977,-19.043,970.703,0.000
1737550640.228,-78.613,2.441,-20.996,970.703,0.000
1737550640.232,49.316,8.301,-27.344,970.703,0.000
1737550640.236,137.207,7.324,-26.855,970.703,0.000
1737550640.239,191.895,2.441,-25.879,979.492,0.000
1737550640.243,235.840,10.254,-31.250,927.246,0.000
1737550640.247,290.527,21.973,-18.066,999.512,0.000
1737550640.251,297.363,13.184,-9.277,827.148,0.000
1737550640.255,199.219,6.348,-29.297,-470.215,0.000
1737550640.259,160.645,8.789,-22.949,-1000.000,0.000
1737550640.263,145.020,13.184,-21.484,-945.801,0.000
1737550640.267,172.852,34.668,-70.801,-1000.000,0.000
1737550640.271,229.492,16.602,-44.434,-1000.000,0.000
1737550640.275,149.414,-8.789,17.090,-1000.000,0.000
1737550640.279,107.910,-13.184,-21.484,-936.035,0.000
1737550640.282,173.828,-11.719,-31.250,-1000.000,0.000
1737550640.286,279.785,20.996,-14.160,-525.391,0.000
1737550640.290,336.914,53.223,-73.730,802.246,0.000
1737550640.294,330.078,5.859,-77.637,999.512,0.000
1737550640.298,209.961,-41.504,-6.348,86.426,0.000
1737550640.302,84.961,-15.137,7.812,-1000.000,0.000
1737550640.306,184.570,19.531,-20.508,-867.188,0.000
1737550640.310,330.566,44.434,-46.875,-297.852,0.000
1737550640.314,370.117,43.945,-37.598,-725.098,0.000
1737550640.318,389.648,29.297,-40.527,-1000.000,0.000
1737550640.321,386.719,15.625,-60.059,-968.262,0.000
1737550640.325,358.398,15.137,-64.453,-1000.000,0.000
1737550640.329,376.465,-0.488,-58.105,-1000.000,0.000
1737550640.333,364.746,-33.691,-68.359,-1000.000,0.000
1737550640.337,318.848,-18.555,-70.801,-1000.000,0.000
1737550640.341,289.062,0.977,-64.453,-1000.000,0.000
1737550640.345,281.738,-7.324,-76.172,-1000.000,0.000
1737550640.349,295.898,-20.508,-58.594,-1000.000,0.000
1737550640.353,282.715,-51.758,-76.172,-1000.000,0.000
1737550640.357,190.918,-36.133,-70.801,-1000.000,0.000
1737550640.361,55.664,2.441,-19.043,-1000.000,0.000
1737550640.364,57.617,-0.488,-15.137,-1000.000,0.000
1737550640.368,80.078,-13.672,-26.367,-1000.000,0.000
1737550640.372,28.809,-32.227,-44.922,-1000.000,0.000
1737550640.376,30.762,-41.992,-32.227,-1000.000,0.000
1737550640.380,37.598,-10.742,-72.266,-937.988,0.000
1737550640.384,45.898,-7.324,-95.703,-1000.000,0.000
1737550640.388,130.371,-33.203,-73.242,-293.457,0.000
1737550640.392,239.746,-30.273,-89.355,973.633,0.000
1737550640.396,235.352,-20.508,-59.082,999.512,0.000
1737550640.400,130.371,-25.391,-38.086,189.941,0.000
1737550640.404,94.727,-26.367,-47.852,-133.301,0.000
1737550640.407,194.336,-45.410,-49.316,884.766,0.000
1737550640.411,198.242,-49.805,-33.691,999.512,0.000
1737550640.415,134.766,-18.066,-27.832,928.223,0.000
1737550640.419,59.570,-5.859,-52.246,979.980,0.000
1737550640.423,6.348,-4.395,-33.203,970.703,0.000
1737550640.427,34.180,-13.672,3.418,970.703,0.000
1737550640.431,60.059,-29.785,-14.648,970.703,0.000
1737550640.435,55.176,-39.551,-46.387,970.703,0.000
1737550640.439,-18.555,-41.016,-27.832,970.703,0.000
1737550640.443,-93.750,-12.695,5.859,970.703,0.000
1737550640.446,-22.461,17.090,1.953,970.703,0.000
1737550640.450,36.621,2.930,-3.906,970.703,0.000
1737550640.454,140.137,-21.484,-39.062,970.703,0.000
1737550640.458,169.922,-28.320,-25.879,970.703,0.000
1737550640.462,45.410,-2.930,0.000,970.703,0.000
1737550640.466,36.621,-26.367,-53.711,970.703,0.000
1737550640.470,119.629,-46.387,-47.852,970.703,0.000
1737550640.474,176.270,42.480,14.160,970.703,0.000
1737550640.478,175.293,66.895,17.578,970.703,0.000
1737550640.482,174.805,29.297,-1.953,970.703,0.000
1737550640.486,171.387,10.254,-11.230,970.703,0.000
1737550640.489,163.574,-1.953,-14.160,970.703,0.000
1737550640.493,154.785,-9.277,-33.203,970.703,0.000
1737550640.497,101.074,-20.508,-43.945,970.703,0.000
1737550640.501,25.391,-31.250,-48.828,970.703,0.000
1737550640.505,-14.648,-41.016,-61.035,970.703,0.000
1737550640.509,8.789,-39.551,-46.875,970.703,0.000
1737550640.513,28.320,-28.809,-33.691,970.703,0.000
1737550640.517,1.953,-16.602,-23.926,970.703,0.000
1737550640.521,-59.570,-18.066,-22.949,970.703,0.000
1737550640.525,-91.797,-32.227,-36.133,970.703,0.000
1737550640.529,-36.133,-20.508,-37.598,974.609,0.000
1737550640.532,-62.500,-17.090,-47.852,954.590,0.000
1737550640.536,-173.828,-38.086,-51.758,954.102,0.000
1737550640.540,-260.254,-30.273,-36.133,966.797,0.000
1737550640.544,-330.078,-23.438,-31.250,59.570,0.000
1737550640.548,-276.855,-38.086,-27.832,-947.266,0.000
1737550640.552,-160.645,-37.109,-27.344,-994.141,0.000
1737550640.556,-105.469,-34.668,-44.434,-979.004,0.000
1737550640.560,-102.539,-33.691,-41.992,-1000.000,0.000
1737550640.564,-135.254,-22.949,-30.762,-1000.000,0.000
1737550640.568,-65.918,-23.438,-31.250,-1000.000,0.000
1737550640.571,-33.203,-39.551,-48.828,-1000.000,0.000
1737550640.575,-60.059,-47.852,-44.434,-1000.000,0.000
1737550640.579,-73.242,-40.527,-30.762,-1000.000,0.000
1737550640.583,-77.148,-27.832,-63.477,-1000.000,0.000
1737550640.587,-26.855,-19.043,-61.523,-1000.000,0.000
1737550640.591,40.039,-33.691,-25.879,-1000.000,0.000
1737550640.595,88.867,-42.480,-3.418,-1000.000,0.000
1737550640.599,97.656,-13.672,-15.625,-1000.000,0.000
1737550640.603,69.824,-27.832,-50.293,-1000.000,0.000
1737550640.607,74.219,-39.551,-18.066,-1000.000,0.000
1737550640.611,139.160,11.230,-2.441,-1000.000,0.000
1737550640.614,145.508,20.020,-27.832,-1000.000,0.000
1737550640.618,62.012,-9.277,-4.395,-989.258,0.000
1737550640.622,-3.418,-21.973,15.625,-1000.000,0.000
1737550640.626,2.441,-12.207,8.301,-925.293,0.000
1737550640.630,73.242,-14.160,-7.324,-837.891,0.000
1737550640.634,70.801,-9.766,-28.320,-998.535,0.000
1737550640.638,-18.066,-1.953,-23.438,-1000.000,0.000
1737550640.642,-27.344,-16.113,-10.254,-993.164,0.000
1737550640.646,23.926,-22.461,-20.508,-1000.000,0.000
1737550640.650,79.590,1.953,-38.574,-1000.000,0.000
1737550640.653,99.609,6.348,-27.832,-1000.000,0.000
1737550640.657,71.777,-4.395,-19.531,-1000.000,0.000
1737550640.661,65.430,-5.371,-24.414,-1000.000,0.000
1737550640.665,93.262,-11.230,-22.949,-1000.000,0.000
1737550640.669,130.371,-6.348,-20.996,-1000.000,0.000
1737550640.673,161.621,1.953,-24.414,-1000.000,0.000
1737550640.677,125.000,-0.977,-24.902,-1000.000,0.000
1737550640.681,100.098,-4.883,-27.832,-1000.000,0.000
1737550640.685,95.703,-7.324,-30.273,-1000.000,0.000
1737550640.689,91.797,-13.672,-34.668,-938.965,0.000
1737550640.693,88.867,-12.695,-38.574,-1000.000,0.000
1737550640.696,108.398,-1.465,-30.273,-362.793,0.000
1737550640.700,110.840,0.977,-27.344,941.406,0.000
1737550640.704,57.617,0.977,-34.668,983.887,0.000
1737550640.708,13.184,-7.812,-28.809,932.617,0.000
1737550640.712,-55.176,-14.648,-18.066,980.469,0.000
1737550640.716,-61.523,-15.625,-8.789,970.703,0.000
1737550640.720,-126.465,-20.020,-5.859,970.703,0.000
1737550640.724,-174.805,-15.625,-6.348,979.980,0.000
1737550640.728,-170.898,-6.348,-4.395,909.668,0.000
1737550640.732,-194.336,-14.160,7.324,999.512,0.000
1737550640.735,-217.773,-49.805,4.883,541.016,0.000
1737550640.739,-285.645,-45.410,-9.766,-815.918,0.000
1737550640.743,-265.137,-24.902,15.137,-1000.000,0.000
1737550640.747,-221.191,-32.715,7.324,-950.684,0.000
1737550640.751,-179.688,-28.809,6.348,-1000.000,0.000
1737550640.755,-129.395,-21.973,20.996,-1000.000,0.000
1737550640.759,-144.043,-17.090,4.883,-1000.000,0.000
1737550640.763,-173.340,-20.020,10.254,-1000.000,0.000
1737550640.767,-146.973,-27.344,4.883,-1000.000,0.000
1737550640.771,-71.777,-32.715,-8.789,-1000.000,0.000
1737550640.775,-16.113,-34.668,4.883,-1000.000,0.000
1737550640.778,-26.855,-34.668,17.090,-1000.000,0.000
1737550640.782,-47.852,-44.922,13.184,-1000.000,0.000
1737550640.786,-48.828,-56.152,4.395,-1000.000,0.000
1737550640.790,-41.504,-47.363,-13.184,-1000.000,0.000
1737550640.794,11.230,-37.598,-16.113,-1000.000,0.000
1737550640.798,0.000,-40.039,7.812,-1000.000,0.000
1737550640.802,-20.996,-53.223,10.742,-1000.000,0.000
1737550640.806,85.449,-53.711,-2.441,-1000.000,0.000
1737550640.810,239.258,-22.949,-11.719,-1000.000,0.000
1737550640.814,311.523,-14.648,-12.207,-1000.000,0.000
1737550640.818,333.496,-21.484,-12.695,-1000.000,0.000
1737550640.821,367.188,-15.137,-24.902,-1000.000,0.000
1737550640.825,373.535,-14.648,-27.832,-1000.000,0.000
1737550640.829,339.355,-32.227,-13.184,-1000.000,0.000
1737550640.833,293.945,-40.527,-14.160,-1000.000,0.000
1737550640.837,232.910,-31.738,-25.391,-1000.000,0.000
1737550640.841,166.504,-31.738,-24.414,-1000.000,0.000
1737550640.845,180.664,-34.180,-27.832,-1000.000,0.000
1737550640.849,211.914,-29.785,-29.785,-1000.000,0.000
1737550640.853,229.492,-19.531,-39.551,-1000.000,0.000
1737550640.857,210.938,-11.719,-36.133,-1000.000,0.000
1737550640.861,122.559,-20.020,-18.555,-1000.000,0.000
1737550640.864,111.816,-25.879,-16.602,-1000.000,0.000
1737550640.868,130.371,-12.207,-18.066,-1000.000,0.000
1737550640.872,137.695,1.465,-16.602,-1000.000,0.000
1737550640.876,89.355,-6.836,-20.020,-1000.000,0.000
1737550640.880,66.406,-14.648,-20.508,-981.934,0.000
1737550640.884,115.723,0.977,-10.254,-1000.000,0.000
1737550640.888,125.000,11.230,-6.348,-915.527,0.000
1737550640.892,129.395,9.766,-7.324,-144.043,0.000
1737550640.896,120.605,11.719,-8.789,750.488,0.000
1737550640.900,82.031,6.348,-10.254,977.539,0.000
1737550640.903,24.414,4.883,-18.555,951.172,0.000
1737550640.907,42.480,-12.207,-23.926,970.215,0.000
1737550640.911,5.859,-22.461,-7.812,971.680,0.000
1737550640.915,-65.918,-8.789,-14.648,970.703,0.000
1737550640.919,-15.137,-2.930,-35.156,970.703,0.000
1737550640.923,10.742,-1.953,-12.695,970.703,0.000
1737550640.927,90.820,-8.301,-1.465,970.703,0.000
1737550640.931,166.016,-7.324,-17.578,970.703,0.000
1737550640.935,215.332,2.441,-9.766,970.703,0.000
1737550640.939,239.746,-2.930,-21.973,970.703,0.000
1737550640.943,195.801,-15.625,-32.227,972.168,0.000
1737550640.946,150.879,-9.766,-14.160,971.680,0.000
1737550640.950,108.398,-12.695,-22.461,919.434,0.000
1737550640.954,103.516,-7.324,-18.555,999.512,0.000
1737550640.958,55.176,-5.859,-13.184,412.598,0.000
1737550640.962,-54.688,-13.184,-18.555,-1000.000,0.000
1737550640.966,12.207,-16.113,-14.648,-441.406,0.000
1737550640.970,125.977,-27.832,-19.043,585.449,0.000
1737550640.974,51.758,-19.531,-30.762,-593.750,0.000
1737550640.978,1.953,-6.348,-34.668,-1000.000,0.000
1737550640.982,0.977,-4.395,-27.344,-939.453,0.000
1737550640.985,5.859,-3.418,-28.320,-1000.000,0.000
1737550640.989,22.949,-5.371,-38.574,-1000.000,0.000
1737550640.993,27.832,-2.930,-29.297,-1000.000,0.000
1737550640.997,10.254,-12.207,-14.648,-1000.000,0.000
1737550641.001,-13.672,-16.602,-8.789,-1000.000,0.000
1737550641.005,24.414,-20.508,-3.418,-1000.000,0.000
1737550641.009,58.105,-19.531,-7.812,-1000.000,0.000
1737550641.013,33.691,-13.672,-9.766,-1000.000,0.000
1737550641.017,16.113,-21.484,-2.441,-933.105,0.000
1737550641.021,6.348,-26.855,5.371,-1000.000,0.000
1737550641.025,71.289,-31.250,9.766,-460.449,0.000
1737550641.028,162.598,-34.180,10.742,875.977,0.000
1737550641.032,138.184,-40.039,10.254,999.512,0.000
1737550641.036,36.133,-45.898,17.578,757.812,0.000
1737550641.040,-95.703,-50.781,18.066,119.629,0.000
1737550641.044,-128.418,-52.734,7.324,465.332,0.000
1737550641.048,-84.473,-52.246,0.488,999.512,0.000
1737550641.052,-100.586,-65.918,-13.672,947.754,0.000
1737550641.056,-84.961,-77.637,-28.809,964.355,0.000
1737550641.060,-17.090,-69.336,-5.859,972.656,0.000
1737550641.064,24.414,-55.176,18.066,975.586,0.000
1737550641.067,105.957,-45.410,21.973,908.691,0.000
1737550641.071,171.875,-43.945,33.691,999.512,0.000
1737550641.075,130.371,-55.176,34.668,391.113,0.000
1737550641.079,67.871,-55.176,17.090,-933.594,0.000
1737550641.083,88.867,-36.133,-1.465,-1000.000,0.000
1737550641.087,231.445,-33.691,14.160,145.508,0.000
1737550641.091,317.871,-38.574,7.812,999.512,0.000
1737550641.095,231.934,-40.527,-8.301,-52.734,0.000
1737550641.099,166.992,-38.086,-2.930,-1000.000,0.000
1737550641.103,197.754,-31.738,-2.441,-1000.000,0.000
1737550641.107,312.988,-25.391,-16.602,-135.254,0.000
1737550641.110,394.043,-26.855,-2.930,999.512,0.000
1737550641.114,252.441,-50.293,12.207,-84.961,0.000
1737550641.118,135.742,-59.570,2.441,-1000.000,0.000
1737550641.122,153.320,-34.180,-11.230,-958.496,0.000
1737550641.126,178.223,-15.137,-9.766,-986.816,0.000
1737550641.130,226.074,-7.812,5.859,-1000.000,0.000
1737550641.134,245.117,-3.418,4.883,-1000.000,0.000
1737550641.138,242.188,-4.883,-5.859,-932.617,0.000
1737550641.142,234.375,-10.742,-19.531,-1000.000,0.000
1737550641.146,276.367,-12.695,-15.137,-445.312,0.000
1737550641.150,342.773,-6.836,-8.301,918.457,0.000
1737550641.153,302.734,-2.930,-13.184,996.094,0.000
1737550641.157,206.055,-7.812,-28.809,926.270,0.000
1737550641.161,131.348,-12.207,-20.996,981.934,0.000
1737550641.165,131.836,-11.719,4.395,970.703,0.000
1737550641.169,177.734,-6.348,11.719,970.703,0.000
1737550641.173,178.223,-7.812,2.930,970.703,0.000
1737550641.177,146.484,-14.648,0.977,970.703,0.000
1737550641.181,117.676,-5.371,-7.324,970.703,0.000
1737550641.185,142.090,1.953,-10.742,970.703,0.000
1737550641.189,179.199,5.859,-7.324,970.703,0.000
1737550641.193,200.195,3.906,-13.184,970.703,0.000
1737550641.196,220.215,2.930,-14.160,970.703,0.000
1737550641.200,227.539,1.465,-22.461,970.703,0.000
1737550641.204,283.203,-9.277,-41.504,970.703,0.000
1737550641.208,343.262,-12.207,-29.785,970.703,0.000
1737550641.212,366.211,-3.906,-12.207,970.703,0.000
1737550641.216,353.027,8.301,-9.766,970.703,0.000
1737550641.220,297.363,1.953,-23.926,970.703,0.000
1737550641.224,250.488,-13.184,-52.246,970.703,0.000
1737550641.228,230.469,-17.578,-47.852,970.703,0.000
1737550641.232,246.094,-9.766,-30.273,970.703,0.000
1737550641.235,239.746,-5.371,-25.879,970.703,0.000
1737550641.239,241.699,-13.672,-23.926,970.703,0.000
1737550641.243,277.344,-23.926,-35.156,970.703,0.000
1737550641.247,323.242,-19.043,-47.363,970.703,0.000
1737550641.251,342.773,-3.906,-41.504,970.703,0.000
1737550641.255,337.402,-0.977,-22.461,970.703,0.000
1737550641.259,330.566,0.488,-19.043,970.703,0.000
1737550641.263,304.199,-10.254,-22.949,970.703,0.000
1737550641.267,299.805,-18.066,-43.945,970.703,0.000
1737550641.271,301.270,4.883,-40.527,970.703,0.000
1737550641.275,274.902,-1.465,-10.254,970.703,0.000
1737550641.278,256.836,-2.441,-4.883,970.703,0.000
1737550641.282,278.320,8.789,-1.465,970.703,0.000
1737550641.286,318.848,1.953,-7.812,970.703,0.000
1737550641.290,320.312,2.930,-11.719,970.703,0.000
1737550641.294,254.883,2.930,-12.695,970.703,0.000
1737550641.298,229.980,-7.324,-22.461,970.703,0.000
1737550641.302,210.938,-10.254,-17.578,970.703,0.000
1737550641.306,186.035,5.371,-11.719,970.703,0.000
1737550641.310,141.113,-1.953,-15.137,970.703,0.000
1737550641.314,77.637,-22.461,-17.090,970.703,0.000
1737550641.317,43.945,-4.883,-26.855,970.703,0.000
1737550641.321,-14.160,5.859,-6.836,970.703,0.000
1737550641.325,-11.230,-10.254,4.395,970.703,0.000
1737550641.329,43.457,-17.090,-21.973,970.703,0.000
1737550641.333,101.562,-11.719,-6.836,970.703,0.000
1737550641.337,163.574,1.465,5.859,970.703,0.000
1737550641.341,189.453,-4.395,-12.207,970.703,0.000
1737550641.345,238.281,-23.926,-26.367,970.703,0.000
1737550641.349,270.508,-20.996,-24.902,970.703,0.000
1737550641.353,208.008,-18.555,-18.066,970.703,0.000
1737550641.357,170.898,-15.137,-14.160,970.703,0.000
1737550641.360,177.246,-17.090,-19.043,970.703,0.000
1737550641.364,204.590,-25.391,-26.855,970.703,0.000
1737550641.368,247.070,-14.648,-25.391,970.703,0.000
1737550641.372,254.883,-11.230,-31.738,970.703,0.000
1737550641.376,244.141,-13.672,-51.758,970.703,0.000
1737550641.380,202.637,-20.020,-36.133,970.703,0.000
1737550641.384,198.242,-28.320,-6.348,970.703,0.000
1737550641.388,226.074,-21.484,-29.785,970.703,0.000
1737550641.392,210.449,-16.113,-44.922,970.703,0.000
1737550641.396,203.613,-23.438,-22.949,970.703,0.000
1737550641.399,212.402,-29.297,-11.230,970.703,0.000
1737550641.403,243.652,-17.578,-18.066,970.703,0.000
1737550641.407,269.043,-17.578,-25.391,970.703,0.000
1737550641.411,212.891,-21.484,-31.738,970.703,0.000
1737550641.415,143.066,-16.113,-48.828,970.703,0.000
1737550641.419,71.777,-22.949,-19.531,970.703,0.000
1737550641.423,16.602,-31.738,12.207,970.703,0.000
1737550641.427,8.301,-18.066,1.953,976.074,0.000
1737550641.431,-13.672,-9.277,-18.555,931.152,0.000
1737550641.435,-38.574,-33.691,-15.625,999.512,0.000
1737550641.439,-56.152,-22.461,-8.789,791.992,0.000
1737550641.442,-104.004,-7.812,-14.648,-253.418,0.000
1737550641.446,-57.129,-0.488,-13.184,165.039,0.000
1737550641.450,-36.133,0.000,-14.160,999.512,0.000
1737550641.454,-162.598,-33.691,-27.344,216.797,0.000
1737550641.458,-263.184,-44.434,-31.738,-972.168,0.000
1737550641.462,-259.766,-22.949,-11.719,-1000.000,0.000
1737550641.466,-171.387,-7.324,-14.160,-561.523,0.000
1737550641.470,-35.645,-16.113,-14.648,921.387,0.000
1737550641.474,-68.359,-38.086,-23.438,185.547,0.000
1737550641.478,-125.000,-40.527,-45.898,-1000.000,0.000
1737550641.482,-21.484,-38.086,-32.715,-971.680,0.000
1737550641.485,73.242,-34.180,-11.230,-975.586,0.000
1737550641.489,123.047,-29.297,-24.902,-1000.000,0.000
1737550641.493,140.137,-33.691,-37.598,-1000.000,0.000
1737550641.497,160.645,-31.738,-33.691,-1000.000,0.000
1737550641.501,171.387,-26.855,-44.434,-1000.000,0.000
1737550641.505,161.621,-28.320,-46.875,-1000.000,0.000
1737550641.509,122.559,-32.227,-30.762,-1000.000,0.000
1737550641.513,61.035,-28.809,-19.043,-1000.000,0.000
1737550641.517,-25.391,-37.109,-22.461,-1000.000,0.000
1737550641.521,-107.422,-48.828,-39.062,-1000.000,0.000
1737550641.524,-105.957,-24.414,-28.809,-1000.000,0.000
1737550641.528,-100.586,-22.949,-14.160,-1000.000,0.000
1737550641.532,-172.852,-43.457,-19.531,-1000.000,0.000
1737550641.536,-226.562,-19.531,-3.418,-1000.000,0.000
1737550641.540,-257.324,-0.977,-1.465,-1000.000,0.000
1737550641.544,-252.930,-8.301,-18.555,-1000.000,0.000
1737550641.548,-231.445,-18.555,-20.996,-1000.000,0.000
1737550641.552,-239.258,-24.902,-28.320,-1000.000,0.000
1737550641.556,-236.328,-23.438,-44.434,-1000.000,0.000
1737550641.560,-209.473,-19.043,-26.855,-1000.000,0.000
1737550641.564,-149.414,-17.578,-23.438,-1000.000,0.000
1737550641.567,-95.703,-13.672,-35.645,-1000.000,0.000
1737550641.571,-93.262,-15.137,-34.668,-1000.000,0.000
1737550641.575,-98.633,-25.879,-38.086,-1000.000,0.000
1737550641.579,-107.422,-45.898,-63.477,-1000.000,0.000
1737550641.583,-106.934,-42.480,-28.320,-1000.000,0.000
1737550641.587,-60.547,-22.461,-19.531,-1000.000,0.000
1737550641.591,-22.949,-24.414,-58.594,-1000.000,0.000
1737550641.595,-25.391,-33.691,-40.039,-1000.000,0.000
1737550641.599,-47.363,-30.273,-24.414,-1000.000,0.000
1737550641.603,-59.570,-13.184,-24.414,-1000.000,0.000
1737550641.607,-26.855,-1.465,-10.742,-1000.000,0.000
1737550641.610,-33.691,-4.395,-1.953,-1000.000,0.000
1737550641.614,-48.828,-7.812,-12.207,-1000.000,0.000
1737550641.618,-67.383,-18.555,-17.090,-1000.000,0.000
1737550641.622,-104.980,-30.762,-38.086,-1000.000,0.000
1737550641.626,-64.941,-32.227,-36.133,-1000.000,0.000
1737550641.630,-36.133,-7.812,-24.414,-1000.000,0.000
1737550641.634,-54.688,-26.367,-43.457,-1000.000,0.000
1737550641.638,-37.109,-64.453,-46.875,-1000.000,0.000
1737550641.642,-14.160,-32.227,-30.273,-1000.000,0.000
1737550641.646,26.367,-16.113,-20.020,-1000.000,0.000
1737550641.649,10.742,-34.180,-30.273,-1000.000,0.000
1737550641.653,-48.340,-20.996,-21.484,-1000.000,0.000
1737550641.657,-101.074,-12.695,-6.348,-1000.000,0.000
1737550641.661,-154.297,-15.137,-26.367,-1000.000,0.000
1737550641.665,-135.742,-15.137,-22.949,-1000.000,0.000
1737550641.669,-110.840,-37.598,-21.484,-1000.000,0.000
1737550641.673,-113.770,-50.781,-39.551,-1000.000,0.000
1737550641.677,-114.258,-22.461,-22.949,-1000.000,0.000
1737550641.681,-96.680,-22.949,-9.766,-1000.000,0.000
1737550641.685,-48.340,-41.504,-51.758,-1000.000,0.000
1737550641.689,-12.695,-40.527,-76.172,-1000.000,0.000
1737550641.692,-30.762,-53.223,1.465,-1000.000,0.000
1737550641.696,-65.430,-38.574,34.180,-1000.000,0.000
1737550641.700,-82.031,-6.348,14.648,-1000.000,0.000
1737550641.704,-48.828,-1.953,-9.277,-1000.000,0.000
1737550641.708,-5.371,6.836,-33.203,-1000.000,0.000
1737550641.712,18.555,-23.438,-36.133,-1000.000,0.000
1737550641.716,6.348,-53.711,-34.180,-1000.000,0.000
1737550641.720,-52.246,-23.438,-34.668,-1000.000,0.000
1737550641.724,-84.473,-26.855,-26.855,-1000.000,0.000
1737550641.728,-64.453,-41.504,-18.066,-1000.000,0.000
1737550641.731,-64.453,-43.457,-15.137,-1000.000,0.000
1737550641.735,-65.918,-29.297,-25.391,-1000.000,0.000
1737550641.739,-72.754,-109.375,-64.453,-1000.000,0.000
1737550641.743,-65.918,-122.070,-48.828,-1000.000,0.000
1737550641.747,-24.902,27.344,-32.715,-1000.000,0.000
1737550641.751,-20.508,29.297,-16.113,-1000.000,0.000
1737550641.755,-13.184,7.324,19.043,-1000.000,0.000
1737550641.759,13.672,4.883,0.977,-1000.000,0.000
1737550641.763,44.922,-20.508,-20.020,-1000.000,0.000
1737550641.767,68.359,-22.949,-14.648,-1000.000,0.000
1737550641.771,71.777,-24.902,-0.977,-1000.000,0.000
1737550641.774,71.777,-52.246,-56.641,-1000.000,0.000
1737550641.778,14.160,-55.176,-77.148,-1000.000,0.000
1737550641.782,-84.961,-27.344,-12.207,-1000.000,0.000
1737550641.786,-92.773,-30.762,0.488,-1000.000,0.000
1737550641.790,-74.707,-45.410,-21.973,-1000.000,0.000
1737550641.794,-114.258,-51.758,-50.293,-1000.000,0.000
1737550641.798,-101.074,-54.688,-47.852,-934.082,0.000
1737550641.802,-91.309,-48.828,-24.414,-1000.000,0.000
1737550641.806,-22.949,-28.809,-34.180,-506.836,0.000
1737550641.810,97.656,-21.484,-55.176,955.078,0.000
1737550641.813,48.828,-39.551,-56.641,749.023,0.000
1737550641.817,-102.539,-43.945,-62.988,-627.441,0.000
1737550641.821,-140.625,-34.668,-36.621,-1000.000,0.000
1737550641.825,-56.641,-30.273,-26.367,-949.219,0.000
1737550641.829,18.066,-39.062,-36.621,-1000.000,0.000
1737550641.833,45.898,-50.781,-37.109,-1000.000,0.000
1737550641.837,37.109,-39.551,-50.781,-1000.000,0.000
1737550641.841,49.316,-37.109,-71.777,-1000.000,0.000
1737550641.845,113.281,-76.660,-73.730,-1000.000,0.000
1737550641.849,128.906,-81.543,-62.500,-1000.000,0.000
1737550641.853,102.539,-32.227,-43.945,-1000.000,0.000
1737550641.856,101.074,-23.926,-45.410,-1000.000,0.000
1737550641.860,80.566,-29.785,-56.152,-1000.000,0.000
1737550641.864,104.004,-36.133,-40.039,-1000.000,0.000
1737550641.868,170.898,-53.711,-23.926,-1000.000,0.000
1737550641.872,167.480,-52.246,-25.879,-1000.000,0.000
1737550641.876,157.715,-41.992,-58.594,-1000.000,0.000
1737550641.880,158.691,-35.645,-47.852,-1000.000,0.000
1737550641.884,147.461,-28.320,-29.297,-1000.000,0.000
1737550641.888,120.605,-30.762,-43.457,-1000.000,0.000
1737550641.892,99.121,-40.039,-62.988,-1000.000,0.000
1737550641.896,121.094,-54.199,-56.641,-983.887,0.000
1737550641.899,130.859,-53.223,-41.016,-969.727,0.000
1737550641.903,102.539,-44.434,-71.289,-1000.000,0.000
1737550641.907,127.930,-62.500,-108.887,28.809,0.000
1737550641.911,138.672,-74.219,-83.496,999.512,0.000
1737550641.915,69.824,-56.152,-28.809,942.383,0.000
1737550641.919,7.812,-26.855,13.184,919.922,0.000
1737550641.923,-22.949,-5.859,-11.230,914.551,0.000
1737550641.927,13.184,-37.109,-77.148,975.586,0.000
1737550641.931,19.531,-85.449,-61.035,969.727,0.000
1737550641.935,-6.836,-47.852,-1.953,972.656,0.000
1737550641.939,-10.254,1.465,-10.254,962.891,0.000
1737550641.942,-7.812,-6.836,-30.273,952.637,0.000
1737550641.946,24.902,-8.789,-75.684,936.523,0.000
1737550641.950,44.922,-37.109,-99.609,986.328,0.000
1737550641.954,63.965,-83.984,-54.688,870.117,0.000
1737550641.958,3.906,-81.055,-62.012,-283.691,0.000
1737550641.962,-100.586,-66.895,-36.621,-1000.000,0.000
1737550641.966,-28.320,-14.648,-11.719,-828.613,0.000
1737550641.970,99.121,-39.551,-54.199,514.160,0.000
1737550641.974,28.320,-97.168,-70.312,575.684,0.000
1737550641.978,-112.793,-75.684,-64.453,-805.176,0.000
1737550641.981,-133.789,-28.320,-96.191,-1000.000,0.000
1737550641.985,-55.176,-14.648,-41.504,-520.508,0.000
1737550641.989,67.871,-15.625,38.574,745.117,0.000
1737550641.993,83.008,12.695,-7.812,999.512,0.000
1737550641.997,-6.348,-15.625,-57.617,71.777,0.000
1737550642.001,-94.238,-36.133,-42.480,-1000.000,0.000
1737550642.005,-68.359,-51.758,-35.645,-1000.000,0.000
1737550642.009,46.387,-60.059,-46.875,186.523,0.000
1737550642.013,88.867,-26.855,-55.176,761.719,0.000
1737550642.017,-6.348,-21.973,-57.617,-660.156,0.000
1737550642.021,-7.812,-80.078,-77.637,-1000.000,0.000
1737550642.024,74.219,-97.168,-88.379,-1000.000,0.000
1737550642.028,102.539,-73.730,-31.250,-388.184,0.000
1737550642.032,103.516,-53.711,6.348,354.492,0.000
1737550642.036,-38.086,-21.973,-16.113,-551.758,0.000
1737550642.040,-110.352,-0.488,-62.500,-1000.000,0.000
1737550642.044,-63.477,-11.719,-68.359,-921.875,0.000
1737550642.048,24.902,-32.715,-33.691,199.707,0.000
1737550642.052,88.379,-62.012,-27.832,999.512,0.000
1737550642.056,22.461,-72.266,-98.145,713.867,0.000
1737550642.060,-61.523,-55.176,-93.262,-559.082,0.000
1737550642.063,-100.098,-61.523,-5.859,-1000.000,0.000
1737550642.067,-12.207,-36.133,12.695,174.805,0.000
1737550642.071,31.250,-50.293,-23.438,999.512,0.000
1737550642.075,-27.344,-133.301,-86.914,714.844,0.000
1737550642.079,-146.484,-115.723,-66.895,-512.207,0.000
1737550642.083,-206.055,-24.902,-17.578,-1000.000,0.000
1737550642.087,-65.918,-1.953,-28.809,53.711,0.000
1737550642.091,3.906,-13.672,-51.758,999.512,0.000
1737550642.095,-35.645,-18.066,-45.898,999.512,0.000
1737550642.099,-125.488,-25.391,-48.828,26.367,0.000
1737550642.103,-202.637,-41.016,-65.430,-1000.000,0.000
1737550642.106,-97.168,-40.527,-48.340,-29.297,0.000
1737550642.110,-48.340,-38.574,-38.574,999.512,0.000
1737550642.114,-75.684,-17.090,-73.730,937.988,0.000
1737550642.118,-127.441,-23.438,-89.844,-92.285,0.000
1737550642.122,-170.410,-45.410,-72.266,-1000.000,0.000
1737550642.126,-67.383,-41.504,-68.848,-385.254,0.000
1737550642.130,65.918,-50.293,-75.195,989.258,0.000
1737550642.134,18.066,-23.926,-72.266,819.336,0.000
1737550642.138,-108.398,-3.906,-84.473,-418.945,0.000
1737550642.142,-145.996,-53.711,-110.352,-1000.000,0.000
1737550642.145,-159.180,-100.098,-88.379,-909.180,0.000
1737550642.149,-151.855,-18.555,-64.453,15.625,0.000
1737550642.153,-144.043,34.668,-43.945,-89.844,0.000
1737550642.157,-111.328,3.418,-62.988,-984.863,0.000
1737550642.161,88.867,-16.113,-83.008,-1000.000,0.000
1737550642.165,378.906,-53.223,-57.129,-448.730,0.000
1737550642.169,648.926,-37.598,-32.715,888.184,0.000
1737550642.173,718.750,-30.762,-51.758,999.512,0.000
1737550642.177,587.402,-68.848,-104.004,923.340,0.000
1737550642.181,334.961,-75.195,-68.848,972.168,0.000
1737550642.185,80.566,-36.621,-15.137,968.750,0.000
1737550642.188,-73.242,-9.277,-13.672,971.680,0.000
1737550642.192,-144.531,-43.457,-47.363,969.727,0.000
1737550642.196,-132.324,-23.438,-54.199,970.703,0.000
1737550642.200,-107.910,5.859,-25.391,970.703,0.000
1737550642.204,-59.570,-12.207,-25.879,970.703,0.000
1737550642.208,89.355,-19.531,-31.250,970.703,0.000
1737550642.212,185.059,-60.547,-52.734,970.703,0.000
1737550642.216,180.176,-61.035,-70.801,970.703,0.000
1737550642.220,143.066,-43.945,-49.316,971.680,0.000
1737550642.224,101.562,-31.738,-74.707,973.145,0.000
1737550642.228,70.312,-65.430,-78.125,909.180,0.000
1737550642.231,48.340,-66.406,6.348,999.512,0.000
1737550642.235,-24.902,-42.969,28.320,260.742,0.000
1737550642.239,-100.586,-35.645,-14.160,-973.145,0.000
1737550642.243,-63.477,-25.879,-26.855,-1000.000,0.000
1737550642.247,13.672,-35.645,-41.992,-632.812,0.000
1737550642.251,70.801,-3.906,-51.270,605.469,0.000
1737550642.255,28.809,1.953,-25.879,511.230,0.000
1737550642.259,-81.543,-36.621,-42.480,-878.418,0.000
1737550642.263,-50.781,-68.359,-30.273,-800.293,0.000
1737550642.267,69.336,-47.852,-8.301,641.113,0.000
1737550642.270,52.246,-27.344,-19.043,999.512,0.000
1737550642.274,21.484,-20.508,-39.062,913.086,0.000
1737550642.278,0.977,-41.504,-24.902,979.492,0.000
1737550642.282,-32.715,-48.828,-4.395,970.703,0.000
1737550642.286,-30.762,-42.480,-18.555,970.703,0.000
1737550642.290,-20.996,-42.480,-33.203,970.703,0.000
1737550642.294,-33.203,-7.812,-34.668,970.703,0.000
1737550642.298,-61.035,-36.133,-3.906,970.703,0.000
1737550642.302,-56.641,-78.613,-34.668,970.703,0.000
1737550642.306,-52.246,-62.988,-51.270,970.703,0.000
1737550642.310,-33.691,-36.133,-29.297,970.703,0.000
1737550642.313,-33.203,-44.434,-17.578,970.703,0.000
1737550642.317,-75.684,-79.102,-17.578,970.703,0.000
1737550642.321,-108.887,-64.941,-34.668,970.703,0.000
1737550642.325,-103.027,-47.363,-22.949,970.703,0.000
1737550642.329,-102.539,-61.035,-24.414,970.703,0.000
1737550642.333,-104.004,-49.805,-21.484,970.703,0.000
1737550642.337,-121.094,-24.414,-10.742,970.703,0.000
1737550642.341,-146.484,-63.477,-12.695,970.703,0.000
1737550642.345,-116.211,-73.730,-35.645,970.703,0.000
1737550642.349,-70.801,-40.527,-44.922,970.215,0.000
1737550642.353,-49.316,-36.621,-38.086,970.703,0.000
1737550642.356,-57.617,-48.828,-26.855,970.703,0.000
1737550642.360,-93.750,-44.434,-16.602,970.703,0.000
1737550642.364,-85.938,-56.152,-16.113,970.703,0.000
1737550642.368,-54.199,-54.199,-34.668,970.703,0.000
1737550642.372,-29.297,-41.504,-53.711,970.703,0.000
1737550642.376,-47.363,-74.219,-53.711,970.703,0.000
1737550642.380,-83.984,-66.406,-69.336,970.703,0.000
1737550642.384,-64.941,-43.457,-41.992,970.703,0.000
1737550642.388,-31.250,-31.738,6.348,970.703,0.000
1737550642.392,-20.020,-67.383,17.090,970.703,0.000
1737550642.395,-29.785,-60.547,-20.508,970.703,0.000
1737550642.399,-51.270,-6.348,-44.434,970.703,0.000
1737550642.403,-53.711,-19.043,-32.715,970.703,0.000
1737550642.407,-4.395,-48.828,-24.414,970.703,0.000
1737550642.411,3.418,-36.621,-40.039,970.703,0.000
1737550642.415,-16.602,-28.320,-64.941,970.703,0.000
1737550642.419,-31.250,-29.297,-82.520,970.703,0.000
1737550642.423,-20.020,-37.109,-59.082,970.703,0.000
1737550642.427,0.977,-47.363,-10.742,970.703,0.000
1737550642.431,-0.488,-50.781,-36.133,970.703,0.000
1737550642.435,25.879,-56.152,-54.199,970.703,0.000
1737550642.438,-15.137,-37.109,-18.555,970.703,0.000
1737550642.442,-50.781,-56.641,-5.859,970.703,0.000
1737550642.446,19.043,-74.219,-16.113,970.703,0.000
1737550642.450,13.672,-39.551,-23.926,970.703,0.000
1737550642.454,-25.879,-24.902,-23.926,970.703,0.000
1737550642.458,-25.391,-9.277,-25.879,970.703,0.000
1737550642.462,-14.648,-23.438,-30.762,970.703,0.000
1737550642.466,15.137,-101.074,-25.879,970.703,0.000
1737550642.470,14.648,-58.105,-31.250,970.703,0.000
1737550642.474,16.602,6.836,-43.457,970.703,0.000
1737550642.477,-16.602,-54.199,-32.227,970.215,0.000
1737550642.481,-59.570,-43.457,-21.484,970.215,0.000
1737550642.485,-30.273,-18.066,-23.926,970.703,0.000
1737550642.489,-74.219,-28.809,-52.246,970.703,0.000
1737550642.493,-90.820,-27.832,-68.359,970.703,0.000
1737550642.497,-68.359,-30.273,-50.781,970.703,0.000
1737550642.501,-106.934,-27.344,-22.949,970.703,0.000
1737550642.505,-82.031,-42.969,3.906,970.703,0.000
1737550642.509,-47.852,-59.570,-10.742,970.703,0.000
1737550642.513,-48.828,-59.082,-30.273,970.703,0.000
1737550642.517,-69.336,-32.227,-22.949,970.703,0.000
1737550642.520,-100.098,-26.367,-38.086,970.215,0.000
1737550642.524,-82.520,-34.180,-69.824,971.191,0.000
1737550642.528,-42.969,-10.742,-42.480,971.191,0.000
1737550642.532,-31.250,-11.719,-9.766,937.988,0.000
1737550642.536,-21.484,-45.898,-9.766,999.512,0.000
1737550642.540,-48.828,-33.691,-20.508,505.859,0.000
1737550642.544,-47.852,-35.645,-23.926,318.359,0.000
1737550642.548,39.062,-50.293,-10.742,966.309,0.000
1737550642.552,68.848,-31.250,-15.625,999.512,0.000
1737550642.556,38.574,-33.203,-33.691,844.727,0.000
1737550642.559,-64.453,-48.340,-33.691,-449.219,0.000
1737550642.563,-94.238,-52.246,-22.461,-1000.000,0.000
1737550642.567,17.090,-31.738,-37.598,335.938,0.000
1737550642.571,37.109,-23.438,-33.691,999.512,0.000
1737550642.575,-31.250,-40.527,-11.719,808.594,0.000
1737550642.579,-122.559,-36.621,-28.809,-494.141,0.000
1737550642.583,-139.160,-41.016,-43.945,-806.641,0.000
1737550642.587,-12.695,-41.992,-38.574,676.270,0.000
1737550642.591,0.000,-42.480,-32.715,999.512,0.000
1737550642.595,-67.871,-74.219,-21.973,912.598,0.000
1737550642.599,-93.750,-44.922,-22.461,979.980,0.000
1737550642.602,-112.305,-11.230,-16.113,970.703,0.000
1737550642.606,-111.328,-34.180,-20.508,970.215,0.000
1737550642.610,-94.727,-49.805,-22.949,970.703,0.000
1737550642.614,-100.586,-45.898,-21.973,970.703,0.000
1737550642.618,-119.141,-24.414,-26.855,970.703,0.000
1737550642.622,-96.191,-20.996,-13.672,970.703,0.000
1737550642.626,-54.199,-35.156,1.953,970.703,0.000
1737550642.630,-33.691,-16.602,0.977,970.703,0.000
1737550642.634,-32.715,-15.137,-8.301,970.703,0.000
1737550642.638,-53.711,-23.438,-24.902,970.703,0.000
1737550642.642,-69.336,-42.480,-52.734,970.703,0.000
1737550642.645,-20.508,-59.082,-42.480,975.098,0.000
1737550642.649,-4.883,-42.969,-10.742,944.336,0.000
1737550642.653,-19.043,-26.855,-3.906,988.281,0.000
1737550642.657,32.715,-19.043,4.883,934.082,0.000
1737550642.661,1.465,-67.871,-0.488,-91.797,0.000
1737550642.665,18.555,-65.918,-9.766,118.164,0.000
1737550642.669,74.219,5.371,-2.930,999.512,0.000
1737550642.673,33.691,9.277,-7.324,999.512,0.000
1737550642.677,-3.418,-10.254,-12.207,766.113,0.000
1737550642.681,-93.262,-23.438,-66.895,-648.438,0.000
1737550642.685,-50.293,-34.668,-87.891,-201.660,0.000
1737550642.688,42.969,-50.781,2.441,999.512,0.000
1737550642.692,15.625,-52.734,17.578,942.871,0.000
1737550642.696,-12.695,-23.926,-11.230,947.754,0.000
1737550642.700,-47.363,-12.695,-12.207,976.074,0.000
1737550642.704,-54.688,-35.156,-21.484,970.703,0.000
1737550642.708,-13.184,-42.480,-29.297,971.191,0.000
1737550642.712,13.672,-36.133,-35.156,951.172,0.000
1737550642.716,19.531,-35.645,-41.504,999.512,0.000
1737550642.720,-3.906,-41.016,-41.504,704.102,0.000
1737550642.724,16.602,-45.410,-43.945,603.027,0.000
1737550642.727,88.379,-46.875,-42.480,978.516,0.000
1737550642.731,103.027,-18.555,-54.199,941.406,0.000
1737550642.735,103.516,-20.020,-35.156,999.512,0.000
1737550642.739,38.574,-30.273,-8.301,-140.137,0.000
1737550642.743,39.551,-20.508,-12.695,-865.723,0.000
1737550642.747,178.711,-19.531,-10.254,540.527,0.000
1737550642.751,223.145,-26.367,-20.020,999.512,0.000
1737550642.755,187.988,-48.340,-24.414,330.566,0.000
1737550642.759,139.160,-49.805,-17.578,-872.070,0.000
1737550642.763,69.336,-40.039,-33.691,-1000.000,0.000
1737550642.767,100.586,-19.531,-39.551,181.641,0.000
1737550642.770,105.957,-5.859,-31.250,999.512,0.000
1737550642.774,-32.227,-26.367,-26.855,950.684,0.000
1737550642.778,-190.430,-30.762,-25.391,-165.527,0.000
1737550642.782,-286.133,-31.250,-29.785,-908.691,0.000
1737550642.786,-213.379,-43.457,-22.949,503.418,0.000
1737550642.790,-153.320,-30.762,-19.531,999.512,0.000
1737550642.794,-139.648,-25.391,-25.391,999.512,0.000
1737550642.798,-159.668,-41.016,-26.855,523.926,0.000
1737550642.802,-235.840,-59.570,-23.438,-961.914,0.000
1737550642.806,-184.570,-46.875,-21.484,-176.270,0.000
1737550642.809,-124.023,-26.367,-15.625,999.512,0.000
1737550642.813,-189.941,-52.734,-21.973,189.941,0.000
1737550642.817,-259.766,-36.621,-31.250,-1000.000,0.000
1737550642.821,-244.629,-15.625,-31.250,-989.258,0.000
1737550642.825,-203.125,-14.160,-36.133,-969.238,0.000
1737550642.829,-142.578,-0.977,-35.156,-1000.000,0.000
1737550642.833,-68.848,-3.906,-30.762,-1000.000,0.000
1737550642.837,14.648,-9.277,-27.832,-1000.000,0.000
1737550642.841,79.590,-24.414,-36.621,-1000.000,0.000
1737550642.845,181.641,-34.668,-56.641,-1000.000,0.000
1737550642.849,315.918,-34.180,-60.059,-1000.000,0.000
1737550642.852,361.328,-60.059,-36.133,-1000.000,0.000
1737550642.856,353.027,-48.828,-28.809,-1000.000,0.000
1737550642.860,312.012,-20.996,-34.668,-1000.000,0.000
1737550642.864,212.402,-15.625,-31.250,-1000.000,0.000
1737550642.868,125.000,-7.324,-33.691,-1000.000,0.000
1737550642.872,78.613,-33.203,-36.621,-1000.000,0.000
1737550642.876,42.969,-44.434,-43.945,-1000.000,0.000
1737550642.880,65.918,-19.043,-34.668,-1000.000,0.000
1737550642.884,110.840,-13.184,-25.879,-1000.000,0.000
1737550642.888,142.090,-21.973,-46.387,-1000.000,0.000
1737550642.891,182.617,-24.414,-40.527,-1000.000,0.000
1737550642.895,227.051,-23.926,-20.996,-957.031,0.000
1737550642.899,225.098,-34.180,-26.367,-1000.000,0.000
1737550642.903,199.219,-30.762,-29.297,-880.371,0.000
1737550642.907,250.000,-31.250,-19.043,430.664,0.000
1737550642.911,230.957,-33.203,-16.602,999.512,0.000
1737550642.915,110.352,-14.160,-19.531,941.406,0.000
1737550642.919,-25.391,-14.160,-17.578,900.391,0.000
1737550642.923,-104.492,-25.391,-24.902,736.816,0.000
1737550642.927,-134.277,-26.367,-30.762,999.512,0.000
1737550642.931,-208.008,-21.484,-10.254,672.852,0.000
1737550642.934,-307.617,-24.902,-4.883,-687.500,0.000
1737550642.938,-367.676,-28.809,-16.113,-1000.000,0.000
1737550642.942,-333.984,-35.156,0.488,-946.777,0.000
1737550642.946,-239.258,-34.180,8.789,-1000.000,0.000
1737550642.950,-164.551,-27.344,-8.301,-1000.000,0.000
1737550642.954,-151.855,0.000,-22.949,-1000.000,0.000
1737550642.958,-181.152,9.766,-34.668,-1000.000,0.000
1737550642.962,-167.969,0.488,-25.879,-1000.000,0.000
1737550642.966,-141.602,-8.789,-1.953,-1000.000,0.000
1737550642.970,-150.879,-18.066,4.883,-1000.000,0.000
1737550642.974,-174.805,-16.113,-4.395,-933.594,0.000
1737550642.977,-247.070,-28.320,-28.809,-1000.000,0.000
1737550642.981,-252.930,-27.832,-41.016,-553.223,0.000
1737550642.985,-165.039,0.000,-19.531,834.961,0.000
1737550642.989,-209.473,-8.789,-2.441,999.512,0.000
1737550642.993,-280.273,-27.832,-3.418,919.434,0.000
1737550642.997,-332.520,-18.066,-10.742,983.887,0.000
1737550643.001,-387.207,-12.207,-15.137,969.727,0.000
1737550643.005,-332.520,-23.438,-22.949,911.621,0.000
1737550643.009,-213.379,-29.297,-36.621,999.512,0.000
1737550643.013,-199.219,-22.949,-39.062,167.969,0.000
1737550643.017,-234.863,-27.344,-24.902,-1000.000,0.000
1737550643.020,-166.504,-34.180,-20.508,-982.910,0.000
1737550643.024,7.324,-15.137,-17.090,-974.121,0.000
1737550643.028,206.055,-6.348,-18.066,-1000.000,0.000
1737550643.032,342.285,-29.297,-21.973,-1000.000,0.000
1737550643.036,432.617,-22.949,-25.391,-1000.000,0.000
1737550643.040,491.211,1.465,-31.738,-1000.000,0.000
1737550643.044,565.918,-8.301,-31.738,-1000.000,0.000
1737550643.048,604.492,-25.391,-28.809,-1000.000,0.000
1737550643.052,569.336,-16.113,-14.648,-996.582,0.000
1737550643.056,426.758,-11.719,-32.227,-943.848,0.000
1737550643.059,207.520,-40.527,-51.270,-1000.000,0.000
1737550643.063,146.973,-20.996,-30.273,-153.320,0.000
1737550643.067,170.410,-0.977,-11.719,999.512,0.000
1737550643.071,155.762,-19.531,-25.391,945.801,0.000
1737550643.075,139.648,-7.812,-53.223,948.242,0.000
1737550643.079,70.801,-5.859,-38.086,976.074,0.000
1737550643.083,-6.836,-21.973,-14.648,970.703,0.000
1737550643.087,-69.824,-23.926,1.465,970.703,0.000
1737550643.091,-157.227,-19.043,-13.672,970.703,0.000
1737550643.095,-264.160,-11.230,-31.250,970.703,0.000
1737550643.099,-365.234,-10.254,-20.508,970.703,0.000
1737550643.102,-394.531,-12.695,-8.789,970.703,0.000
1737550643.106,-324.707,-10.254,-5.859,970.703,0.000
1737550643.110,-249.023,-13.672,-21.484,970.703,0.000
1737550643.114,-174.316,-25.879,-27.832,970.703,0.000
1737550643.118,-70.312,-22.461,-13.672,970.703,0.000
1737550643.122,75.195,-9.277,-4.883,979.004,0.000
1737550643.126,248.047,-17.578,-11.230,917.480,0.000
1737550643.130,345.703,-25.391,-9.277,999.512,0.000
1737550643.134,353.516,-20.996,-9.277,661.133,0.000
1737550643.138,306.641,-17.578,-21.484,-667.969,0.000
1737550643.141,253.906,-18.066,-26.855,-1000.000,0.000
1737550643.145,269.043,-25.391,-25.391,-948.730,0.000
1737550643.149,320.312,-24.902,-27.344,-1000.000,0.000
1737550643.153,374.023,-21.484,-21.484,-1000.000,0.000
1737550643.157,400.879,-16.113,-31.250,-1000.000,0.000
1737550643.161,461.426,0.000,-10.742,-1000.000,0.000
1737550643.165,544.434,8.789,11.230,-1000.000,0.000
1737550643.169,510.254,8.301,-6.836,-1000.000,0.000
1737550643.173,430.664,-2.441,-12.695,-1000.000,0.000
1737550643.177,325.684,-17.578,-14.160,-968.262,0.000
1737550643.181,209.473,-23.926,-24.902,-1000.000,0.000
1737550643.184,91.797,-21.973,-36.621,-925.293,0.000
1737550643.188,-37.598,-11.230,-25.391,267.090,0.000
1737550643.192,-166.992,3.418,-28.320,999.512,0.000
1737550643.196,-335.449,-6.836,-24.414,926.758,0.000
1737550643.200,-519.043,-27.344,-6.348,958.496,0.000
1737550643.204,-604.492,-20.508,-16.113,971.680,0.000
1737550643.208,-674.805,-2.930,-20.020,973.633,0.000
1737550643.212,-750.488,-6.836,-13.184,937.988,0.000
1737550643.216,-816.406,-15.625,-15.625,999.512,0.000
1737550643.220,-894.043,-24.414,-32.227,637.207,0.000
1737550643.223,-822.266,-22.461,-33.691,238.281,0.000
1737550643.227,-587.891,-22.461,-16.113,999.512,0.000
1737550643.231,-451.172,-31.738,-24.414,232.422,0.000
1737550643.235,-434.082,-33.203,-25.391,-1000.000,0.000
1737550643.239,-419.434,-30.762,-12.695,-982.910,0.000
1737550643.243,-394.531,-20.996,-21.973,-972.168,0.000
1737550643.247,-365.723,-15.625,-19.531,-1000.000,0.000
1737550643.251,-330.078,-13.672,-11.230,-1000.000,0.000
1737550643.255,-273.438,-10.254,-21.973,-1000.000,0.000
1737550643.259,-227.539,-8.789,-35.156,-1000.000,0.000
1737550643.263,-207.031,-16.602,-27.344,-1000.000,0.000
1737550643.266,-188.477,-33.691,-23.926,-1000.000,0.000
1737550643.270,-187.988,-28.320,-34.180,-1000.000,0.000
1737550643.274,-234.375,-23.926,-33.691,-1000.000,0.000
1737550643.278,-304.199,-33.203,-20.996,-1000.000,0.000
1737550643.282,-346.680,-24.414,-22.949,-1000.000,0.000
1737550643.286,-331.543,-15.625,-24.414,-1000.000,0.000
1737550643.290,-265.137,-10.254,-23.438,-1000.000,0.000
1737550643.294,-209.473,-22.461,-18.555,-1000.000,0.000
1737550643.298,-235.352,-30.762,-19.531,-1000.000,0.000
1737550643.302,-272.949,-14.648,-26.367,-1000.000,0.000
1737550643.306,-309.570,-0.977,-24.902,-1000.000,0.000
1737550643.309,-362.305,-8.301,-16.602,-1000.000,0.000
1737550643.313,-416.016,-22.949,-12.207,-1000.000,0.000
1737550643.317,-454.590,-16.113,-30.273,-1000.000,0.000
1737550643.321,-455.566,-10.742,-41.016,-1000.000,0.000
1737550643.325,-367.676,-10.254,-30.762,-1000.000,0.000
1737550643.329,-214.844,-11.230,-15.137,-1000.000,0.000
1737550643.333,-84.473,-21.484,-7.812,-1000.000,0.000
1737550643.337,-21.973,-15.625,-15.625,-1000.000,0.000
1737550643.341,46.875,-17.578,-32.715,-1000.000,0.000
1737550643.345,112.305,-27.832,-25.879,-1000.000,0.000
1737550643.348,122.559,-20.508,-23.926,-1000.000,0.000
1737550643.352,48.828,-11.230,-24.902,-1000.000,0.000
1737550643.356,-109.863,-10.254,-24.902,-1000.000,0.000
1737550643.360,-215.820,-13.184,-35.156,-1000.000,0.000
1737550643.364,-207.520,-12.695,-21.484,-1000.000,0.000
1737550643.368,-177.734,-20.020,-13.184,-1000.000,0.000
1737550643.372,-146.484,-16.113,-20.020,-1000.000,0.000
1737550643.376,-150.391,-11.719,-16.113,-1000.000,0.000
1737550643.380,-187.988,-20.996,-15.137,-1000.000,0.000
1737550643.384,-198.242,-14.160,-23.438,-1000.000,0.000
1737550643.388,-221.680,-11.719,-30.762,-1000.000,0.000
1737550643.391,-206.543,-22.461,-25.879,-1000.000,0.000
1737550643.395,-174.805,-21.484,-30.762,-1000.000,0.000
1737550643.399,-205.078,-12.695,-47.363,-1000.000,0.000
1737550643.403,-193.848,-26.367,-43.457,-1000.000,0.000
1737550643.407,-137.207,-24.414,-44.434,-1000.000,0.000
1737550643.411,-127.441,0.488,-44.922,-1000.000,0.000
1737550643.415,-141.113,-6.836,-30.273,-1000.000,0.000
1737550643.419,-217.773,-15.625,-18.066,-1000.000,0.000
1737550643.423,-242.188,-10.254,-6.348,-1000.000,0.000
1737550643.427,-172.852,-6.836,-10.254,-1000.000,0.000
1737550643.431,-146.484,-5.371,-9.277,-1000.000,0.000
1737550643.434,-135.254,-17.578,-10.254,-1000.000,0.000
1737550643.438,-138.184,-22.461,-20.020,-1000.000,0.000
1737550643.442,-157.227,-15.137,-27.344,-1000.000,0.000
1737550643.446,-80.078,-16.602,-19.043,-1000.000,0.000
1737550643.450,-20.996,-21.973,-15.137,-1000.000,0.000
1737550643.454,-28.809,-17.578,-39.551,-1000.000,0.000
1737550643.458,-47.852,-18.555,-50.781,-968.750,0.000
1737550643.462,-48.828,-22.949,-26.855,-1000.000,0.000
1737550643.466,14.160,-24.414,-16.602,-806.641,0.000
1737550643.470,89.355,-25.879,-14.160,237.793,0.000
1737550643.473,88.867,-20.996,-18.066,939.941,0.000
1737550643.477,-25.879,-23.438,-18.066,357.422,0.000
1737550643.481,-88.867,-29.297,-20.996,214.355,0.000
1737550643.485,-62.012,-21.973,-39.062,953.613,0.000
1737550643.489,-100.098,-10.742,-36.621,997.070,0.000
1737550643.493,-120.117,-6.836,-17.578,943.359,0.000
1737550643.497,-112.793,-11.719,-5.859,977.051,0.000
1737550643.501,-116.211,-14.648,-17.090,970.703,0.000
1737550643.505,-54.199,-21.973,-30.273,970.703,0.000
1737550643.509,-34.668,-30.762,-17.578,970.703,0.000
1737550643.513,-25.879,-19.043,-15.625,970.703,0.000
1737550643.516,10.742,-10.254,-20.508,970.703,0.000
1737550643.520,-31.250,-5.859,-14.648,970.703,0.000
1737550643.524,-40.039,-9.277,-4.883,970.703,0.000
1737550643.528,-1.465,-21.484,-6.348,970.703,0.000
1737550643.532,6.348,-21.484,-17.578,970.703,0.000
1737550643.536,2.930,-17.090,-20.020,970.703,0.000
1737550643.540,-7.324,-20.508,-6.836,970.703,0.000
1737550643.544,6.348,-25.879,-8.789,970.703,0.000
1737550643.548,39.551,-37.109,-29.297,970.703,0.000
1737550643.552,34.668,-35.156,-24.902,970.703,0.000
1737550643.555,30.762,-19.043,-23.926,970.703,0.000
1737550643.559,28.809,-20.020,-33.203,970.703,0.000
1737550643.563,6.348,-20.020,-20.996,970.703,0.000
1737550643.567,-14.648,-10.254,1.953,970.703,0.000
1737550643.571,-20.508,-13.672,-1.465,970.703,0.000
1737550643.575,-48.828,-20.996,-11.230,970.703,0.000
1737550643.579,-145.996,-24.414,-27.832,970.703,0.000
1737550643.583,-191.895,-23.926,-20.996,970.703,0.000
1737550643.587,-151.855,-12.695,-7.812,970.703,0.000
1737550643.591,-111.816,-11.230,-28.320,970.703,0.000
1737550643.595,-120.117,-18.555,-31.250,970.703,0.000
1737550643.598,-142.578,-16.602,-23.926,970.703,0.000
1737550643.602,-174.316,-23.438,-26.367,970.703,0.000
1737550643.606,-175.293,-30.762,-33.203,970.703,0.000
1737550643.610,-145.996,-14.160,-46.387,970.703,0.000
1737550643.614,-105.469,-15.137,-48.340,970.703,0.000
1737550643.618,-76.660,-32.715,-21.973,970.703,0.000
1737550643.622,-82.520,-23.926,-9.766,970.703,0.000
1737550643.626,-12.207,-3.418,-2.441,970.703,0.000
1737550643.630,24.902,1.953,-3.906,970.703,0.000
1737550643.634,-21.484,-10.254,-23.438,970.703,0.000
1737550643.638,-76.172,-29.785,-14.648,970.703,0.000
1737550643.641,-62.988,-33.691,-10.254,970.703,0.000
1737550643.645,-8.789,-20.020,-16.113,970.703,0.000
1737550643.649,-51.270,-19.043,-15.137,970.703,0.000
1737550643.653,-71.777,-21.484,-11.230,970.703,0.000
1737550643.657,-77.148,-20.020,-21.484,970.703,0.000
1737550643.661,-130.859,-20.996,-41.992,970.703,0.000
1737550643.665,-158.203,-25.391,-28.320,970.703,0.000
1737550643.669,-159.668,-33.203,-3.906,970.703,0.000
1737550643.673,-175.293,-35.645,-13.672,970.703,0.000
1737550643.677,-180.176,-29.297,-25.879,974.609,0.000
1737550643.680,-168.457,-34.668,-20.508,954.590,0.000
1737550643.684,-109.375,-29.785,-10.254,943.848,0.000
1737550643.688,-43.457,-18.066,-11.230,999.512,0.000
1737550643.692,-54.688,-25.879,-20.996,-45.410,0.000
1737550643.696,-84.961,-17.578,-29.785,-1000.000,0.000
1737550643.700,-63.477,-15.625,-20.020,-982.422,0.000
1737550643.704,-44.434,-20.508,-15.625,-950.195,0.000
1737550643.708,1.465,-20.996,-22.949,-333.008,0.000
1737550643.712,8.789,-24.414,-30.273,-310.547,0.000
1737550643.716,-5.859,-25.879,-46.875,-1000.000,0.000
1737550643.720,-7.812,-27.832,-42.969,-751.465,0.000
1737550643.723,17.090,-24.902,-14.160,556.152,0.000
1737550643.727,60.547,-21.973,-17.090,999.512,0.000
1737550643.731,81.055,-13.672,-22.461,921.387,0.000
1737550643.735,84.473,-7.812,-12.207,974.609,0.000
1737550643.739,55.176,-19.043,-16.602,971.191,0.000
1737550643.743,38.574,-24.902,-28.809,970.703,0.000
1737550643.747,5.859,-32.715,-26.855,970.703,0.000
1737550643.751,-13.672,-23.926,-15.137,970.703,0.000
1737550643.755,-42.969,-8.789,-23.438,970.703,0.000
1737550643.759,-93.750,-16.113,-14.648,970.703,0.000
1737550643.763,-84.473,-23.926,-10.254,970.703,0.000
1737550643.766,-56.152,-22.949,-18.555,970.703,0.000
1737550643.770,-48.828,-21.484,-14.648,970.703,0.000
1737550643.774,-57.617,-21.973,-18.555,970.703,0.000
1737550643.778,-91.309,-19.043,-25.879,970.703,0.000
1737550643.782,-108.398,-25.879,-17.090,974.609,0.000
1737550643.786,-138.184,-32.227,-19.043,953.613,0.000
1737550643.790,-145.996,-29.785,-30.762,944.824,0.000
1737550643.794,-127.441,-31.250,-31.250,999.512,0.000
1737550643.798,-179.688,-27.832,-30.762,-67.383,0.000
1737550643.802,-239.746,-21.484,-31.250,-1000.000,0.000
1737550643.805,-200.684,-24.902,-19.531,-965.332,0.000
1737550643.809,-167.480,-32.227,-19.531,-986.816,0.000
1737550643.813,-144.531,-19.531,-13.672,-1000.000,0.000
1737550643.817,-109.863,-13.184,-9.277,-1000.000,0.000
1737550643.821,-88.379,-11.719,-16.602,-1000.000,0.000
1737550643.825,-45.410,-3.418,-23.438,-1000.000,0.000
1737550643.829,33.691,-6.836,-27.832,-1000.000,0.000
1737550643.833,29.297,-12.695,-19.531,-934.082,0.000
1737550643.837,-40.527,-18.066,-6.348,-1000.000,0.000
1737550643.841,-43.457,-18.555,-7.324,-412.598,0.000
1737550643.845,16.602,-18.555,-20.996,932.129,0.000
1737550643.848,1.953,-31.738,-26.855,990.723,0.000
1737550643.852,-28.320,-18.066,-17.090,928.711,0.000
1737550643.856,-55.664,-4.395,-7.812,980.957,0.000
1737550643.860,-109.863,-19.531,-6.348,970.703,0.000
1737550643.864,-119.141,-22.461,-17.578,970.703,0.000
1737550643.868,-81.543,-14.160,-27.832,970.703,0.000
1737550643.872,-4.395,-20.996,-28.320,970.703,0.000
1737550643.876,82.520,-32.227,-23.926,970.703,0.000
1737550643.880,173.340,-20.996,-7.812,970.703,0.000
1737550643.884,297.363,-15.137,-0.977,970.703,0.000
1737550643.887,358.887,-20.996,-12.695,970.215,0.000
1737550643.891,331.543,-20.508,-20.996,970.703,0.000
1737550643.895,244.141,-10.254,-16.113,970.703,0.000
1737550643.899,98.633,-2.441,-0.977,970.703,0.000
1737550643.903,-38.086,-5.371,10.742,970.703,0.000
1737550643.907,-97.168,-6.836,0.488,970.703,0.000
1737550643.911,-89.844,-12.695,-14.160,970.703,0.000
1737550643.915,-94.238,-23.926,-15.137,970.703,0.000
1737550643.919,-107.910,-22.949,-12.207,970.703,0.000
1737550643.923,-109.375,-23.438,-25.391,970.703,0.000
1737550643.927,-94.727,-26.855,-40.039,970.703,0.000
1737550643.930,-84.961,-25.879,-21.973,970.703,0.000
1737550643.934,-101.562,-26.367,-18.066,970.703,0.000
1737550643.938,-141.113,-22.949,-6.348,970.703,0.000
1737550643.942,-177.734,-19.043,5.371,970.703,0.000
1737550643.946,-194.336,-16.113,-8.789,970.703,0.000
1737550643.950,-178.223,-22.461,-14.160,970.703,0.000
1737550643.954,-173.828,-30.273,-8.789,970.703,0.000
1737550643.958,-193.848,-22.461,-4.395,970.703,0.000
1737550643.962,-196.289,-17.090,1.953,970.703,0.000
1737550643.966,-160.156,-35.645,-4.883,970.703,0.000
1737550643.970,-134.277,-50.781,-26.367,970.703,0.000
1737550643.973,-161.133,-37.109,-22.949,970.703,0.000
1737550643.977,-185.547,-23.926,-17.578,970.703,0.000
1737550643.981,-192.871,-22.461,-20.996,970.703,0.000
1737550643.985,-185.059,-24.414,-18.555,970.703,0.000
1737550643.989,-166.016,-22.461,-33.203,970.703,0.000
1737550643.993,-148.926,-15.625,-30.762,970.703,0.000
1737550643.997,-125.000,-15.625,-0.488,970.703,0.000
1737550644.001,-89.844,-16.602,0.977,970.215,0.000
1737550644.005,-36.621,-25.391,-15.137,970.703,0.000
1737550644.009,-5.859,-27.832,-17.578,970.703,0.000
1737550644.012,-34.668,-23.926,-28.809,970.703,0.000
1737550644.016,-68.848,-27.832,-40.527,970.215,0.000
1737550644.020,-106.934,-20.508,-26.367,970.703,0.000
1737550644.024,-131.836,-7.324,-7.812,970.703,0.000
1737550644.028,-120.605,-11.230,-1.953,970.703,0.000
1737550644.032,-107.422,-14.160,-19.531,970.703,0.000
1737550644.036,-103.027,-3.906,-25.879,970.703,0.000
1737550644.040,-117.188,-11.230,-11.230,970.703,0.000
1737550644.044,-103.516,-13.672,-7.812,970.703,0.000
1737550644.048,-104.004,-16.602,-11.719,970.703,0.000
1737550644.052,-124.512,-22.949,-22.461,970.703,0.000
1737550644.055,-130.859,-27.344,-18.555,970.703,0.000
1737550644.059,-138.672,-23.926,-13.184,976.074,0.000
1737550644.063,-79.590,-14.160,-20.996,940.430,0.000
1737550644.067,-15.625,-31.250,-16.113,983.887,0.000
1737550644.071,-3.906,-49.805,-9.766,851.562,0.000
1737550644.075,-63.965,-49.316,-18.555,-235.840,0.000
1737550644.079,-117.188,-43.945,-24.414,-1000.000,0.000
1737550644.083,-52.246,-25.879,-26.855,-444.336,0.000
1737550644.087,43.945,-11.230,-17.578,863.281,0.000
1737550644.091,42.969,-20.020,-8.789,928.223,0.000
1737550644.095,-16.113,-25.879,-17.090,-65.918,0.000
1737550644.098,-71.289,-33.203,-25.391,-1000.000,0.000
1737550644.102,-4.395,-34.668,-23.438,-27.344,0.000
1737550644.106,70.801,-20.996,-10.742,999.512,0.000
1737550644.110,41.016,-30.273,-13.184,932.617,0.000
1737550644.114,24.902,-34.668,-25.391,954.590,0.000
1737550644.118,36.133,-24.414,-36.621,975.098,0.000
1737550644.122,39.551,-26.367,-25.391,970.703,0.000
1737550644.126,47.852,-31.738,-4.883,970.703,0.000
1737550644.130,58.594,-29.297,-11.230,970.703,0.000
1737550644.134,55.176,-22.949,-14.160,970.703,0.000
1737550644.137,37.598,-19.531,-16.602,970.703,0.000
1737550644.141,12.207,-11.230,-24.414,973.145,0.000
1737550644.145,24.902,-19.043,-16.602,957.031,0.000
1737550644.149,52.734,-18.066,-21.973,963.379,0.000
1737550644.153,48.828,-19.043,-48.828,963.379,0.000
1737550644.157,-4.883,-34.668,-34.668,224.121,0.000
1737550644.161,-43.945,-32.227,-7.812,38.086,0.000
1737550644.165,-10.254,-25.391,-12.207,884.766,0.000
1737550644.169,8.789,-25.391,-20.508,999.512,0.000
1737550644.173,10.742,-29.297,-23.438,647.949,0.000
1737550644.177,3.418,-31.738,-25.879,-368.164,0.000
1737550644.180,-26.855,-33.203,-20.020,-1000.000,0.000
1737550644.184,20.020,-22.949,-5.859,87.402,0.000
1737550644.188,84.473,-11.719,-7.324,999.512,0.000
1737550644.192,3.906,-9.277,-33.203,-51.758,0.000
1737550644.196,-74.219,-4.883,-35.645,-1000.000,0.000
1737550644.200,-70.312,-12.695,-17.090,-1000.000,0.000
1737550644.204,-0.488,-18.066,-27.832,-424.805,0.000
1737550644.208,93.750,-19.531,-32.715,954.590,0.000
1737550644.212,36.133,-30.273,-23.438,325.195,0.000
1737550644.216,-61.035,-38.574,-23.926,-1000.000,0.000
1737550644.219,-39.551,-41.504,-27.344,-829.102,0.000
1737550644.223,52.734,-26.367,-26.855,459.961,0.000
1737550644.227,101.562,-8.301,-34.180,999.512,0.000
1737550644.231,94.238,0.977,-35.156,953.613,0.000
1737550644.235,81.055,-3.418,-33.691,877.441,0.000
1737550644.239,69.824,-25.879,-33.691,669.434,0.000
1737550644.243,66.406,-23.438,-25.879,889.160,0.000
1737550644.247,56.152,-18.066,-35.156,990.723,0.000
1737550644.251,45.898,-26.855,-26.855,960.449,0.000
1737550644.255,39.062,-23.438,-10.742,583.984,0.000
1737550644.259,4.395,-29.297,-16.602,165.039,0.000
1737550644.262,17.578,-25.879,-30.762,615.723,0.000
1737550644.266,69.824,-15.625,-42.480,999.512,0.000
1737550644.270,62.988,-34.668,-41.016,820.801,0.000
1737550644.274,5.371,-32.715,-31.738,-103.027,0.000
1737550644.278,-68.848,-15.137,-26.855,-1000.000,0.000
1737550644.282,-60.059,-25.391,-21.484,-298.828,0.000
1737550644.286,9.766,-23.926,-16.602,996.094,0.000
1737550644.290,20.996,-5.371,-17.578,936.035,0.000
1737550644.294,-43.457,-9.277,-10.742,-110.352,0.000
1737550644.298,-104.492,-32.715,-13.184,-1000.000,0.000
1737550644.302,-90.820,-26.367,-22.461,-899.414,0.000
1737550644.305,-19.043,-8.789,-31.250,354.004,0.000
1737550644.309,7.324,-15.625,-25.391,886.719,0.000
1737550644.313,-96.191,-32.227,-21.484,-381.836,0.000
1737550644.317,-139.160,-26.367,-19.043,-1000.000,0.000
1737550644.321,-112.793,-27.832,-11.230,-655.273,0.000
1737550644.325,-50.781,-39.062,-20.020,601.562,0.000
1737550644.329,-32.227,-17.090,-30.273,999.512,0.000
1737550644.333,-82.031,-9.277,-21.973,787.598,0.000
1737550644.337,-115.723,-9.766,-19.531,532.715,0.000
1737550644.341,-100.586,-11.230,-36.133,777.832,0.000
1737550644.344,-86.914,-29.785,-47.852,999.512,0.000
1737550644.348,-61.035,-28.320,-34.668,957.520,0.000
1737550644.352,-13.672,-23.926,-3.906,969.238,0.000
1737550644.356,-16.602,-32.227,-2.441,971.191,0.000
1737550644.360,-14.160,-45.898,-40.039,970.703,0.000
1737550644.364,-6.836,-34.668,-40.039,971.680,0.000
1737550644.368,3.906,-10.254,-8.789,966.309,0.000
1737550644.372,-21.973,-14.160,-7.812,982.422,0.000
1737550644.376,-52.734,-22.461,-14.160,936.523,0.000
1737550644.380,-35.645,-31.738,-33.203,899.902,0.000
1737550644.384,-27.344,-24.902,-47.363,919.434,0.000
1737550644.387,-26.367,-14.160,-32.715,999.512,0.000
1737550644.391,-59.570,-19.531,-26.367,270.996,0.000
1737550644.395,-112.793,-25.391,-36.133,-911.621,0.000
1737550644.399,-134.766,-30.762,-34.180,-1000.000,0.000
1737550644.403,-99.609,-31.738,-20.996,-604.980,0.000
1737550644.407,-12.695,-25.879,-26.367,645.020,0.000
1737550644.411,-28.809,-16.602,-36.621,-42.480,0.000
1737550644.415,-60.547,-17.578,-35.645,-1000.000,0.000
1737550644.419,-60.547,-31.250,-27.832,-988.770,0.000
1737550644.423,-60.547,-37.598,-38.086,-878.906,0.000
1737550644.426,12.207,-27.344,-52.246,124.512,0.000
1737550644.430,34.180,-8.301,-42.969,329.590,0.000
1737550644.434,-30.273,3.906,-39.062,-710.449,0.000
1737550644.438,-65.430,-1.465,-29.297,-1000.000,0.000
1737550644.442,5.371,-3.906,-10.742,31.250,0.000
1737550644.446,62.500,-11.230,-17.578,999.512,0.000
1737550644.450,37.109,-13.672,-40.039,960.938,0.000
1737550644.454,19.531,-7.324,-28.809,807.617,0.000
1737550644.458,-34.180,-20.996,-19.043,-8.301,0.000
1737550644.462,-32.715,-25.391,-23.926,145.020,0.000
1737550644.466,35.156,-16.113,-16.113,999.512,0.000
1737550644.469,30.762,-20.508,-13.672,633.301,0.000
1737550644.473,-20.508,-21.484,-24.902,-666.992,0.000
1737550644.477,-34.180,-16.113,-35.156,-1000.000,0.000
1737550644.481,-63.965,-14.160,-39.062,-998.047,0.000
1737550644.485,-55.176,-20.508,-33.203,-619.629,0.000
1737550644.489,-9.766,-24.902,-25.391,-599.121,0.000
1737550644.493,-2.930,-20.020,-33.203,-1000.000,0.000
1737550644.497,-16.113,-21.484,-42.480,-989.746,0.000
1737550644.501,-19.043,-15.625,-34.668,-981.934,0.000
1737550644.505,81.055,-15.137,-19.531,156.738,0.000
1737550644.509,121.582,-20.508,-20.020,999.512,0.000
1737550644.512,38.086,-25.879,-25.879,95.215,0.000
1737550644.516,-28.320,-24.902,-26.855,-1000.000,0.000
1737550644.520,18.555,-13.184,-30.273,-57.617,0.000
1737550644.524,76.660,-4.395,-27.832,999.512,0.000
1737550644.528,41.992,-9.277,-29.297,936.035,0.000
1737550644.532,43.457,-10.742,-30.273,952.148,0.000
1737550644.536,48.340,-15.137,-26.855,975.586,0.000
1737550644.540,7.812,-30.273,-39.062,970.703,0.000
1737550644.544,13.184,-27.344,-45.410,970.703,0.000
1737550644.548,14.648,-20.020,-22.949,969.727,0.000
1737550644.551,15.625,-8.789,-6.836,971.680,0.000
1737550644.555,5.859,-4.395,-19.043,974.121,0.000
1737550644.559,-55.176,-28.320,-16.113,935.547,0.000
1737550644.563,-43.457,-37.109,-16.113,953.125,0.000
1737550644.567,7.812,-22.461,-30.762,975.586,0.000
1737550644.571,-44.922,-22.949,-23.438,-144.043,0.000
1737550644.575,-97.168,-29.785,-17.578,-1000.000,0.000
1737550644.579,-101.074,-31.250,-26.855,-1000.000,0.000
1737550644.583,-102.539,-33.203,-36.621,-700.195,0.000
1737550644.587,-27.344,-31.250,-34.668,627.441,0.000
1737550644.591,-57.129,-27.832,-37.109,161.133,0.000
1737550644.594,-123.535,-25.879,-39.062,-1000.000,0.000
1737550644.598,-100.586,-31.738,-30.762,-1000.000,0.000
1737550644.602,-49.316,-36.621,-27.344,18.066,0.000
1737550644.606,11.230,-28.809,-25.879,999.512,0.000
1737550644.610,1.465,-19.531,-15.137,937.500,0.000
1737550644.614,-10.742,-19.043,-10.254,954.590,0.000
1737550644.618,-7.324,-13.184,-18.066,975.098,0.000
1737550644.622,-43.457,-12.695,-23.438,970.703,0.000
1737550644.626,-58.594,-22.949,-28.320,970.703,0.000
1737550644.630,-32.715,-20.996,-33.203,970.703,0.000
1737550644.633,-25.391,-16.113,-39.551,970.703,0.000
1737550644.637,-43.457,-21.973,-19.531,978.516,0.000
1737550644.641,-48.828,-25.879,4.395,920.410,0.000
1737550644.645,-21.484,-29.785,-2.441,999.512,0.000
1737550644.649,-46.387,-32.227,-14.160,663.574,0.000
1737550644.653,-105.469,-23.926,-14.160,-620.605,0.000
1737550644.657,-96.680,-22.461,-19.531,-1000.000,0.000
1737550644.661,-111.816,-30.762,-31.738,-1000.000,0.000
1737550644.665,-65.918,-34.668,-27.832,24.902,0.000
1737550644.669,-11.230,-21.973,-24.902,684.570,0.000
1737550644.673,-98.633,-19.043,-31.738,-638.672,0.000
1737550644.676,-143.555,-22.949,-15.625,-1000.000,0.000
1737550644.680,-132.812,-26.367,-4.883,-732.910,0.000
1737550644.684,-68.359,-30.762,-20.020,422.363,0.000
1737550644.688,-44.922,-32.227,-17.090,999.512,0.000
1737550644.692,-90.820,-23.438,-8.789,670.410,0.000
1737550644.696,-151.367,-23.438,-9.766,-497.559,0.000
1737550644.700,-142.578,-16.113,-15.137,-450.684,0.000
1737550644.704,-44.434,-15.137,-14.648,820.312,0.000
1737550644.708,-8.301,-23.438,-14.160,999.512,0.000
1737550644.712,-3.418,-23.438,-15.137,902.344,0.000
1737550644.716,-39.062,-33.203,-20.996,360.840,0.000
1737550644.719,-71.777,-42.969,-29.297,258.789,0.000
1737550644.723,-26.367,-34.180,-16.602,924.805,0.000
1737550644.727,-17.578,-20.996,-6.836,992.188,0.000
1737550644.731,-23.438,-14.160,-12.207,911.133,0.000
1737550644.735,-62.012,-20.508,-21.973,322.754,0.000
1737550644.739,-140.137,-23.926,-20.508,-98.145,0.000
1737550644.743,-119.141,-16.113,-13.184,575.195,0.000
1737550644.747,-56.152,-6.836,-11.719,999.512,0.000
1737550644.751,-92.773,-11.719,-16.602,409.180,0.000
1737550644.755,-163.086,-29.297,-19.531,-794.434,0.000
1737550644.758,-157.715,-38.086,-20.508,-1000.000,0.000
1737550644.762,-89.844,-37.598,-24.414,-426.270,0.000
1737550644.766,-1.953,-24.414,-17.578,955.078,0.000
1737550644.770,18.066,-20.996,-12.207,490.723,0.000
1737550644.774,-34.668,-30.762,-19.043,-790.039,0.000
1737550644.778,-81.543,-33.203,-30.273,-1000.000,0.000
1737550644.782,-41.992,-20.996,-37.109,-337.402,0.000
1737550644.786,48.828,-9.277,-40.527,975.586,0.000
1737550644.790,43.945,-15.625,-30.762,822.266,0.000
1737550644.794,-34.180,-23.438,-17.578,-337.891,0.000
1737550644.798,-69.824,-18.555,-17.090,-1000.000,0.000
1737550644.801,-8.789,-22.461,-14.160,-368.164,0.000
1737550644.805,62.988,-24.414,-18.066,946.777,0.000
1737550644.809,61.523,-20.996,-26.855,917.480,0.000
1737550644.813,21.484,-26.855,-27.344,-219.238,0.000
1737550644.817,-32.715,-22.949,-26.367,-1000.000,0.000
1737550644.821,-19.043,-14.160,-24.902,-562.012,0.000
1737550644.825,27.344,-12.695,-23.438,742.676,0.000
1737550644.829,23.438,-9.766,-16.602,999.512,0.000
1737550644.833,-26.367,-7.812,-20.020,-90.820,0.000
1737550644.837,-96.680,-17.090,-21.484,-1000.000,0.000
1737550644.841,-72.754,-27.344,-18.555,-582.520,0.000
1737550644.844,-4.395,-23.926,-26.855,725.586,0.000
1737550644.848,-4.395,-21.484,-29.297,999.512,0.000
1737550644.852,-43.945,-25.879,-23.438,-75.684,0.000
1737550644.856,-104.980,-22.949,-9.277,-1000.000,0.000
1737550644.860,-88.379,-16.602,-10.254,-773.438,0.000
1737550644.864,-9.766,-18.555,-9.766,402.344,0.000
1737550644.868,0.977,-24.902,0.977,999.512,0.000
1737550644.872,-12.695,-31.738,-4.883,557.129,0.000
1737550644.876,-38.574,-21.973,-11.230,-586.426,0.000
1737550644.880,-16.602,-18.066,-14.648,-375.000,0.000
1737550644.883,41.016,-22.949,-26.367,853.516,0.000
1737550644.887,29.297,-18.555,-22.461,999.512,0.000
1737550644.891,24.414,-22.949,-19.043,825.195,0.000
1737550644.895,-9.766,-33.203,-11.719,202.637,0.000
1737550644.899,-27.832,-27.344,-2.930,122.070,0.000
1737550644.903,35.156,-21.484,-5.371,806.641,0.000
1737550644.907,74.707,-24.902,-22.461,999.512,0.000
1737550644.911,34.180,-22.461,-32.227,446.777,0.000
1737550644.915,-36.621,-20.508,-17.090,-728.027,0.000
1737550644.919,-28.320,-26.855,-13.184,-1000.000,0.000
1737550644.923,53.711,-26.367,-26.367,-275.391,0.000
1737550644.926,81.055,-21.484,-27.344,999.512,0.000
1737550644.930,-13.184,-33.203,-20.020,-13.184,0.000
1737550644.934,-55.176,-32.715,-19.531,-1000.000,0.000
1737550644.938,-54.199,-23.926,-21.973,-1000.000,0.000
1737550644.942,-45.410,-16.602,-29.785,-716.309,0.000
1737550644.946,55.176,-15.625,-22.949,715.820,0.000
1737550644.950,10.742,-25.391,-21.484,447.266,0.000
1737550644.954,-129.883,-22.461,-29.785,-908.691,0.000
1737550644.958,-115.234,-21.973,-29.297,-1000.000,0.000
1737550644.962,-59.570,-26.367,-30.273,-557.617,0.000
1737550644.965,-12.695,-20.996,-31.250,818.359,0.000
1737550644.969,-6.348,-13.672,-19.043,734.375,0.000
1737550644.973,-54.688,-14.648,-13.672,-551.270,0.000
1737550644.977,-62.012,-16.113,-23.438,-1000.000,0.000
1737550644.981,-16.602,-19.043,-19.043,-499.023,0.000
1737550644.985,51.758,-10.254,-10.742,799.316,0.000
1737550644.989,50.781,-5.371,-15.625,951.172,0.000
1737550644.993,-11.719,-18.066,-15.625,21.973,0.000
1737550644.997,-62.500,-6.836,-15.625,-987.793,0.000
1737550645.001,-37.109,-11.230,-22.949,-184.570,0.000
1737550645.005,15.137,-18.555,-23.926,999.512,0.000
1737550645.008,-5.371,-12.695,-30.762,996.582,0.000
1737550645.012,-30.273,-16.602,-34.668,370.605,0.000
1737550645.016,-71.777,-24.414,-13.672,-822.266,0.000
1737550645.020,-70.312,-29.785,0.000,-804.688,0.000
1737550645.024,10.742,-20.508,-3.906,559.082,0.000
1737550645.028,28.320,-14.648,-15.137,952.148,0.000
1737550645.032,-49.805,-22.949,-23.926,-331.055,0.000
1737550645.036,-103.516,-24.902,-23.926,-1000.000,0.000
1737550645.040,-119.629,-21.973,-30.762,-1000.000,0.000
1737550645.044,-44.922,-18.066,-26.367,-54.688,0.000
1737550645.048,67.871,-9.277,-21.973,910.156,0.000
1737550645.051,-24.414,-5.859,-23.438,-360.840,0.000
1737550645.055,-99.121,-12.207,-26.855,-1000.000,0.000
1737550645.059,-57.129,-21.973,-23.926,-1000.000,0.000
1737550645.063,-8.301,-20.508,-19.043,-294.922,0.000
1737550645.067,56.152,-17.578,-11.719,999.512,0.000
1737550645.071,12.207,-24.414,-9.766,431.152,0.000
1737550645.075,-66.406,-24.414,-22.461,-867.188,0.000
1737550645.079,-75.684,-20.020,-23.926,-1000.000,0.000
1737550645.083,-1.465,-10.254,-18.066,61.523,0.000
1737550645.087,60.059,4.395,-13.184,999.512,0.000
1737550645.090,-2.441,1.953,-12.207,397.461,0.000
1737550645.094,-95.703,-13.184,-31.250,-835.938,0.000
1737550645.098,-125.000,-17.090,-45.898,-1000.000,0.000
1737550645.102,-89.844,-27.832,-31.250,-595.215,0.000
1737550645.106,-18.555,-22.461,-22.461,832.520,0.000
1737550645.110,-71.289,-4.883,-21.973,377.441,0.000
1737550645.114,-127.441,-8.789,-18.555,-956.543,0.000
1737550645.118,-120.605,-11.230,-24.414,-1000.000,0.000
1737550645.122,-74.219,-10.254,-22.949,-242.676,0.000
1737550645.126,0.000,-7.324,-18.555,999.512,0.000
1737550645.130,-40.527,-11.230,-17.578,779.785,0.000
1737550645.133,-129.395,-20.508,-20.020,-347.656,0.000
1737550645.137,-189.941,-22.949,-21.973,-1000.000,0.000
1737550645.141,-156.250,-28.320,-18.066,-194.824,0.000
1737550645.145,-94.727,-30.273,-18.555,999.512,0.000
1737550645.149,-97.656,-15.137,-26.367,843.262,0.000
1737550645.153,-162.598,-11.719,-29.297,-260.254,0.000
1737550645.157,-209.961,-28.809,-25.879,-1000.000,0.000
1737550645.161,-165.527,-34.668,-28.320,-530.273,0.000
1737550645.165,-83.008,-21.973,-20.020,762.207,0.000
1737550645.169,-36.621,-16.113,-3.906,999.512,0.000
1737550645.173,-81.055,-15.137,-3.418,396.973,0.000
1737550645.176,-157.715,-12.695,-9.766,-733.887,0.000
1737550645.180,-131.836,-9.766,-21.973,-521.973,0.000
1737550645.184,-50.781,-16.602,-29.297,799.316,0.000
1737550645.188,-15.625,-20.508,-24.902,999.512,0.000
1737550645.192,-68.848,-19.043,-20.996,291.992,0.000
1737550645.196,-158.691,-32.227,-21.484,-859.863,0.000
1737550645.200,-134.277,-31.250,-31.250,-985.840,0.000
1737550645.204,-48.340,-12.695,-20.996,232.910,0.000
1737550645.208,-10.254,-7.812,-15.625,999.512,0.000
1737550645.212,-91.309,-23.438,-29.297,-137.207,0.000
1737550645.215,-151.855,-31.250,-31.738,-1000.000,0.000
1737550645.219,-128.906,-27.832,-31.738,-879.883,0.000
1737550645.223,-54.199,-10.254,-24.414,229.492,0.000
1737550645.227,-24.902,-6.348,-14.648,999.512,0.000
1737550645.231,-85.938,-16.602,-8.301,419.434,0.000
1737550645.235,-139.648,-20.020,-21.484,-817.383,0.000
1737550645.239,-148.926,-17.090,-32.227,-1000.000,0.000
1737550645.243,-73.242,-17.090,-22.949,41.504,0.000
1737550645.247,-11.719,-8.301,-23.926,999.512,0.000
1737550645.251,-82.520,-20.996,-34.180,128.906,0.000
