timestamps,TP9,AF7,AF8,TP10,Right AUX
1737550549.780,-33.203,-22.949,-9.766,-387.695,0.000
1737550549.784,-107.910,-27.832,-29.785,-1000.000,0.000
1737550549.787,-87.402,-14.648,-27.344,-480.469,0.000
1737550549.791,23.438,-10.742,-7.324,650.391,0.000
1737550549.795,22.949,-20.020,-12.695,502.441,0.000
1737550549.799,-19.043,-12.207,-30.762,-232.910,0.000
1737550549.803,-54.199,-23.926,-25.391,-792.969,0.000
1737550549.807,-46.875,-29.785,-12.695,-387.207,0.000
1737550549.811,2.441,-10.742,-11.719,697.266,0.000
1737550549.815,8.789,-10.254,-17.090,659.180,0.000
1737550549.819,-17.090,-2.930,-22.949,-139.648,0.000
1737550549.822,-66.895,-12.695,-28.809,-885.254,0.000
1737550549.827,-62.500,-20.996,-54.688,-770.996,0.000
1737550549.830,20.020,-13.672,-41.016,404.297,0.000
1737550549.834,29.785,-18.555,-14.160,670.410,0.000
1737550549.838,-26.855,-14.160,-26.367,-183.594,0.000
1737550549.842,-61.035,-5.859,-27.344,-958.496,0.000
1737550549.846,-49.805,-16.113,-8.789,-698.242,0.000
1737550549.850,13.672,-21.973,-15.137,597.168,0.000
1737550549.854,27.344,-16.602,-34.668,857.422,0.000
1737550549.858,-14.160,-42.969,-23.926,84.473,0.000
1737550549.862,-71.777,-37.109,-24.414,-722.656,0.000
1737550549.865,-81.543,5.859,-40.039,-634.277,0.000
1737550549.869,-6.348,6.836,-22.949,586.914,0.000
1737550549.873,25.391,-10.254,9.766,920.898,0.000
1737550549.877,-5.859,-21.973,5.859,41.992,0.000
1737550549.881,-73.242,-27.344,-12.695,-851.562,0.000
1737550549.885,-94.727,-36.133,-12.207,-891.113,0.000
1737550549.889,-4.883,-30.273,-25.391,256.348,0.000
1737550549.893,48.828,-12.207,-19.531,976.562,0.000
1737550549.897,7.812,4.883,-17.578,276.855,0.000
1737550549.901,-49.805,-14.648,-29.785,-689.453,0.000
1737550549.905,-76.660,-23.438,-18.555,-1000.000,0.000
1737550549.908,-18.066,-13.672,-12.207,-79.102,0.000
1737550549.912,43.457,-23.438,-17.090,787.598,0.000
1737550549.916,19.531,-18.555,-19.043,280.273,0.000
1737550549.920,-37.598,-17.578,-19.043,-580.566,0.000
1737550549.924,-76.172,-31.738,-17.090,-1000.000,0.000
1737550549.928,-14.160,-26.855,-26.367,-130.371,0.000
1737550549.932,36.621,-10.742,-37.598,987.305,0.000
1737550549.936,11.719,-11.230,-29.297,521.973,0.000
1737550549.940,-26.855,-29.297,-31.738,-577.637,0.000
1737550549.944,-75.684,-29.785,-27.832,-1000.000,0.000
1737550549.948,-42.480,-22.949,-18.555,-344.238,0.000
1737550549.951,19.043,-19.531,-16.602,730.957,0.000
1737550549.955,20.020,-14.648,-21.484,521.973,0.000
1737550549.959,-20.996,-22.949,-26.367,-329.590,0.000
1737550549.963,-76.660,-15.625,-9.766,-958.984,0.000
1737550549.967,-57.617,-7.812,-17.578,-169.922,0.000
1737550549.971,17.090,-7.324,-30.762,985.352,0.000
1737550549.975,23.926,-6.836,-7.812,802.734,0.000
1737550549.979,-35.645,-21.484,10.254,-137.207,0.000
1737550549.983,-103.027,-29.785,-3.418,-1000.000,0.000
1737550549.987,-74.219,-13.672,-25.879,-514.648,0.000
1737550549.990,-3.418,-11.230,-22.461,794.922,0.000
1737550549.994,15.137,-14.160,-20.996,683.594,0.000
1737550549.998,-19.043,-17.578,-29.297,-360.840,0.000
1737550550.002,-74.707,-23.438,-35.156,-1000.000,0.000
1737550550.006,-58.105,-18.066,-30.762,-739.258,0.000
1737550550.010,11.230,-20.020,-10.742,440.430,0.000
1737550550.014,36.621,-31.250,-17.578,731.445,0.000
1737550550.018,-19.043,-19.531,-21.484,-82.520,0.000
1737550550.022,-92.285,-11.230,-23.438,-855.469,0.000
1737550550.026,-93.750,-27.832,-41.504,-851.562,0.000
1737550550.030,-20.996,-27.344,-26.367,308.105,0.000
1737550550.033,24.414,-15.137,-5.859,922.852,0.000
1737550550.037,-3.906,-12.695,-3.906,207.520,0.000
1737550550.041,-80.078,-19.531,-18.066,-774.414,0.000
1737550550.045,-97.168,-24.902,-26.855,-934.082,0.000
1737550550.049,-25.391,-33.691,-23.438,169.922,0.000
1737550550.053,16.113,-24.902,-20.996,801.270,0.000
1737550550.057,7.324,-8.301,-10.742,106.934,0.000
1737550550.061,-51.270,-1.953,-13.672,-712.891,0.000
1737550550.065,-74.707,-10.254,-28.809,-1000.000,0.000
1737550550.069,-32.227,-29.785,-24.414,-47.363,0.000
1737550550.072,8.301,-23.438,-9.766,808.594,0.000
1737550550.076,3.906,-18.555,-21.973,428.223,0.000
1737550550.080,-50.293,-23.438,-28.809,-305.664,0.000
1737550550.084,-92.285,-12.695,-6.836,-722.656,0.000
1737550550.088,-24.414,-8.789,3.906,175.781,0.000
1737550550.092,40.527,-7.812,-5.371,999.512,0.000
1737550550.096,5.859,-16.113,-22.949,620.117,0.000
1737550550.100,-45.898,-19.043,-33.203,-378.418,0.000
1737550550.104,-94.238,-19.531,-26.855,-1000.000,0.000
1737550550.108,-41.504,-25.879,-28.320,-325.684,0.000
1737550550.112,31.738,-33.203,-35.156,773.438,0.000
1737550550.115,1.953,-31.738,-9.277,448.242,0.000
1737550550.119,-39.551,-26.367,-9.277,-420.898,0.000
1737550550.123,-84.961,-20.508,-20.020,-1000.000,0.000
1737550550.127,-55.664,-10.742,-11.230,-447.266,0.000
1737550550.131,19.043,-11.230,-26.855,751.465,0.000
1737550550.135,5.371,-13.184,-32.715,532.227,0.000
1737550550.139,-25.879,-30.762,-21.973,-342.773,0.000
1737550550.143,-50.293,-36.133,-18.066,-893.555,0.000
1737550550.147,-39.062,-19.531,-20.996,-263.184,0.000
1737550550.151,23.438,-17.090,-19.043,877.441,0.000
1737550550.155,31.250,-14.160,-17.090,806.641,0.000
1737550550.158,-4.395,-16.602,-17.090,32.715,0.000
1737550550.162,-62.988,-21.973,-10.742,-844.238,0.000
1737550550.166,-62.012,-11.230,-10.742,-643.555,0.000
1737550550.170,11.719,-2.930,-13.184,623.047,0.000
1737550550.174,34.180,-9.766,-24.902,918.457,0.000
1737550550.178,-24.902,-23.438,-24.414,161.133,0.000
1737550550.182,-87.402,-31.250,-17.090,-804.199,0.000
1737550550.186,-77.637,-35.156,-15.137,-786.621,0.000
1737550550.190,-0.488,-29.785,-17.090,489.746,0.000
1737550550.194,29.785,-19.043,-13.184,876.465,0.000
1737550550.197,2.930,-21.484,-15.625,156.250,0.000
1737550550.201,-54.199,-29.297,-25.391,-705.078,0.000
1737550550.205,-78.613,-32.227,-30.273,-807.129,0.000
1737550550.209,3.906,-38.086,-17.578,417.969,0.000
1737550550.213,58.594,-46.875,-10.742,999.512,0.000
1737550550.217,15.625,-38.574,-24.414,356.445,0.000
1737550550.221,-55.176,-13.672,-27.344,-645.996,0.000
1737550550.225,-66.895,-16.113,-27.344,-930.664,0.000
1737550550.229,2.441,-24.902,-33.691,202.637,0.000
1737550550.233,44.434,-20.508,-30.273,991.699,0.000
1737550550.236,32.715,-27.832,-33.691,395.508,0.000
1737550550.240,-19.531,-24.414,-34.180,-553.223,0.000
1737550550.244,-38.086,-23.926,-38.086,-773.438,0.000
1737550550.248,7.812,-29.785,-30.273,330.078,0.000
1737550550.252,42.969,-22.461,-0.488,999.512,0.000
1737550550.256,39.551,-19.531,9.277,704.590,0.000
1737550550.260,-17.578,-25.879,-3.418,-212.891,0.000
1737550550.264,-77.148,-34.180,-11.230,-776.855,0.000
1737550550.268,-30.273,-17.090,-17.578,208.008,0.000
1737550550.272,46.875,-8.301,-21.973,999.512,0.000
1737550550.276,40.527,-18.555,-16.113,555.664,0.000
1737550550.279,-9.277,-15.625,-20.508,-397.461,0.000
1737550550.283,-43.945,-24.414,-27.344,-1000.000,0.000
1737550550.287,-10.254,-30.762,-8.789,-232.910,0.000
1737550550.291,59.570,-14.160,-10.742,961.914,0.000
1737550550.295,39.062,-3.906,-30.762,694.336,0.000
1737550550.299,-21.973,-6.836,-23.438,-148.438,0.000
1737550550.303,-41.504,-14.160,-17.090,-854.980,0.000
1737550550.307,-26.855,-28.809,-0.488,-196.777,0.000
1737550550.311,10.742,-32.227,2.441,941.406,0.000
1737550550.315,61.035,-27.832,-6.348,895.996,0.000
1737550550.319,23.926,-31.250,-4.395,243.652,0.000
1737550550.322,-75.684,-23.926,-9.766,-718.262,0.000
1737550550.326,-79.590,-10.742,-27.832,-461.426,0.000
1737550550.330,-15.625,-6.348,-27.832,784.180,0.000
1737550550.334,22.949,-13.184,-16.602,768.066,0.000
1737550550.338,6.348,-19.531,-16.602,-228.027,0.000
1737550550.342,-47.852,-13.672,-22.461,-992.676,0.000
1737550550.346,-49.805,-20.996,-26.855,-763.184,0.000
1737550550.350,12.695,-25.391,-21.484,258.301,0.000
1737550550.354,40.039,-23.438,-12.695,328.613,0.000
1737550550.358,-1.465,-26.855,-10.254,-498.047,0.000
1737550550.362,-61.035,-14.648,-21.973,-1000.000,0.000
1737550550.365,-84.473,-18.555,-19.531,-813.965,0.000
1737550550.369,12.207,-19.043,-9.766,354.492,0.000
1737550550.373,74.707,-9.277,-20.996,943.359,0.000
1737550550.377,23.926,-14.648,-19.043,351.074,0.000
1737550550.381,-35.156,-15.137,-21.484,-517.090,0.000
1737550550.385,-65.430,-18.555,-33.203,-668.457,0.000
1737550550.389,-16.113,-14.648,-15.137,443.848,0.000
1737550550.393,40.039,-9.277,0.000,999.512,0.000
1737550550.397,35.645,-24.902,0.000,618.164,0.000
1737550550.401,-29.785,-20.508,-4.395,-295.410,0.000
1737550550.405,-88.379,-6.348,-6.836,-587.402,0.000
1737550550.408,-10.254,-4.395,-6.348,435.547,0.000
1737550550.412,52.734,-9.766,-15.625,999.512,0.000
1737550550.416,13.184,-26.367,-18.555,370.117,0.000
1737550550.420,-61.523,-24.414,-17.578,-601.074,0.000
1737550550.424,-109.375,-12.207,-31.250,-1000.000,0.000
1737550550.428,-56.641,-16.602,-24.414,-173.340,0.000
1737550550.432,12.207,-26.855,-4.395,861.816,0.000
1737550550.436,5.371,-25.879,-16.113,501.953,0.000
1737550550.440,-18.555,-9.766,-25.391,-426.270,0.000
1737550550.444,-68.359,-11.230,-26.367,-1000.000,0.000
1737550550.447,-32.227,-13.672,-15.137,-417.969,0.000
1737550550.451,13.672,-17.578,-7.812,541.504,0.000
1737550550.455,5.859,-25.391,-25.879,244.141,0.000
1737550550.459,-15.137,-23.438,-25.879,-519.531,0.000
1737550550.463,-73.242,-31.250,-23.438,-1000.000,0.000
1737550550.467,-47.852,-29.297,-17.090,-476.562,0.000
1737550550.471,17.090,-22.461,-6.836,716.797,0.000
1737550550.475,16.113,-30.273,-9.766,691.895,0.000
1737550550.479,-28.809,-21.973,-18.555,-57.617,0.000
1737550550.483,-66.895,-28.320,-23.438,-791.992,0.000
1737550550.487,-45.410,-33.691,-30.273,-400.879,0.000
1737550550.490,23.926,-22.461,-36.621,745.117,0.000
1737550550.494,20.020,-18.555,-32.715,725.098,0.000
1737550550.498,-37.109,-17.090,-22.949,-113.281,0.000
1737550550.502,-93.262,-22.461,-16.113,-886.230,0.000
1737550550.506,-78.613,-27.344,-22.949,-705.078,0.000
1737550550.510,12.695,-22.461,-15.625,567.383,0.000
1737550550.514,38.086,-10.254,-6.836,838.379,0.000
1737550550.518,-1.465,-11.719,-10.254,48.340,0.000
1737550550.522,-68.848,-17.090,-25.879,-786.621,0.000
1737550550.526,-76.660,-16.113,-37.598,-784.668,0.000
1737550550.530,8.301,-13.184,-49.316,457.031,0.000
1737550550.533,29.297,-15.625,-50.293,942.383,0.000
1737550550.537,-4.395,-14.648,-24.902,344.238,0.000
1737550550.541,-53.223,-13.184,-18.066,-556.152,0.000
1737550550.545,-80.078,-15.625,-15.625,-733.887,0.000
1737550550.549,-4.883,-11.230,-8.301,461.914,0.000
1737550550.553,27.832,-12.695,-11.230,949.707,0.000
1737550550.557,-6.836,-27.344,-19.531,247.559,0.000
1737550550.561,-60.547,-30.762,-27.344,-654.785,0.000
1737550550.565,-84.961,-26.855,-34.668,-941.895,0.000
1737550550.569,-9.277,-20.996,-31.738,147.949,0.000
1737550550.572,42.480,-18.066,-34.668,947.754,0.000
1737550550.576,31.738,-2.930,-24.902,500.488,0.000
1737550550.580,-36.133,0.977,-14.648,-422.852,0.000
1737550550.584,-68.848,-7.812,-6.348,-955.078,0.000
1737550550.588,-0.977,-12.695,3.906,102.539,0.000
1737550550.592,19.531,-17.578,-1.465,941.406,0.000
1737550550.596,-5.859,-2.930,-12.207,355.469,0.000
1737550550.600,-47.363,0.000,-19.531,-526.367,0.000
1737550550.604,-82.031,-19.043,-19.043,-1000.000,0.000
1737550550.608,-31.250,-18.555,-26.855,-189.453,0.000
1737550550.612,17.090,-12.207,-28.320,672.363,0.000
1737550550.615,4.395,-14.648,-16.113,300.293,0.000
1737550550.619,-37.598,-14.160,-15.137,-418.945,0.000
1737550550.623,-72.754,-18.555,-16.602,-1000.000,0.000
1737550550.627,-34.180,-14.160,-17.090,-423.828,0.000
1737550550.631,45.898,-6.348,-17.578,826.660,0.000
1737550550.635,42.480,-16.113,-14.160,645.996,0.000
1737550550.639,-13.672,-25.391,-22.949,-462.891,0.000
1737550550.643,-60.059,-23.438,-35.156,-1000.000,0.000
1737550550.647,-45.410,-12.695,-35.156,-431.152,0.000
1737550550.651,20.996,-4.395,-24.902,742.188,0.000
1737550550.655,15.625,-15.625,-34.180,676.270,0.000
1737550550.658,-31.250,-31.738,-32.715,-105.469,0.000
1737550550.662,-79.590,-26.855,-9.277,-802.734,0.000
1737550550.666,-59.570,-19.531,-1.465,-396.973,0.000
1737550550.670,3.418,-30.273,-4.395,784.180,0.000
1737550550.674,32.227,-32.227,-3.906,913.086,0.000
1737550550.678,-7.812,-18.555,0.000,257.324,0.000
1737550550.682,-97.656,-28.809,-8.301,-711.426,0.000
1737550550.686,-94.238,-37.109,-16.602,-838.867,0.000
1737550550.690,-5.371,-12.207,-17.578,413.574,0.000
1737550550.694,27.344,-3.906,-18.555,908.691,0.000
1737550550.697,-8.301,-21.484,-29.297,123.047,0.000
1737550550.701,-73.730,-28.320,-25.391,-786.621,0.000
1737550550.705,-93.262,-20.996,-11.230,-831.055,0.000
1737550550.709,-3.906,-26.367,-8.301,409.668,0.000
1737550550.713,35.156,-21.973,-10.254,987.305,0.000
1737550550.717,7.812,-20.020,-8.789,315.918,0.000
1737550550.721,-60.059,-19.043,-13.672,-658.203,0.000
1737550550.725,-73.730,-10.254,-22.949,-871.582,0.000
1737550550.729,-9.766,-8.301,-22.461,312.012,0.000
1737550550.733,13.672,-8.789,-17.578,942.383,0.000
1737550550.737,14.160,-28.809,-14.160,298.828,0.000
1737550550.740,-41.016,-32.227,-12.695,-587.402,0.000
1737550550.744,-76.172,-24.902,-17.090,-952.637,0.000
1737550550.748,-4.395,-28.809,-20.020,158.691,0.000
1737550550.752,50.781,-17.090,-12.207,999.512,0.000
1737550550.756,15.625,-14.160,-13.184,442.871,0.000
1737550550.760,-47.852,-21.973,-20.508,-581.055,0.000
1737550550.764,-82.031,-26.367,-25.391,-1000.000,0.000
1737550550.768,-34.668,-29.785,-26.855,-51.758,0.000
1737550550.772,18.555,-19.531,-21.484,989.746,0.000
1737550550.776,7.324,-12.207,-9.766,626.465,0.000
1737550550.780,-32.715,-23.438,-4.395,-312.012,0.000
1737550550.783,-68.848,-35.645,-10.742,-930.664,0.000
1737550550.787,-42.969,-29.297,-16.113,-184.570,0.000
1737550550.791,18.555,-8.301,-15.625,834.961,0.000
1737550550.795,21.973,-7.812,-12.207,590.820,0.000
1737550550.799,-24.902,-17.578,-16.602,-297.852,0.000
1737550550.803,-77.148,-21.973,-24.414,-1000.000,0.000
1737550550.807,-66.406,-21.973,-17.578,-497.070,0.000
1737550550.811,5.859,-16.113,-27.344,606.934,0.000
1737550550.815,19.531,-18.066,-23.926,587.402,0.000
1737550550.819,-27.344,-26.855,-17.090,-97.656,0.000
1737550550.822,-88.379,-37.598,-32.715,-945.312,0.000
1737550550.826,-61.523,-31.250,-28.320,-587.402,0.000
1737550550.830,20.020,-23.438,-17.578,743.164,0.000
1737550550.834,28.320,-33.203,-6.836,810.059,0.000
1737550550.838,-11.719,-19.531,0.977,-173.828,0.000
1737550550.842,-69.824,-6.348,-6.836,-983.887,0.000
1737550550.846,-74.219,-6.836,-7.324,-744.141,0.000
1737550550.850,5.859,-9.277,-10.254,433.105,0.000
1737550550.854,39.551,-7.812,-14.160,691.406,0.000
1737550550.858,0.977,-10.742,-17.578,52.734,0.000
1737550550.862,-50.293,-24.902,-26.367,-647.949,0.000
1737550550.865,-65.918,-22.949,-25.879,-535.645,0.000
1737550550.869,-4.883,-7.324,-28.320,614.746,0.000
1737550550.873,37.109,0.977,-32.715,992.676,0.000
1737550550.877,11.230,-4.883,-19.531,580.078,0.000
1737550550.881,-47.852,-17.090,-5.371,-313.965,0.000
1737550550.885,-62.500,-34.668,-11.719,-675.781,0.000
1737550550.889,-8.789,-35.645,-15.625,418.457,0.000
1737550550.893,25.879,-11.719,-13.672,999.512,0.000
1737550550.897,-12.207,-5.371,-17.578,248.535,0.000
1737550550.901,-83.984,-13.184,-27.344,-726.562,0.000
1737550550.905,-88.379,-9.766,-28.320,-1000.000,0.000
1737550550.908,-34.668,-17.090,-25.879,-139.160,0.000
1737550550.912,5.371,-18.066,-29.297,576.660,0.000
1737550550.916,-0.977,-13.672,-25.879,13.672,0.000
1737550550.920,-41.016,-19.043,-19.043,-725.586,0.000
1737550550.924,-62.012,-14.648,-13.672,-978.027,0.000
1737550550.928,-6.836,-31.738,-17.578,60.547,0.000
1737550550.932,55.664,-37.598,-31.738,999.512,0.000
1737550550.936,46.875,-12.207,-28.809,691.406,0.000
1737550550.940,-28.320,-3.906,-13.184,-214.355,0.000
1737550550.944,-80.566,-20.020,-1.465,-812.988,0.000
1737550550.947,-27.344,-24.902,-5.371,113.770,0.000
1737550550.951,41.992,-9.277,-18.555,999.512,0.000
1737550550.955,21.973,-10.254,-8.789,792.480,0.000
1737550550.959,-34.180,-8.301,11.230,52.734,0.000
1737550550.963,-64.941,-19.531,-0.977,-732.910,0.000
1737550550.967,-36.133,-30.273,-32.715,-229.492,0.000
1737550550.971,26.855,-28.320,-29.297,877.441,0.000
1737550550.975,25.391,-17.578,-15.137,757.812,0.000
1737550550.979,-28.809,0.977,-8.789,-181.641,0.000
1737550550.983,-99.609,-7.812,-10.254,-1000.000,0.000
1737550550.987,-73.730,-10.742,-18.555,-527.344,0.000
1737550550.990,15.137,-8.301,-24.414,760.254,0.000
1737550550.994,20.996,-9.766,-25.879,796.387,0.000
1737550550.998,-25.391,-18.555,-21.484,-48.340,0.000
1737550551.002,-71.777,-30.273,-9.277,-888.672,0.000
1737550551.006,-60.059,-34.668,-13.184,-598.145,0.000
1737550551.010,20.508,-23.926,-17.578,687.500,0.000
1737550551.014,35.645,-8.789,-9.277,878.418,0.000
1737550551.018,-11.230,-6.348,-9.766,221.680,0.000
1737550551.022,-65.918,-9.277,-18.555,-614.258,0.000
1737550551.026,-71.777,-14.648,-21.973,-610.352,0.000
1737550551.029,-13.672,-17.090,-21.484,567.871,0.000
1737550551.033,28.320,-13.672,-35.156,979.980,0.000
1737550551.037,-17.090,-10.254,-23.438,366.699,0.000
1737550551.041,-80.078,-24.414,-22.461,-645.996,0.000
1737550551.045,-65.430,-29.297,-37.109,-904.785,0.000
1737550551.049,-1.465,-15.137,-11.719,284.180,0.000
1737550551.053,25.391,1.953,-5.859,952.148,0.000
1737550551.057,-10.254,-4.883,-13.184,273.438,0.000
1737550551.061,-68.359,-21.973,-12.695,-714.844,0.000
1737550551.065,-92.285,-17.578,-24.414,-892.090,0.000
1737550551.069,-12.695,-6.836,-33.203,314.453,0.000
1737550551.072,31.250,-17.578,-36.133,991.211,0.000
1737550551.076,11.230,-28.809,-22.949,434.082,0.000
1737550551.080,-21.484,-16.602,-20.020,-490.723,0.000
1737550551.084,-75.684,-24.414,-21.973,-1000.000,0.000
1737550551.088,-34.180,-25.879,-17.090,-99.609,0.000
1737550551.092,6.348,-20.508,-22.461,851.074,0.000
1737550551.096,-17.578,-17.578,-19.531,321.777,0.000
1737550551.100,-40.527,-16.113,-15.137,-592.773,0.000
1737550551.104,-59.082,-22.949,-19.043,-1000.000,0.000
1737550551.108,-22.461,-16.602,-27.344,-105.957,0.000
1737550551.112,28.320,-6.836,-29.785,973.633,0.000
1737550551.115,13.672,-14.648,-22.949,659.180,0.000
1737550551.119,-41.992,-14.648,-28.809,-395.508,0.000
1737550551.123,-89.844,-6.836,-30.762,-1000.000,0.000
1737550551.127,-44.922,-13.184,-28.809,-271.484,0.000
1737550551.131,22.461,-20.996,-28.809,791.992,0.000
1737550551.135,3.906,-30.762,-20.020,491.211,0.000
1737550551.139,-45.898,-21.484,-17.578,-376.953,0.000
1737550551.143,-83.496,-14.160,-18.066,-1000.000,0.000
1737550551.147,-40.527,-20.508,-16.113,-417.969,0.000
1737550551.151,15.137,-29.785,-25.391,830.566,0.000
1737550551.155,10.254,-35.156,-38.086,625.977,0.000
1737550551.158,-13.184,-19.043,-46.875,-171.875,0.000
1737550551.162,-68.848,-5.859,-43.457,-875.977,0.000
1737550551.166,-50.293,-14.648,-24.414,-649.414,0.000
1737550551.170,28.320,-25.879,-16.113,482.422,0.000
1737550551.174,39.551,-10.742,-14.160,557.617,0.000
1737550551.178,-8.789,-9.277,-14.160,-221.191,0.000
1737550551.182,-66.895,-22.461,-11.230,-954.590,0.000
1737550551.186,-62.500,-22.949,-20.996,-604.980,0.000
1737550551.190,12.695,-12.695,-35.645,649.414,0.000
1737550551.194,54.199,-12.695,-37.109,934.082,0.000
1737550551.197,27.832,-22.949,-31.738,249.023,0.000
1737550551.201,-59.082,-34.180,-31.250,-714.355,0.000
1737550551.205,-96.680,-34.180,-23.926,-709.961,0.000
1737550551.209,-32.715,-16.113,-13.184,544.922,0.000
1737550551.213,8.301,-20.020,1.953,885.254,0.000
1737550551.217,-13.184,-44.434,8.301,172.852,0.000
1737550551.221,-77.148,-44.922,6.836,-685.059,0.000
1737550551.225,-111.816,-34.180,2.930,-834.473,0.000
1737550551.229,-55.176,-34.668,-15.137,266.113,0.000
1737550551.233,-1.465,-28.320,-27.344,779.297,0.000
1737550551.237,-9.766,-27.832,-15.137,137.207,0.000
1737550551.240,-58.594,-22.949,-11.719,-550.293,0.000
1737550551.244,-105.469,-25.391,-19.531,-778.320,0.000
1737550551.248,-38.574,-23.926,-12.695,127.930,0.000
1737550551.252,13.672,-25.879,-8.301,859.863,0.000
1737550551.256,-18.066,-36.133,-6.836,307.617,0.000
1737550551.260,-51.758,-37.109,-13.672,-627.930,0.000
1737550551.264,-71.289,-30.273,-16.113,-980.469,0.000
1737550551.268,-38.086,-14.648,-32.715,-41.016,0.000
1737550551.272,25.391,-18.555,-38.086,754.395,0.000
1737550551.276,21.484,-31.250,-6.836,279.785,0.000
1737550551.280,-33.691,-26.367,2.441,-496.094,0.000
1737550551.283,-54.199,-20.020,-7.324,-983.398,0.000
1737550551.287,-23.926,-15.625,-12.207,-220.703,0.000
1737550551.291,33.203,-11.719,-17.090,844.727,0.000
1737550551.295,41.016,-8.789,-19.531,610.840,0.000
1737550551.299,-3.418,-17.090,-22.461,-145.020,0.000
1737550551.303,-53.223,-28.320,-42.969,-755.371,0.000
1737550551.307,-39.062,-21.973,-40.527,-221.680,0.000
1737550551.311,11.230,-15.625,-3.418,879.395,0.000
1737550551.315,-2.441,-12.207,16.602,666.992,0.000
1737550551.319,-30.273,-14.160,10.254,-194.336,0.000
1737550551.322,-59.570,-22.461,-3.418,-876.953,0.000
1737550551.326,-49.316,-26.367,-7.324,-432.617,0.000
1737550551.330,11.230,-20.020,-12.695,804.199,0.000
1737550551.334,4.883,-20.020,-20.996,729.980,0.000
1737550551.338,-27.344,-20.508,-31.738,-95.703,0.000
1737550551.342,-56.152,-21.484,-44.922,-781.738,0.000
1737550551.346,-43.945,-33.203,-42.480,-489.746,0.000
1737550551.350,8.789,-24.414,-16.602,720.703,0.000
1737550551.354,39.551,-15.625,4.395,833.984,0.000
1737550551.358,0.977,-16.113,1.953,8.301,0.000
1737550551.361,-80.078,-16.113,-0.488,-832.031,0.000
1737550551.365,-83.496,-18.555,-8.789,-789.062,0.000
1737550551.369,-11.230,-18.066,-24.902,380.371,0.000
1737550551.373,25.391,-26.855,-20.996,741.211,0.000
1737550551.377,-2.930,-20.508,-16.113,69.824,0.000
1737550551.381,-51.270,-31.738,-31.738,-746.094,0.000
1737550551.385,-70.312,-42.480,-41.016,-822.266,0.000
1737550551.389,-1.465,-18.066,-28.809,373.047,0.000
1737550551.393,42.969,-7.324,-18.555,999.512,0.000
1737550551.397,10.742,-9.766,-12.207,399.414,0.000
1737550551.401,-49.805,-24.414,-8.301,-583.984,0.000
1737550551.404,-74.707,-29.297,-9.766,-856.445,0.000
1737550551.408,-13.672,-23.926,-10.254,275.391,0.000
1737550551.412,25.879,-30.762,-12.207,915.039,0.000
1737550551.416,-11.230,-31.250,-20.020,229.492,0.000
1737550551.420,-47.363,-23.438,-21.484,-626.465,0.000
1737550551.424,-63.965,-16.113,-12.207,-938.965,0.000
1737550551.428,-39.551,-26.855,-6.836,12.695,0.000
1737550551.432,9.277,-30.273,-31.250,732.422,0.000
1737550551.436,16.602,-3.418,-25.391,290.527,0.000
1737550551.440,-20.020,-5.371,-2.441,-430.664,0.000
1737550551.444,-73.242,-25.391,-16.602,-1000.000,0.000
1737550551.447,-52.734,-25.879,-15.137,-406.250,0.000
1737550551.451,16.602,-21.973,-10.254,575.684,0.000
1737550551.455,13.672,-30.762,-25.391,293.457,0.000
1737550551.459,-34.180,-29.785,-23.926,-477.539,0.000
1737550551.463,-84.961,-26.855,-21.484,-1000.000,0.000
1737550551.467,-57.129,-37.109,-23.926,-402.344,0.000
1737550551.471,30.273,-36.133,-28.809,793.945,0.000
1737550551.475,34.668,-20.020,-24.414,585.449,0.000
1737550551.479,-37.109,-11.719,-16.602,-453.613,0.000
1737550551.483,-96.680,-16.113,-25.879,-1000.000,0.000
1737550551.487,-56.152,-9.766,-21.484,-416.992,0.000
1737550551.490,11.719,-12.695,-20.996,755.859,0.000
1737550551.494,2.930,-25.879,-21.484,452.148,0.000
1737550551.498,-28.809,-24.414,-20.996,-460.449,0.000
1737550551.502,-54.688,-29.785,-30.273,-1000.000,0.000
1737550551.506,-44.434,-28.809,-15.625,-648.926,0.000
1737550551.510,4.395,-20.508,-8.789,441.895,0.000
1737550551.514,9.766,-19.531,-21.973,396.484,0.000
1737550551.518,-22.461,-24.414,-20.996,-405.762,0.000
1737550551.522,-47.363,-17.578,-22.949,-956.055,0.000
1737550551.526,-51.758,-7.324,-29.297,-795.898,0.000
1737550551.529,-1.953,-14.648,-18.066,153.809,0.000
1737550551.533,25.879,-19.043,-18.066,448.242,0.000
1737550551.537,-1.953,-15.137,-27.344,-243.164,0.000
1737550551.541,-36.133,-11.719,-42.480,-939.453,0.000
1737550551.545,-49.805,-15.625,-43.945,-881.348,0.000
1737550551.549,2.930,-10.742,-18.555,247.559,0.000
1737550551.553,37.109,-6.836,-12.695,804.199,0.000
1737550551.557,-5.371,-9.277,-22.461,164.062,0.000
1737550551.561,-52.246,-11.719,-30.273,-667.480,0.000
1737550551.565,-50.781,-9.277,-32.715,-833.008,0.000
1737550551.569,-9.277,-9.766,-36.621,327.148,0.000
1737550551.572,21.484,-8.789,-37.598,916.992,0.000
1737550551.576,18.555,3.906,-30.762,281.250,0.000
1737550551.580,-31.738,6.836,-30.762,-519.531,0.000
1737550551.584,-62.012,-4.883,-51.270,-868.164,0.000
1737550551.588,-10.254,-14.648,-46.875,72.754,0.000
1737550551.592,33.691,-12.207,-18.555,841.797,0.000
1737550551.596,17.090,-9.277,-13.672,292.480,0.000
1737550551.600,-35.156,-24.902,-20.508,-563.477,0.000
1737550551.604,-68.359,-29.785,-19.043,-971.680,0.000
1737550551.608,-12.695,-3.906,-18.066,-58.105,0.000
1737550551.611,41.992,4.395,-33.691,814.453,0.000
1737550551.615,12.695,-11.719,-37.598,329.590,0.000
1737550551.619,-42.480,-20.020,-26.367,-542.480,0.000
1737550551.623,-64.453,-16.602,-19.531,-1000.000,0.000
1737550551.627,-38.574,-16.602,-31.250,-292.480,0.000
1737550551.631,4.883,-17.578,-44.434,640.625,0.000
1737550551.635,21.484,-21.973,-25.879,364.746,0.000
1737550551.639,-21.973,-25.879,-22.949,-468.262,0.000
1737550551.643,-62.988,-21.973,-32.227,-1000.000,0.000
1737550551.646,-6.836,-3.418,-25.879,-326.660,0.000
1737550551.650,53.223,-5.859,-26.855,883.789,0.000
1737550551.654,47.852,-25.879,-25.391,818.359,0.000
1737550551.658,3.418,-29.785,-11.719,127.930,0.000
1737550551.662,-49.805,-22.461,-10.254,-568.359,0.000
1737550551.666,-48.340,-14.648,-24.414,-320.312,0.000
1737550551.670,12.207,-13.184,-20.996,693.848,0.000
1737550551.674,47.363,-4.883,-18.555,796.875,0.000
1737550551.678,-1.465,-10.742,-25.879,2.441,0.000
1737550551.682,-63.477,-21.484,-19.531,-882.812,0.000
1737550551.686,-56.641,-27.832,-14.648,-720.703,0.000
1737550551.689,5.371,-20.020,-18.555,512.695,0.000
1737550551.693,20.508,-15.137,-27.832,734.375,0.000
1737550551.697,-31.738,-31.738,-26.855,-39.551,0.000
1737550551.701,-69.824,-24.414,-31.738,-728.516,0.000
1737550551.705,-65.918,-13.184,-37.598,-609.863,0.000
1737550551.709,-14.160,-14.648,-26.367,534.180,0.000
1737550551.713,28.809,-17.578,-20.996,866.699,0.000
1737550551.717,16.113,-13.184,-16.602,258.301,0.000
1737550551.721,-49.805,-13.184,-18.555,-587.402,0.000
1737550551.725,-82.520,-21.484,-21.973,-895.020,0.000
1737550551.729,-10.742,-12.207,-16.113,167.480,0.000
1737550551.732,21.484,-13.672,-19.043,637.207,0.000
1737550551.736,-3.418,-22.949,-20.508,-3.418,0.000
1737550551.740,-37.109,-30.273,-18.066,-674.805,0.000
1737550551.744,-63.477,-25.391,-20.020,-690.430,0.000
1737550551.748,-16.113,-11.230,-21.973,416.992,0.000
1737550551.752,26.367,-9.766,-26.367,972.656,0.000
1737550551.756,-0.977,-6.348,-22.461,396.973,0.000
1737550551.760,-45.898,-16.113,-18.066,-441.406,0.000
1737550551.764,-76.660,-25.879,-21.973,-881.348,0.000
1737550551.768,-35.645,-11.719,-19.043,71.777,0.000
1737550551.772,23.438,-7.324,-9.277,864.258,0.000
1737550551.775,-1.953,-13.184,-13.184,291.504,0.000
1737550551.779,-52.734,-31.250,-21.484,-547.363,0.000
1737550551.783,-80.566,-33.691,-17.578,-1000.000,0.000
1737550551.787,-43.457,-15.625,-31.738,-230.957,0.000
1737550551.791,26.367,-5.371,-41.992,751.465,0.000
1737550551.795,13.184,-6.836,-18.066,412.598,0.000
1737550551.799,-39.551,-12.695,-15.625,-433.594,0.000
1737550551.803,-72.754,-14.160,-25.879,-1000.000,0.000
1737550551.807,-37.598,-11.230,-21.973,-211.426,0.000
1737550551.811,23.438,-11.719,-16.113,941.895,0.000
1737550551.815,18.555,-17.578,-16.113,786.621,0.000
1737550551.818,-13.184,-21.973,-12.695,-119.629,0.000
1737550551.822,-84.473,-27.344,-26.855,-1000.000,0.000
1737550551.826,-76.172,-29.297,-40.039,-575.195,0.000
1737550551.830,5.859,-19.531,-26.367,593.750,0.000
1737550551.834,16.602,-8.301,-15.137,625.000,0.000
1737550551.838,-6.836,-20.020,-24.414,-167.969,0.000
1737550551.842,-51.758,-28.809,-34.180,-917.969,0.000
1737550551.846,-42.480,-31.250,-18.555,-525.391,0.000
1737550551.850,19.531,-35.156,-28.320,638.672,0.000
1737550551.854,4.883,-18.555,-38.086,675.293,0.000
1737550551.857,-39.062,-5.859,-18.066,6.348,0.000
1737550551.861,-58.594,-0.488,-10.742,-595.215,0.000
1737550551.865,-27.832,-4.395,-17.578,-333.984,0.000
1737550551.869,15.137,-14.648,-21.484,720.215,0.000
1737550551.873,-2.930,-20.020,-21.484,832.031,0.000
1737550551.877,-30.762,-20.508,-27.832,41.016,0.000
1737550551.881,-52.734,-17.090,-28.320,-787.109,0.000
1737550551.885,-64.941,-16.113,-22.461,-793.945,0.000
1737550551.889,-26.855,-19.043,-14.648,287.109,0.000
1737550551.893,13.184,-21.484,-16.113,735.352,0.000
1737550551.897,-14.648,-26.367,-28.809,42.969,0.000
1737550551.900,-59.082,-28.320,-32.715,-770.508,0.000
1737550551.904,-87.891,-27.344,-19.043,-1000.000,0.000
1737550551.908,-20.508,-28.320,-15.625,-158.203,0.000
1737550551.912,21.973,-31.250,-22.949,308.594,0.000
1737550551.916,-22.949,-29.785,-23.438,-549.805,0.000
1737550551.920,-48.340,-22.949,-30.762,-1000.000,0.000
1737550551.924,-58.594,-18.066,-32.227,-972.168,0.000
1737550551.928,-23.438,-19.531,-20.020,-107.910,0.000
1737550551.932,30.762,-20.508,-16.113,790.039,0.000
1737550551.936,20.508,-18.066,-23.926,482.910,0.000
1737550551.939,-38.574,-18.066,-28.320,-224.609,0.000
1737550551.943,-79.590,-25.391,-23.926,-671.387,0.000
1737550551.947,-48.828,-19.043,-28.809,153.320,0.000
1737550551.951,7.812,-5.371,-32.715,999.512,0.000
1737550551.955,0.000,-7.812,-22.461,516.113,0.000
1737550551.959,-52.246,-20.996,-20.020,-474.609,0.000
1737550551.963,-103.027,-30.273,-34.668,-1000.000,0.000
1737550551.967,-86.426,-23.926,-29.297,-415.527,0.000
1737550551.971,-18.555,-18.066,0.000,712.402,0.000
1737550551.975,9.766,-18.555,-3.418,369.629,0.000
1737550551.978,-20.508,-23.926,-17.578,-616.211,0.000
1737550551.982,-72.754,-19.531,-22.949,-1000.000,0.000
1737550551.986,-62.012,-15.137,-20.996,-574.219,0.000
1737550551.990,10.742,-16.602,-19.531,478.027,0.000
1737550551.994,15.625,-18.066,-24.902,400.879,0.000
1737550551.998,-29.785,-19.043,-25.879,-286.133,0.000
1737550552.002,-62.500,-18.555,-35.645,-660.645,0.000
1737550552.006,-33.691,-24.902,-29.297,70.801,0.000
1737550552.010,13.184,-20.996,-20.508,977.051,0.000
1737550552.014,14.648,-19.043,-26.367,976.562,0.000
1737550552.018,9.766,-24.414,-16.113,889.160,0.000
1737550552.021,-33.203,-21.484,-12.207,285.645,0.000
1737550552.025,-44.922,-14.648,-15.625,388.672,0.000
1737550552.029,4.883,-8.789,-10.742,991.699,0.000
1737550552.033,19.043,-6.348,-16.602,977.051,0.000
1737550552.037,-1.465,-11.230,-16.113,684.082,0.000
1737550552.041,-45.410,-20.020,-12.207,-188.477,0.000
1737550552.045,-73.730,-22.949,-20.508,-466.797,0.000
1737550552.049,-21.484,-13.184,-22.949,527.832,0.000
1737550552.053,22.461,-5.859,-18.066,930.176,0.000
1737550552.057,-19.531,-10.254,-21.484,72.754,0.000
1737550552.061,-75.684,-34.668,-33.691,-855.957,0.000
1737550552.064,-76.660,-29.297,-30.762,-873.535,0.000
1737550552.068,-15.137,-9.766,-19.043,197.754,0.000
1737550552.072,7.812,-13.672,-10.742,741.699,0.000
1737550552.076,-22.949,-10.254,-4.883,333.496,0.000
1737550552.080,-67.871,-12.695,-11.719,-200.684,0.000
1737550552.084,-89.355,-24.414,-18.555,-246.582,0.000
1737550552.088,-34.180,-29.785,-23.438,600.586,0.000
1737550552.092,-2.441,-33.691,-28.809,999.512,0.000
1737550552.096,-20.020,-20.020,-18.066,837.402,0.000
1737550552.100,-72.266,-7.812,-10.742,0.977,0.000
1737550552.104,-120.605,-16.113,-19.531,-739.746,0.000
1737550552.107,-46.875,-18.555,-12.207,156.738,0.000
1737550552.111,27.832,-9.766,-1.465,999.512,0.000
1737550552.115,-25.879,-14.648,-4.395,359.863,0.000
1737550552.119,-83.984,-21.973,-9.766,-699.219,0.000
1737550552.123,-91.309,-21.973,-17.090,-1000.000,0.000
1737550552.127,-62.500,-20.508,-15.137,-691.895,0.000
1737550552.131,-2.441,-11.230,-10.742,12.695,0.000
1737550552.135,3.418,-12.695,-13.672,-276.367,0.000
1737550552.139,-33.203,-25.391,-16.113,-866.211,0.000
1737550552.143,-60.547,-25.391,-21.484,-1000.000,0.000
1737550552.147,-36.133,-11.230,-30.273,-310.547,0.000
1737550552.150,24.902,-8.789,-34.668,870.605,0.000
1737550552.154,62.012,-10.742,-27.344,999.512,0.000
1737550552.158,39.062,-8.301,-28.809,720.703,0.000
1737550552.162,-32.227,-17.578,-24.902,-242.188,0.000
1737550552.166,-25.879,-20.020,-6.836,-188.965,0.000
1737550552.170,10.254,-14.648,-10.742,851.074,0.000
1737550552.174,27.344,-20.996,-20.020,750.000,0.000
1737550552.178,14.648,-24.414,-9.277,6.836,0.000
1737550552.182,-64.941,-24.414,-8.789,-686.523,0.000
1737550552.186,-52.734,-28.320,-13.184,-468.750,0.000
1737550552.189,30.762,-13.184,-16.113,698.730,0.000
1737550552.193,20.020,-10.254,-18.555,856.934,0.000
1737550552.197,-19.043,-24.902,-15.625,48.828,0.000
1737550552.201,-50.781,-28.809,-32.227,-817.383,0.000
1737550552.205,-61.523,-20.508,-38.574,-598.145,0.000
1737550552.209,4.883,-7.324,-19.531,632.324,0.000
1737550552.213,42.969,-1.465,-15.625,960.938,0.000
1737550552.217,19.043,-1.465,-27.832,389.160,0.000
1737550552.221,-37.109,-4.395,-32.715,-558.105,0.000
1737550552.225,-58.594,-12.207,-27.344,-814.453,0.000
1737550552.229,-7.812,-20.996,-15.625,207.031,0.000
1737550552.232,31.738,-25.879,-12.695,688.965,0.000
1737550552.236,4.395,-20.020,-15.137,176.270,0.000
1737550552.240,-49.805,-15.137,-10.254,-407.715,0.000
1737550552.244,-50.781,-23.438,-9.766,-370.117,0.000
1737550552.248,12.207,-24.902,-11.230,575.195,0.000
1737550552.252,30.762,-11.719,-15.625,999.512,0.000
1737550552.256,-15.137,-14.648,-19.043,724.121,0.000
1737550552.260,-72.754,-24.902,-22.461,-20.508,0.000
1737550552.264,-78.125,-25.391,-23.926,-501.953,0.000
1737550552.268,-19.531,-20.020,-18.555,328.613,0.000
1737550552.271,20.508,-20.020,-15.625,999.512,0.000
1737550552.275,-2.441,-34.180,-16.602,494.629,0.000
1737550552.279,-45.410,-35.645,-20.020,-416.016,0.000
1737550552.283,-99.609,-22.949,-17.578,-982.910,0.000
1737550552.287,-49.805,-14.648,-22.949,-221.191,0.000
1737550552.291,18.555,-12.695,-31.250,548.828,0.000
1737550552.295,-19.043,-12.695,-25.391,162.109,0.000
1737550552.299,-40.039,-13.672,-11.719,-559.570,0.000
1737550552.303,-62.500,-14.648,-7.324,-1000.000,0.000
1737550552.307,-38.086,-13.672,-8.789,-396.484,0.000
1737550552.311,30.762,-3.906,-18.066,669.922,0.000
1737550552.314,30.273,-6.348,-28.320,470.215,0.000
1737550552.318,-25.391,-23.926,-20.020,-316.895,0.000
1737550552.322,-69.824,-38.086,-20.996,-990.234,0.000
1737550552.326,-64.941,-25.391,-26.367,-586.914,0.000
1737550552.330,-11.719,-6.836,-22.949,525.879,0.000
1737550552.334,16.602,-9.766,-19.043,400.879,0.000
1737550552.338,-21.484,-14.648,-14.160,-539.062,0.000
1737550552.342,-75.195,-24.414,-10.742,-1000.000,0.000
1737550552.346,-50.293,-20.020,-17.578,-659.180,0.000
1737550552.349,27.344,-3.418,-20.996,446.289,0.000
1737550552.353,41.504,-13.672,-17.578,497.070,0.000
1737550552.357,-1.465,-21.973,-12.695,-327.148,0.000
1737550552.361,-44.922,-21.973,-16.113,-956.543,0.000
1737550552.365,-46.387,-21.484,-29.785,-774.902,0.000
1737550552.369,31.738,-17.090,-22.949,453.125,0.000
1737550552.373,57.129,-18.066,-4.883,767.090,0.000
1737550552.377,7.324,-19.531,-11.230,48.828,0.000
1737550552.381,-44.434,-17.090,-16.602,-703.613,0.000
1737550552.385,-68.359,-17.578,-20.020,-833.008,0.000
1737550552.389,-9.766,-19.043,-31.250,233.398,0.000
1737550552.392,31.738,-23.438,-32.227,665.527,0.000
1737550552.396,-6.836,-26.855,-20.020,-118.164,0.000
1737550552.400,-70.312,-25.879,-13.184,-881.348,0.000
1737550552.404,-67.871,-27.832,-13.184,-899.902,0.000
1737550552.408,8.301,-23.926,-15.137,152.832,0.000
1737550552.412,33.691,-16.602,-13.672,696.289,0.000
1737550552.416,-6.836,-13.184,-9.277,105.957,0.000
1737550552.420,-55.176,-16.602,-13.672,-653.320,0.000
1737550552.424,-57.129,-15.137,-15.625,-871.582,0.000
1737550552.428,-13.672,-5.371,-17.090,179.688,0.000
1737550552.432,18.555,-5.371,-15.137,777.832,0.000
1737550552.436,9.277,-18.066,-14.648,222.168,0.000
1737550552.439,-42.480,-26.855,-34.668,-538.086,0.000
1737550552.443,-80.566,-32.715,-41.992,-887.695,0.000
1737550552.447,-29.297,-24.902,-20.996,89.844,0.000
1737550552.451,31.250,-14.648,-9.277,999.512,0.000
1737550552.455,-0.977,-14.648,-9.766,615.723,0.000
1737550552.459,-59.570,-15.625,-19.531,-227.539,0.000
1737550552.463,-76.660,-29.785,-23.438,-775.391,0.000
1737550552.467,-41.992,-22.949,-21.973,0.977,0.000
1737550552.471,24.902,-1.465,-21.484,999.512,0.000
1737550552.475,22.949,-2.441,-17.090,574.707,0.000
1737550552.478,-60.547,-21.973,-21.484,-480.469,0.000
1737550552.482,-92.285,-28.320,-26.367,-1000.000,0.000
1737550552.486,-54.688,-16.602,-28.809,-556.152,0.000
1737550552.490,-13.672,-10.254,-29.297,531.738,0.000
1737550552.494,1.465,-20.020,-30.762,484.375,0.000
1737550552.498,-4.395,-28.320,-13.672,-302.734,0.000
1737550552.502,-71.777,-16.602,-7.324,-979.492,0.000
1737550552.506,-83.496,-8.789,-24.902,-625.000,0.000
1737550552.510,16.113,-1.465,-37.598,552.246,0.000
1737550552.514,46.875,-5.859,-34.180,564.941,0.000
1737550552.518,0.977,-16.602,-21.973,-151.367,0.000
1737550552.521,-55.176,-19.531,-25.879,-817.871,0.000
1737550552.525,-46.875,-8.789,-23.438,-746.094,0.000
1737550552.529,-5.371,-17.578,-20.508,377.930,0.000
1737550552.533,13.184,-34.180,-19.043,568.848,0.000
1737550552.537,-12.207,-12.695,-9.277,-135.254,0.000
1737550552.541,-51.270,-5.371,-14.648,-765.137,0.000
1737550552.545,-24.902,-13.184,-21.484,-489.258,0.000
1737550552.549,16.113,-15.137,-23.438,657.227,0.000
1737550552.553,24.414,-14.648,-20.020,976.562,0.000
1737550552.557,-11.719,-24.414,-14.648,368.164,0.000
1737550552.561,-59.082,-27.832,-18.555,-585.449,0.000
1737550552.564,-45.898,-10.254,-32.715,-690.918,0.000
1737550552.568,-10.254,-2.930,-27.344,454.590,0.000
1737550552.572,0.977,-8.789,-15.625,830.078,0.000
1737550552.576,3.418,-14.648,-10.742,102.051,0.000
1737550552.580,-33.203,-31.250,-16.602,-651.855,0.000
1737550552.584,-61.035,-31.738,-34.668,-868.164,0.000
1737550552.588,-22.461,-12.207,-31.738,75.195,0.000
1737550552.592,21.484,-1.465,-18.555,713.379,0.000
1737550552.596,19.531,-5.859,-27.832,182.617,0.000
1737550552.600,-33.203,-9.766,-31.250,-571.289,0.000
1737550552.603,-79.102,-7.324,-18.066,-845.703,0.000
1737550552.607,-37.109,-9.277,-15.137,111.328,0.000
1737550552.611,14.648,-15.625,-21.973,852.051,0.000
1737550552.615,7.812,-26.855,-19.531,319.824,0.000
1737550552.619,-37.598,-34.180,-19.531,-522.949,0.000
1737550552.623,-65.918,-24.414,-20.020,-910.156,0.000
1737550552.627,-35.156,-13.672,-22.461,-6.348,0.000
1737550552.631,1.465,-20.020,-27.344,951.172,0.000
1737550552.635,0.000,-26.367,-38.086,521.484,0.000
1737550552.639,-35.645,-20.996,-38.574,-380.371,0.000
1737550552.643,-71.289,-13.184,-28.320,-951.172,0.000
1737550552.646,-48.828,-15.625,-18.066,-242.188,0.000
1737550552.650,4.883,-23.926,-12.207,849.609,0.000
1737550552.654,2.930,-22.461,-14.648,637.207,0.000
1737550552.658,-28.320,-19.043,-14.160,-128.418,0.000
1737550552.662,-69.824,-34.180,-18.555,-770.996,0.000
1737550552.666,-81.055,-52.734,-18.555,-361.816,0.000
1737550552.670,-11.230,-33.691,-19.531,729.492,0.000
1737550552.674,11.230,-15.625,-26.367,647.461,0.000
1737550552.678,-40.039,-20.020,-33.203,-220.215,0.000
1737550552.682,-81.055,-19.531,-31.738,-944.336,0.000
1737550552.685,-64.453,-13.184,-21.973,-568.848,0.000
1737550552.689,1.953,-14.160,-17.090,590.332,0.000
1737550552.693,23.438,-7.324,-18.555,666.016,0.000
1737550552.697,-12.207,-12.695,-25.879,-142.090,0.000
1737550552.701,-90.820,-36.133,-28.320,-951.172,0.000
1737550552.705,-85.449,-28.809,-23.926,-657.715,0.000
1737550552.709,3.418,-20.020,-28.809,631.348,0.000
1737550552.713,13.672,-20.508,-29.785,832.031,0.000
1737550552.717,-12.695,-21.484,-20.020,128.906,0.000
1737550552.721,-57.129,-24.414,-16.602,-566.895,0.000
1737550552.724,-77.637,-29.785,-22.461,-677.246,0.000
1737550552.728,-24.902,-25.391,-26.367,345.215,0.000
1737550552.732,4.883,-14.648,-26.855,644.531,0.000
1737550552.736,-14.160,-36.133,-27.832,-7.324,0.000
1737550552.740,-51.270,-35.645,-31.738,-660.645,0.000
1737550552.744,-77.637,-6.348,-32.227,-791.016,0.000
1737550552.748,-26.855,-1.953,-31.250,280.762,0.000
1737550552.752,18.555,-8.789,-25.391,866.211,0.000
1737550552.756,-11.719,-23.926,-12.207,203.125,0.000
1737550552.760,-48.828,-24.414,-9.766,-649.902,0.000
1737550552.764,-63.965,-19.043,-15.137,-981.445,0.000
1737550552.767,-21.973,-17.090,-18.066,-83.496,0.000
1737550552.771,26.855,-14.160,-12.695,739.746,0.000
1737550552.775,13.672,-16.113,-12.695,338.867,0.000
1737550552.779,-57.129,-28.320,-15.137,-538.086,0.000
1737550552.783,-83.008,-32.227,-20.020,-961.914,0.000
1737550552.787,-4.883,-21.973,-16.113,12.207,0.000
1737550552.791,50.781,-10.254,-4.883,999.512,0.000
1737550552.795,25.879,-13.184,-19.531,614.746,0.000
1737550552.799,-16.113,-11.230,-24.414,-184.570,0.000
1737550552.803,-58.105,-13.672,-10.254,-682.129,0.000
1737550552.807,-33.691,-15.137,-1.953,28.320,0.000
1737550552.811,20.996,-11.719,-10.254,999.512,0.000
1737550552.814,5.371,-30.273,-15.137,576.660,0.000
1737550552.818,-56.641,-45.898,-6.836,-411.621,0.000
1737550552.822,-93.750,-37.598,-11.719,-960.938,0.000
1737550552.826,-45.410,-24.414,-32.227,-209.961,0.000
1737550552.830,23.438,-19.043,-37.109,926.270,0.000
1737550552.834,43.457,-10.742,-14.160,699.707,0.000
1737550552.838,-19.043,-9.277,-20.996,-206.055,0.000
1737550552.842,-78.125,-8.301,-39.551,-940.918,0.000
1737550552.846,-47.852,-5.371,-19.531,-409.668,0.000
1737550552.850,30.762,-12.207,-11.719,832.031,0.000
1737550552.854,35.156,-20.508,-12.207,679.199,0.000
1737550552.857,-6.348,-21.484,-4.883,-203.125,0.000
1737550552.861,-57.617,-15.625,-16.602,-831.543,0.000
1737550552.865,-51.270,-8.301,-22.949,-258.789,0.000
1737550552.869,15.625,-6.836,-28.320,899.902,0.000
1737550552.873,21.484,-14.160,-25.879,877.441,0.000
1737550552.877,-12.207,-22.461,-10.742,239.258,0.000
1737550552.881,-54.688,-21.973,-11.719,-616.211,0.000
1737550552.885,-50.293,-20.020,-18.066,-520.996,0.000
1737550552.889,1.953,-20.996,-26.367,647.949,0.000
1737550552.893,5.371,-23.438,-26.855,943.848,0.000
1737550552.896,-16.602,-26.367,-19.531,203.613,0.000
1737550552.900,-55.176,-18.555,-14.160,-744.629,0.000
1737550552.904,-61.035,-15.137,-18.066,-918.457,0.000
1737550552.908,-16.602,-12.207,-22.949,116.211,0.000
1737550552.912,15.137,-16.113,-21.484,718.750,0.000
1737550552.916,4.395,-18.555,-21.973,168.945,0.000
1737550552.920,-45.410,-23.438,-21.484,-623.047,0.000
1737550552.924,-66.406,-29.297,-14.160,-750.488,0.000
1737550552.928,-1.465,-23.926,-25.879,389.160,0.000
1737550552.932,30.273,-20.996,-38.574,951.660,0.000
1737550552.936,-3.906,-20.508,-32.227,292.969,0.000
1737550552.939,-42.969,-30.273,-24.902,-562.012,0.000
1737550552.943,-98.633,-33.691,-19.531,-971.191,0.000
1737550552.947,-59.082,-12.207,-10.742,-38.574,0.000
1737550552.951,26.367,-9.766,-19.531,822.754,0.000
1737550552.955,10.742,-25.879,-30.762,346.191,0.000
1737550552.959,-46.387,-26.855,-32.227,-447.266,0.000
1737550552.963,-76.172,-24.902,-33.203,-824.707,0.000
1737550552.967,-23.926,-24.902,-16.602,66.895,0.000
1737550552.971,27.832,-20.996,-7.324,995.117,0.000
1737550552.975,1.953,-23.438,-17.578,524.414,0.000
1737550552.979,-42.969,-34.180,-20.508,-377.441,0.000
1737550552.982,-73.730,-29.785,-22.461,-939.941,0.000
1737550552.986,-42.969,-12.695,-17.578,-160.156,0.000
1737550552.990,26.855,-15.625,-10.742,937.500,0.000
1737550552.994,20.508,-34.668,-19.043,488.281,0.000
1737550552.998,-28.809,-23.926,-23.926,-473.633,0.000
1737550553.002,-66.406,-11.230,-22.949,-1000.000,0.000
1737550553.006,-45.898,-14.648,-20.020,-348.633,0.000
1737550553.010,18.066,-12.207,-24.414,832.031,0.000
1737550553.014,25.879,-21.973,-24.902,805.664,0.000
1737550553.018,-23.438,-34.668,-22.949,-40.039,0.000
1737550553.021,-75.684,-32.227,-24.902,-883.301,0.000
1737550553.025,-74.707,-22.949,-24.414,-557.129,0.000
1737550553.029,-9.277,-14.160,-22.461,659.180,0.000
1737550553.033,33.203,-13.184,-13.672,814.941,0.000
1737550553.037,1.953,-14.648,-5.859,40.527,0.000
1737550553.041,-72.754,-18.066,-17.090,-849.609,0.000
1737550553.045,-69.824,-25.879,-15.625,-772.461,0.000
1737550553.049,-4.395,-23.438,-14.160,420.410,0.000
1737550553.053,12.695,-28.809,-25.391,642.578,0.000
1737550553.057,-26.855,-35.156,-19.531,-152.344,0.000
1737550553.061,-65.918,-26.855,-15.137,-825.195,0.000
1737550553.064,-55.176,-21.973,-18.066,-712.891,0.000
1737550553.068,3.418,-13.184,-24.902,408.691,0.000
1737550553.072,32.715,-12.695,-21.973,762.207,0.000
1737550553.076,7.324,-10.742,-11.719,127.441,0.000
1737550553.080,-42.480,-16.113,-22.461,-637.695,0.000
1737550553.084,-59.570,-26.367,-30.762,-851.074,0.000
1737550553.088,5.371,-24.414,-9.766,198.730,0.000
1737550553.092,52.734,-21.973,-2.930,789.551,0.000
1737550553.096,24.902,-16.113,-9.766,190.918,0.000
1737550553.100,-25.879,-20.508,-13.672,-597.168,0.000
1737550553.103,-73.242,-21.973,-20.996,-913.086,0.000
1737550553.107,-20.996,-1.953,-12.207,82.031,0.000
1737550553.111,46.875,5.859,-8.789,851.074,0.000
1737550553.115,18.066,-5.371,-14.648,374.023,0.000
1737550553.119,-28.809,-15.137,-9.277,-317.871,0.000
1737550553.123,-62.500,-19.043,-5.371,-680.664,0.000
1737550553.127,-21.973,-10.742,-9.766,99.121,0.000
1737550553.131,23.438,-8.789,-18.555,817.871,0.000
1737550553.135,1.465,-22.461,-21.484,184.082,0.000
1737550553.139,-47.852,-38.574,-21.484,-630.371,0.000
1737550553.143,-88.379,-42.480,-23.438,-1000.000,0.000
1737550553.146,-53.223,-21.973,-33.203,-310.059,0.000
1737550553.150,19.043,0.977,-42.480,844.238,0.000
1737550553.154,24.902,0.000,-29.785,673.828,0.000
1737550553.158,-37.109,-23.926,-13.184,-267.578,0.000
1737550553.162,-84.473,-33.203,-16.113,-967.773,0.000
1737550553.166,-48.828,-19.531,-20.020,-367.188,0.000
1737550553.170,22.949,-21.484,-22.949,767.090,0.000
1737550553.174,24.414,-25.879,-25.391,700.195,0.000
1737550553.178,-20.020,-11.719,-13.672,-106.934,0.000
1737550553.182,-67.871,-14.648,-11.230,-908.691,0.000
1737550553.186,-63.965,-17.578,-24.902,-607.422,0.000
1737550553.189,-8.301,-19.043,-23.438,500.000,0.000
1737550553.193,14.160,-21.973,-19.043,489.746,0.000
1737550553.197,-14.160,-27.832,-25.391,-250.977,0.000
1737550553.201,-52.734,-25.391,-30.273,-863.281,0.000
1737550553.205,-55.176,-21.973,-32.715,-625.488,0.000
1737550553.209,-8.301,-24.902,-21.484,567.383,0.000
1737550553.213,19.531,-26.855,-15.625,812.500,0.000
1737550553.217,-9.277,-23.926,-23.438,9.766,0.000
1737550553.221,-48.340,-16.113,-29.297,-649.902,0.000
1737550553.225,-43.945,-20.020,-21.973,-381.348,0.000
1737550553.229,0.488,-18.555,-12.695,689.941,0.000
1737550553.232,6.348,-16.113,-16.113,772.461,0.000
1737550553.236,-19.531,-16.113,-18.066,40.527,0.000
1737550553.240,-54.688,-23.926,-23.438,-641.602,0.000
1737550553.244,-70.312,-31.738,-33.691,-725.586,0.000
1737550553.248,-13.672,-24.414,-37.598,333.008,0.000
1737550553.252,17.578,-23.926,-36.133,790.527,0.000
1737550553.256,-10.254,-27.832,-28.809,72.266,0.000
1737550553.260,-52.246,-28.320,-11.230,-739.746,0.000
1737550553.264,-71.289,-27.832,-2.441,-940.430,0.000
1737550553.268,-16.113,-7.812,-6.836,110.840,0.000
1737550553.271,34.668,1.953,-15.625,865.234,0.000
1737550553.275,7.812,-16.602,-29.297,255.859,0.000
1737550553.279,-36.621,-28.809,-33.203,-614.258,0.000
1737550553.283,-63.965,-20.508,-31.250,-972.656,0.000
1737550553.287,-20.996,-17.090,-24.414,-61.035,0.000
1737550553.291,25.879,-18.066,-11.719,867.188,0.000
1737550553.295,5.859,-26.367,-7.812,505.859,0.000
1737550553.299,-37.598,-37.598,-19.043,-319.336,0.000
1737550553.303,-67.871,-22.461,-33.691,-781.250,0.000
1737550553.307,-21.973,-13.672,-23.438,15.625,0.000
1737550553.311,27.344,-9.277,-7.812,916.504,0.000
1737550553.314,8.301,-5.371,-13.184,577.637,0.000
1737550553.318,-31.738,-14.160,-18.555,-282.715,0.000
1737550553.322,-70.312,-11.230,-24.902,-957.031,0.000
1737550553.326,-43.457,-11.230,-38.086,-297.363,0.000
1737550553.330,18.066,-18.066,-32.227,794.434,0.000
1737550553.334,11.230,-14.160,-12.207,592.773,0.000
1737550553.338,-31.738,-18.066,-18.066,-278.809,0.000
1737550553.342,-65.430,-16.113,-29.297,-988.281,0.000
1737550553.346,-46.875,-13.672,-24.414,-497.070,0.000
1737550553.350,8.301,-18.066,-24.414,664.551,0.000
1737550553.354,29.297,-7.812,-26.855,644.531,0.000
1737550553.357,-12.695,-12.207,-25.879,-126.465,0.000
1737550553.361,-64.453,-20.508,-25.879,-758.789,0.000
1737550553.365,-52.246,-23.438,-17.578,-444.824,0.000
1737550553.369,7.324,-28.320,-19.043,527.832,0.000
1737550553.373,13.184,-27.832,-22.461,520.020,0.000
1737550553.377,-24.414,-31.738,-28.320,-227.539,0.000
1737550553.381,-63.965,-28.809,-41.504,-910.645,0.000
1737550553.385,-69.336,-20.996,-36.621,-716.797,0.000
1737550553.389,6.348,-16.113,-24.902,526.855,0.000
1737550553.393,44.434,-13.672,-16.113,939.453,0.000
1737550553.396,-0.488,-16.602,-14.648,152.344,0.000
1737550553.400,-49.805,-22.949,-21.973,-657.227,0.000
1737550553.404,-52.246,-24.414,-19.531,-522.949,0.000
1737550553.408,-4.395,-12.207,-14.160,579.590,0.000
1737550553.412,23.438,-7.324,-15.137,860.352,0.000
1737550553.416,-15.137,-14.160,-20.996,24.414,0.000
1737550553.420,-69.336,-20.508,-27.344,-802.246,0.000
1737550553.424,-73.242,-18.066,-34.180,-844.727,0.000
1737550553.428,-6.348,-24.414,-34.180,299.805,0.000
1737550553.432,32.227,-33.203,-25.391,969.238,0.000
1737550553.436,6.348,-18.555,-23.438,370.605,0.000
1737550553.439,-39.062,-14.160,-17.090,-534.668,0.000
1737550553.443,-68.359,-27.832,-13.184,-937.988,0.000
1737550553.447,-19.043,-23.438,-17.090,45.410,0.000
1737550553.451,43.945,-14.648,-11.719,991.211,0.000
1737550553.455,37.109,-5.859,-14.648,656.250,0.000
1737550553.459,-19.043,-14.160,-18.555,-287.598,0.000
1737550553.463,-71.777,-35.156,-27.832,-932.129,0.000
1737550553.467,-30.273,-23.438,-35.645,-107.422,0.000
1737550553.471,21.973,-2.930,-20.508,694.336,0.000
1737550553.474,9.766,1.465,-11.230,306.641,0.000
1737550553.478,-23.438,-8.301,-15.137,-416.016,0.000
1737550553.482,-44.922,-14.648,-20.508,-867.188,0.000
1737550553.486,-20.508,-6.348,-24.414,-159.180,0.000
1737550553.490,19.531,-11.719,-23.438,786.133,0.000
1737550553.494,22.461,-13.184,-17.090,544.434,0.000
1737550553.498,-21.484,-0.977,-20.508,-269.043,0.000
1737550553.502,-70.312,5.371,-28.320,-849.121,0.000
1737550553.506,-68.848,-7.812,-30.762,-347.168,0.000
1737550553.510,-17.578,-6.836,-25.879,714.844,0.000
1737550553.514,-16.113,1.953,-23.438,692.871,0.000
1737550553.517,-65.918,4.883,-25.879,-96.680,0.000
1737550553.521,-118.652,1.465,-35.156,-871.582,0.000
1737550553.525,-125.977,2.930,-37.109,-477.539,0.000
1737550553.529,-78.125,18.066,-32.715,770.996,0.000
1737550553.533,-79.102,12.207,-28.809,771.484,0.000
1737550553.537,-140.137,-0.977,-33.203,-151.855,0.000
1737550553.541,-207.031,-3.418,-44.922,-936.523,0.000
1737550553.545,-199.707,-5.371,-43.945,-750.977,0.000
1737550553.549,-136.230,0.488,-59.570,486.816,0.000
1737550553.553,-129.883,11.230,-75.195,774.902,0.000
1737550553.557,-158.691,21.973,-57.617,-62.012,0.000
1737550553.560,-197.266,22.949,-49.316,-803.223,0.000
1737550553.564,-214.355,17.578,-44.434,-814.453,0.000
1737550553.568,-152.344,-3.418,-29.297,220.703,0.000
1737550553.572,-106.445,-20.996,-24.902,697.266,0.000
1737550553.576,-126.953,-0.977,-30.762,132.324,0.000
1737550553.580,-149.902,6.836,-39.551,-635.254,0.000
1737550553.584,-159.180,-6.348,-49.805,-931.641,0.000
1737550553.588,-88.867,-0.977,-43.945,142.578,0.000
1737550553.592,-19.531,8.789,-27.832,916.992,0.000
1737550553.596,-22.461,7.324,-23.926,419.922,0.000
1737550553.600,-56.152,-10.742,-30.273,-456.543,0.000
1737550553.603,-83.008,-29.297,-35.645,-990.234,0.000
1737550553.607,-22.949,-36.133,-30.762,-133.301,0.000
1737550553.611,43.457,-27.832,-23.926,721.680,0.000
1737550553.615,34.668,-16.602,-27.344,320.801,0.000
1737550553.619,-5.371,-24.414,-26.367,-563.965,0.000
1737550553.623,-39.062,-33.691,-22.949,-947.754,0.000
1737550553.627,16.602,-20.020,-22.461,70.801,0.000
1737550553.631,78.613,-14.160,-14.648,999.512,0.000
1737550553.635,62.012,-17.090,-18.066,715.820,0.000
1737550553.639,28.809,-11.230,-20.020,-69.336,0.000
1737550553.643,-10.254,-18.066,-24.902,-610.840,0.000
1737550553.646,23.926,-20.996,-25.391,14.160,0.000
1737550553.650,76.172,-25.879,-17.578,744.141,0.000
1737550553.654,73.242,-27.344,-20.508,353.027,0.000
1737550553.658,34.180,-19.531,-16.113,-411.133,0.000
1737550553.662,-22.461,-22.949,-10.742,-983.398,0.000
1737550553.666,0.000,-25.879,-11.719,-369.141,0.000
1737550553.670,74.219,-22.461,-16.113,839.355,0.000
1737550553.674,91.797,-24.414,-18.555,760.254,0.000
1737550553.678,45.410,-24.902,-22.461,-49.316,0.000
1737550553.682,10.742,-23.438,-23.438,-735.840,0.000
1737550553.686,20.996,-22.461,-21.484,-356.934,0.000
1737550553.689,77.148,-9.766,-15.625,761.230,0.000
1737550553.693,112.305,0.000,-1.465,909.668,0.000
1737550553.697,58.594,-10.742,-8.301,187.500,0.000
1737550553.701,-5.859,-20.508,-24.414,-717.285,0.000
1737550553.705,20.020,-18.555,-25.391,-336.914,0.000
1737550553.709,75.684,-21.484,-21.973,806.152,0.000
1737550553.713,88.867,-18.066,-11.230,978.027,0.000
1737550553.717,73.242,-21.973,-10.254,548.340,0.000
1737550553.721,11.719,-28.809,-9.766,-419.922,0.000
1737550553.725,6.836,-10.742,0.000,-521.484,0.000
1737550553.728,74.707,-3.906,-12.207,662.109,0.000
1737550553.732,95.703,-11.719,-20.020,886.719,0.000
1737550553.736,65.430,-15.137,-20.020,219.727,0.000
1737550553.740,13.672,-20.996,-33.203,-443.359,0.000
1737550553.744,5.859,-21.484,-24.414,-551.758,0.000
1737550553.748,62.988,-13.672,-1.953,388.184,0.000
1737550553.752,70.312,-24.902,-12.695,759.766,0.000
1737550553.756,40.527,-32.227,-27.344,100.586,0.000
1737550553.760,10.742,-32.227,-27.344,-667.969,0.000
1737550553.764,-7.812,-30.273,-20.996,-771.973,0.000
1737550553.768,48.340,-24.414,-5.371,324.707,0.000
1737550553.771,97.168,-19.043,-0.488,999.512,0.000
1737550553.775,72.754,-9.766,-17.090,633.789,0.000
1737550553.779,25.391,-7.324,-19.043,-178.711,0.000
1737550553.783,0.977,-14.648,-11.230,-491.211,0.000
1737550553.787,46.387,-10.742,-20.508,402.344,0.000
1737550553.791,86.914,-14.648,-20.020,999.512,0.000
1737550553.795,51.758,-31.250,-19.043,398.926,0.000
1737550553.799,-5.371,-21.484,-27.344,-579.102,0.000
1737550553.803,-26.367,-25.391,-24.902,-1000.000,0.000
1737550553.806,28.809,-29.785,-7.812,-154.785,0.000
1737550553.810,89.355,-8.789,-11.230,965.820,0.000
1737550553.814,81.543,-10.254,-21.484,666.992,0.000
1737550553.818,26.367,-25.391,-10.742,-261.230,0.000
1737550553.822,-27.344,-33.691,-15.625,-985.840,0.000
1737550553.826,-0.977,-22.949,-14.648,-456.055,0.000
1737550553.830,68.848,-11.230,-3.418,796.875,0.000
1737550553.834,63.477,-11.719,-19.043,686.035,0.000
1737550553.838,11.230,-15.137,-24.902,-351.562,0.000
1737550553.842,-15.625,-15.625,-13.672,-1000.000,0.000
1737550553.846,-11.719,-23.438,-20.020,-493.652,0.000
1737550553.849,35.645,-27.344,-23.926,764.160,0.000
1737550553.853,51.758,-16.602,-5.859,734.375,0.000
1737550553.857,20.508,-8.789,-12.207,-83.008,0.000
1737550553.861,-10.254,-10.254,-23.926,-700.684,0.000
1737550553.865,-5.371,-17.578,-11.719,-229.492,0.000
1737550553.869,44.922,-16.113,-10.742,865.234,0.000
1737550553.873,56.641,-11.230,-18.066,929.199,0.000
1737550553.877,31.738,-1.465,-27.832,304.199,0.000
1737550553.881,-4.395,-13.672,-38.086,-635.742,0.000
1737550553.885,-30.273,-30.762,-23.438,-650.879,0.000
1737550553.889,10.254,-21.484,-4.395,487.305,0.000
1737550553.892,36.133,-20.996,-12.695,744.141,0.000
1737550553.896,19.043,-18.066,-33.203,110.352,0.000
1737550553.900,-25.879,-22.461,-28.809,-539.062,0.000
1737550553.904,-29.785,-22.461,-16.602,-407.715,0.000
1737550553.908,12.695,-8.789,-15.137,668.457,0.000
1737550553.912,9.277,-15.137,-13.184,994.629,0.000
1737550553.916,-9.277,-28.320,-17.578,451.660,0.000
1737550553.920,-56.641,-16.113,-27.344,-462.402,0.000
1737550553.924,-67.383,-9.766,-31.250,-708.008,0.000
1737550553.928,-6.348,-11.719,-25.879,311.035,0.000
1737550553.932,13.672,-8.789,-23.926,712.402,0.000
1737550553.935,-21.973,-9.766,-29.785,-32.227,0.000
1737550553.939,-64.453,-16.113,-35.156,-777.344,0.000
1737550553.943,-81.055,-34.180,-26.367,-952.637,0.000
1737550553.947,-34.180,-23.438,-16.113,125.488,0.000
1737550553.951,5.371,-1.465,-17.578,931.152,0.000
1737550553.955,-10.742,-13.184,-33.203,388.672,0.000
1737550553.959,-56.152,-28.320,-33.203,-467.773,0.000
1737550553.963,-82.520,-23.926,-24.902,-856.934,0.000
1737550553.967,-42.480,-23.926,-18.066,78.125,0.000
1737550553.971,4.395,-16.602,-19.531,999.512,0.000
1737550553.975,-5.859,-11.230,-28.809,583.984,0.000
1737550553.978,-55.664,-22.461,-23.438,-443.359,0.000
1737550553.982,-72.266,-22.461,-27.344,-1000.000,0.000
1737550553.986,-32.227,-13.184,-30.273,-259.766,0.000
1737550553.990,6.348,-13.184,-15.625,653.809,0.000
1737550553.994,-19.043,-15.625,-25.391,229.004,0.000
1737550553.998,-65.430,-8.301,-28.320,-537.109,0.000
1737550554.002,-93.262,-10.254,-20.508,-1000.000,0.000
1737550554.006,-72.266,-14.648,-27.344,-374.512,0.000
1737550554.010,-35.156,-14.648,-31.738,753.418,0.000
1737550554.014,-50.781,-17.090,-25.879,520.996,0.000
1737550554.018,-61.035,-16.113,-22.461,-349.121,0.000
1737550554.021,-88.379,-22.461,-14.648,-975.098,0.000
1737550554.025,-95.215,-25.391,-13.184,-663.086,0.000
1737550554.029,-47.363,-27.832,-20.996,481.445,0.000
1737550554.033,-45.898,-28.320,-21.484,605.469,0.000
1737550554.037,-67.871,-23.438,-23.438,-151.367,0.000
1737550554.041,-97.168,-31.250,-28.320,-820.801,0.000
1737550554.045,-98.145,-27.832,-28.320,-541.992,0.000
1737550554.049,-36.133,-11.230,-26.855,647.949,0.000
1737550554.053,-38.086,-10.742,-19.043,804.199,0.000
1737550554.057,-83.496,-15.137,-23.926,17.578,0.000
1737550554.060,-111.328,-20.508,-31.250,-741.211,0.000
1737550554.064,-90.820,-13.184,-13.672,-327.148,0.000
1737550554.068,-26.367,-4.395,-18.066,834.473,0.000
1737550554.072,-20.508,-14.160,-28.320,989.746,0.000
1737550554.076,-36.133,-10.254,-19.531,659.668,0.000
1737550554.080,-64.941,-9.766,-23.438,-62.988,0.000
1737550554.084,-62.012,-21.973,-38.086,12.207,0.000
1737550554.088,-12.695,-22.949,-24.902,882.812,0.000
1737550554.092,-7.324,-5.371,-11.719,972.168,0.000
1737550554.096,-27.344,0.000,-27.832,999.512,0.000
1737550554.100,-63.477,-11.230,-38.574,619.629,0.000
1737550554.103,-89.355,-19.531,-21.973,143.066,0.000
1737550554.107,-65.918,-21.484,-17.090,670.898,0.000
1737550554.111,-43.457,-20.996,-19.043,999.512,0.000
1737550554.115,-66.895,-20.508,-22.949,640.137,0.000
1737550554.119,-105.469,-22.949,-31.738,-213.379,0.000
1737550554.123,-106.934,-27.832,-27.344,-797.852,0.000
1737550554.127,-77.148,-25.391,-22.461,-14.160,0.000
1737550554.131,-51.270,-26.367,-24.902,897.461,0.000
1737550554.135,-60.547,-20.508,-26.367,637.695,0.000
1737550554.139,-80.566,-13.672,-31.250,57.129,0.000
1737550554.142,-75.684,-16.602,-22.461,-222.656,0.000
1737550554.146,-14.648,-4.395,-9.277,457.031,0.000
1737550554.150,0.977,-20.020,-17.090,999.512,0.000
1737550554.154,-6.348,-28.809,-27.344,746.094,0.000
1737550554.158,-6.348,-8.789,-27.344,51.270,0.000
1737550554.162,-41.504,-15.625,-21.973,-460.938,0.000
1737550554.166,-22.461,-18.066,-13.184,191.895,0.000
1737550554.170,27.344,-12.207,-1.953,999.512,0.000
1737550554.174,25.391,-15.625,-7.812,845.703,0.000
1737550554.178,-11.719,-20.508,-20.508,138.184,0.000
1737550554.181,-55.664,-23.438,-37.109,-794.922,0.000
1737550554.185,-33.203,-13.672,-23.438,-490.234,0.000
1737550554.189,32.227,-8.301,-2.930,560.059,0.000
1737550554.193,30.762,-9.766,-11.230,258.301,0.000
1737550554.197,-17.090,-20.996,-16.113,-716.797,0.000
1737550554.201,-42.480,-15.625,-14.160,-1000.000,0.000
1737550554.205,-31.738,-0.977,-22.949,-841.797,0.000
1737550554.209,-1.953,-4.395,-36.621,-4.395,0.000
1737550554.213,34.180,-10.254,-44.922,363.281,0.000
1737550554.217,9.766,-19.043,-31.250,-98.633,0.000
1737550554.221,-29.297,-17.578,-10.742,-681.641,0.000
1737550554.224,-7.324,-15.137,-10.742,-281.250,0.000
1737550554.228,25.391,-29.297,-22.949,804.199,0.000
1737550554.232,25.391,-30.762,-25.879,999.512,0.000
1737550554.236,5.859,-13.184,-19.043,827.148,0.000
1737550554.240,-61.035,-6.836,-15.625,10.742,0.000
1737550554.244,-90.332,-13.184,-22.461,-495.117,0.000
1737550554.248,-21.973,-18.066,-22.949,312.012,0.000
1737550554.252,8.789,-21.484,-17.578,728.516,0.000
1737550554.256,-26.855,-25.391,-28.320,81.055,0.000
1737550554.260,-54.199,-23.438,-26.367,-760.254,0.000
1737550554.264,-72.754,-18.555,-20.020,-870.605,0.000
1737550554.267,-41.504,-22.461,-24.902,198.730,0.000
1737550554.271,2.441,-25.391,-26.855,694.824,0.000
1737550554.275,-50.293,-21.973,-28.809,-105.469,0.000
1737550554.279,-96.191,-31.738,-24.414,-825.684,0.000
1737550554.283,-90.820,-30.762,-20.508,-1000.000,0.000
1737550554.287,-57.617,-12.207,-7.812,-393.555,0.000
1737550554.291,-34.668,-14.648,-7.812,374.512,0.000
1737550554.295,-49.316,-14.160,-22.949,77.148,0.000
1737550554.299,-58.594,-9.766,-19.043,-508.789,0.000
1737550554.303,-67.871,-16.113,-14.160,-784.668,0.000
1737550554.307,-40.039,-14.648,-13.672,49.316,0.000
1737550554.310,-3.906,-14.160,-10.254,828.125,0.000
1737550554.314,-24.414,-17.090,-12.207,417.969,0.000
1737550554.318,-31.738,-13.672,-23.438,-274.414,0.000
1737550554.322,-48.340,-26.855,-38.574,-854.980,0.000
1737550554.326,-33.203,-22.949,-42.480,-161.621,0.000
1737550554.330,24.414,1.465,-26.855,987.305,0.000
1737550554.334,13.672,-0.488,-14.648,624.512,0.000
1737550554.338,-46.875,-17.578,-12.207,-479.004,0.000
1737550554.342,-83.496,-26.855,-18.066,-1000.000,0.000
1737550554.346,-58.105,-16.602,-32.715,-712.402,0.000
1737550554.350,-9.766,-9.277,-33.691,317.383,0.000
1737550554.353,-11.719,-25.391,-28.809,493.652,0.000
1737550554.357,-39.551,-34.668,-38.086,0.000,0.000
1737550554.361,-54.199,-19.531,-38.086,-404.297,0.000
1737550554.365,-41.504,-9.277,-27.344,52.734,0.000
1737550554.369,-19.531,-12.207,-19.043,968.262,0.000
1737550554.373,-10.254,-14.648,-13.184,771.973,0.000
1737550554.377,-14.160,-21.973,-14.160,10.742,0.000
1737550554.381,-58.105,-22.461,-19.531,-727.051,0.000
1737550554.385,-54.199,-21.484,-8.789,-389.160,0.000
1737550554.389,-13.184,-26.367,4.395,765.137,0.000
1737550554.393,-20.508,-29.785,-1.953,959.473,0.000
1737550554.396,-55.176,-32.227,-7.324,214.355,0.000
1737550554.400,-85.938,-23.438,-11.230,-777.832,0.000
1737550554.404,-79.102,-23.438,-15.137,-933.594,0.000
1737550554.408,-23.926,-29.297,-16.602,121.094,0.000
1737550554.412,15.625,-22.461,-10.742,731.445,0.000
1737550554.416,-20.020,-22.461,-1.953,84.473,0.000
1737550554.420,-57.129,-23.926,-7.812,-739.746,0.000
1737550554.424,-59.082,-28.320,-10.742,-990.234,0.000
1737550554.428,-15.625,-32.227,-13.672,-44.434,0.000
1737550554.432,15.137,-20.020,-20.020,533.203,0.000
1737550554.435,-31.250,-20.508,-16.602,-250.977,0.000
1737550554.439,-75.195,-33.203,-12.695,-916.504,0.000
1737550554.443,-66.895,-26.855,-11.230,-947.754,0.000
1737550554.447,-22.949,-27.344,-8.301,-72.754,0.000
1737550554.451,4.395,-34.668,-18.066,601.562,0.000
1737550554.455,-3.906,-24.902,-26.855,197.754,0.000
1737550554.459,-39.551,-18.066,-14.648,-559.082,0.000
1737550554.463,-60.059,-20.996,-12.695,-1000.000,0.000
1737550554.467,-32.227,-18.066,-17.090,-321.777,0.000
1737550554.471,-0.488,-1.465,-14.160,641.602,0.000
1737550554.475,-10.254,-4.395,-18.066,257.812,0.000
1737550554.478,-51.758,-17.578,-14.648,-580.078,0.000
1737550554.482,-82.520,-17.090,-19.531,-1000.000,0.000
1737550554.486,-40.527,-19.043,-35.156,-330.566,0.000
1737550554.490,18.066,-14.160,-30.273,763.672,0.000
1737550554.494,-3.418,-14.160,-7.324,434.082,0.000
1737550554.498,-46.387,-19.043,-3.906,-451.660,0.000
1737550554.502,-67.871,-10.254,-6.348,-969.727,0.000
1737550554.506,-46.875,-14.648,-3.906,-290.039,0.000
1737550554.510,4.883,-26.855,-11.230,867.188,0.000
1737550554.514,-4.883,-16.602,-14.160,746.094,0.000
1737550554.518,-48.828,-9.766,-8.789,-95.703,0.000
1737550554.521,-83.008,-13.672,-12.207,-819.824,0.000
1737550554.525,-52.734,-20.996,-23.926,-367.188,0.000
1737550554.529,15.625,-20.508,-29.785,828.125,0.000
1737550554.533,8.301,-12.207,-32.227,824.219,0.000
1737550554.537,-45.410,-17.090,-39.551,-282.227,0.000
1737550554.541,-77.637,-32.227,-40.039,-1000.000,0.000
1737550554.545,-82.031,-37.109,-24.902,-893.066,0.000
1737550554.549,-45.410,-41.016,-14.160,-21.973,0.000
1737550554.553,6.348,-22.949,-24.902,626.953,0.000
1737550554.556,-13.184,-7.324,-18.555,453.125,0.000
1737550554.560,-64.453,-12.207,-4.883,-208.008,0.000
1737550554.564,-67.383,-17.090,-7.812,-357.910,0.000
1737550554.568,-27.344,-18.555,-15.625,644.043,0.000
1737550554.572,-1.465,-14.160,-23.438,915.039,0.000
1737550554.576,-35.156,-20.508,-16.602,273.438,0.000
1737550554.580,-65.918,-26.855,-16.113,-409.180,0.000
1737550554.584,-65.430,-21.973,-21.973,-416.016,0.000
1737550554.588,-41.504,-21.484,-16.113,497.070,0.000
1737550554.592,-7.812,-19.043,-11.719,780.273,0.000
1737550554.596,-45.898,-31.250,-24.414,193.848,0.000
1737550554.599,-92.285,-39.062,-26.367,-611.816,0.000
1737550554.603,-79.102,-25.879,-15.137,-818.359,0.000
1737550554.607,-21.484,-26.367,-12.695,322.266,0.000
1737550554.611,3.418,-27.344,-18.066,999.512,0.000
1737550554.615,-7.324,-17.578,-14.648,824.707,0.000
1737550554.619,-44.434,-25.879,-20.020,8.301,0.000
1737550554.623,-76.660,-41.016,-22.949,-603.027,0.000
1737550554.627,-23.926,-30.273,-17.578,308.105,0.000
1737550554.631,0.488,-15.137,-20.020,999.512,0.000
1737550554.635,-28.320,-18.066,-20.508,652.344,0.000
1737550554.639,-57.129,-20.996,-24.902,-241.211,0.000
1737550554.642,-75.195,-18.066,-22.461,-784.668,0.000
1737550554.646,-35.645,-22.949,-11.719,91.309,0.000
1737550554.650,4.395,-18.555,-9.766,999.512,0.000
1737550554.654,-29.785,-13.184,-20.020,799.316,0.000
1737550554.658,-54.688,-18.066,-20.508,-7.324,0.000
1737550554.662,-79.590,-23.926,-17.090,-873.047,0.000
1737550554.666,-58.594,-26.855,-21.973,-387.695,0.000
1737550554.670,-6.348,-22.949,-30.273,683.105,0.000
1737550554.674,-24.902,-18.555,-30.273,469.727,0.000
1737550554.678,-67.383,-23.438,-26.367,-439.941,0.000
1737550554.682,-80.566,-26.367,-27.832,-1000.000,0.000
1737550554.685,-66.406,-25.391,-24.414,-707.031,0.000
1737550554.689,-7.324,-20.508,-19.043,308.105,0.000
1737550554.693,11.230,-16.113,-17.090,463.867,0.000
1737550554.697,-57.129,-27.344,-18.555,-271.973,0.000
1737550554.701,-87.402,-20.996,-29.785,-965.820,0.000
1737550554.705,-59.082,-15.625,-50.293,-669.922,0.000
1737550554.709,-8.301,-23.926,-39.551,479.980,0.000
1737550554.713,1.465,-20.020,-20.508,622.070,0.000
1737550554.717,-28.320,-24.414,-21.973,-135.254,0.000
1737550554.721,-55.664,-28.809,-4.395,-756.348,0.000
1737550554.725,-40.039,-20.996,3.418,-499.023,0.000
1737550554.728,14.160,-26.855,-23.926,550.781,0.000
1737550554.732,12.207,-34.180,-27.832,774.414,0.000
1737550554.736,-17.090,-22.461,-23.438,284.180,0.000
1737550554.740,-49.316,-14.160,-24.414,-422.852,0.000
1737550554.744,-62.988,-21.973,-16.602,-490.723,0.000
1737550554.748,-11.230,-20.996,-22.949,611.816,0.000
1737550554.752,5.371,-10.254,-20.508,959.961,0.000
1737550554.756,-21.973,-8.301,-2.441,462.402,0.000
1737550554.760,-80.566,-13.672,-11.719,-345.215,0.000
1737550554.764,-72.754,-23.926,-23.926,-606.445,0.000
1737550554.767,21.973,-21.484,-17.578,481.445,0.000
1737550554.771,49.316,-16.113,-12.207,999.512,0.000
1737550554.775,8.789,-22.461,-20.508,494.629,0.000
1737550554.779,-21.484,-28.320,-21.973,-372.559,0.000
1737550554.783,-22.461,-18.555,-14.160,-883.301,0.000
1737550554.787,-0.977,-5.859,-14.648,48.340,0.000
1737550554.791,14.648,-13.184,-12.695,809.082,0.000
1737550554.795,-10.254,-20.996,-11.719,273.926,0.000
1737550554.799,-33.203,-11.230,-38.574,-492.676,0.000
1737550554.803,-57.617,-7.812,-45.898,-874.023,0.000
1737550554.807,-18.555,-6.348,-36.133,76.172,0.000
1737550554.810,61.523,7.812,-50.293,999.512,0.000
1737550554.814,34.668,-4.883,-27.832,877.441,0.000
1737550554.818,-22.949,-10.254,-13.184,274.902,0.000
1737550554.822,-45.898,5.371,-35.645,-288.574,0.000
1737550554.826,-34.180,3.906,-32.715,376.465,0.000
1737550554.830,-9.766,1.465,-36.133,999.512,0.000
1737550554.834,-2.441,0.977,-28.320,973.633,0.000
1737550554.838,-12.207,-4.395,-8.301,685.059,0.000
1737550554.842,-57.129,-19.043,-23.926,-157.227,0.000
1737550554.846,-26.367,-14.160,-43.457,205.566,0.000
1737550554.850,15.625,-5.371,-30.273,999.512,0.000
1737550554.853,-26.367,-3.418,-13.184,968.262,0.000
1737550554.857,-49.316,-1.465,-33.203,646.973,0.000
1737550554.861,-62.500,-12.695,-36.133,-1.953,0.000
1737550554.865,-52.734,-13.184,-20.508,351.562,0.000
1737550554.869,-34.180,-14.160,-15.625,999.512,0.000
1737550554.873,-21.973,-19.043,-20.996,980.469,0.000
1737550554.877,-26.855,-16.113,-22.461,778.320,0.000
1737550554.881,-68.848,-10.254,-28.809,110.840,0.000
1737550554.885,-63.477,-9.277,-29.785,336.914,0.000
1737550554.889,-5.859,-30.762,-8.789,995.117,0.000
1737550554.892,-3.418,-20.508,-11.230,969.238,0.000
1737550554.896,-1.465,-10.254,-36.133,931.152,0.000
1737550554.900,-14.648,-24.902,-44.434,187.500,0.000
1737550554.904,-62.988,-17.578,-30.762,65.430,0.000
1737550554.908,-42.969,-18.555,-15.625,896.484,0.000
1737550554.912,-13.184,-28.809,-8.789,984.375,0.000
1737550554.916,-45.410,-24.902,-15.625,439.453,0.000
1737550554.920,-90.820,-19.531,-34.668,-509.766,0.000
1737550554.924,-106.934,-13.184,-30.273,-735.840,0.000
1737550554.928,-72.754,-10.742,-21.484,354.004,0.000
1737550554.931,-39.062,-1.953,-25.879,999.512,0.000
1737550554.935,-51.270,-6.348,-37.598,628.418,0.000
1737550554.939,-94.727,-35.156,-13.672,-195.312,0.000
1737550554.943,-130.371,-22.461,-15.625,-586.426,0.000
1737550554.947,-49.316,0.000,-28.320,347.168,0.000
1737550554.951,44.434,-36.621,0.488,999.512,0.000
1737550554.955,9.277,-61.035,-9.277,731.445,0.000
1737550554.959,-43.945,-26.367,-25.391,-30.273,0.000
1737550554.963,-58.594,-16.113,-27.344,-546.387,0.000
1737550554.967,-30.762,-21.973,-28.809,316.406,0.000
1737550554.970,-39.062,-13.672,-29.297,999.512,0.000
1737550554.974,-55.176,-25.391,-20.996,924.805,0.000
1737550554.978,-42.969,-32.227,-35.156,487.305,0.000
1737550554.982,-80.566,-28.320,-37.598,116.699,0.000
1737550554.986,-63.477,-23.926,-24.902,647.461,0.000
1737550554.990,-42.480,-22.461,-16.113,999.512,0.000
1737550554.994,-49.805,-18.555,-20.020,765.137,0.000
1737550554.998,-69.336,-19.531,-4.883,50.293,0.000
1737550555.002,-98.633,-22.949,-6.836,-500.977,0.000
1737550555.006,-47.852,-27.832,-30.273,98.633,0.000
1737550555.010,-6.836,-28.320,-32.715,963.867,0.000
1737550555.013,-50.293,-26.367,-45.410,814.941,0.000
1737550555.017,-111.328,-31.738,-19.043,133.789,0.000
1737550555.021,-111.328,-11.719,-3.418,-501.465,0.000
1737550555.025,-39.062,-2.441,-17.090,79.590,0.000
1737550555.029,-8.789,-12.695,-16.113,964.844,0.000
1737550555.033,-39.062,-14.648,-20.020,982.422,0.000
1737550555.037,-63.965,-7.324,-18.066,631.348,0.000
1737550555.041,-95.703,-13.672,-6.836,-170.410,0.000
1737550555.045,-87.891,-22.949,-9.277,27.344,0.000
1737550555.049,-49.316,-10.254,-17.578,914.062,0.000
1737550555.053,-38.574,-15.625,-13.672,914.062,0.000
1737550555.056,-49.316,-20.020,-15.625,328.613,0.000
1737550555.060,-105.469,-34.668,-25.879,-521.973,0.000
1737550555.064,-111.328,-35.645,-12.207,-486.328,0.000
1737550555.068,-20.508,-11.230,-7.324,624.023,0.000
1737550555.072,-8.789,-12.207,-11.230,751.465,0.000
1737550555.076,-95.703,-20.996,-2.930,-212.891,0.000
1737550555.080,-101.074,-18.555,-9.766,-931.152,0.000
1737550555.084,-55.664,-12.695,-25.391,-920.898,0.000
1737550555.088,-46.387,-8.301,-24.414,136.719,0.000
1737550555.092,-25.879,-5.371,-18.555,715.332,0.000
1737550555.096,-38.574,-12.207,-5.371,-35.645,0.000
1737550555.099,-95.215,-21.484,-2.930,-802.734,0.000
1737550555.103,-139.648,-22.461,-13.672,-939.453,0.000
1737550555.107,-72.266,-17.578,-22.461,78.125,0.000
1737550555.111,-17.578,-16.113,-19.531,871.582,0.000
1737550555.115,-49.316,-13.184,-0.488,324.707,0.000
1737550555.119,-105.469,-13.184,-11.230,-611.816,0.000
1737550555.123,-127.441,-24.414,-19.531,-1000.000,0.000
1737550555.127,-100.586,-31.250,-7.324,-407.715,0.000
1737550555.131,-66.406,-16.602,-4.883,362.305,0.000
1737550555.135,-87.402,-6.836,-12.207,-117.676,0.000
1737550555.139,-144.531,-2.930,-18.555,-853.027,0.000
1737550555.142,-140.137,-17.090,-11.719,-1000.000,0.000
1737550555.146,-117.676,-16.602,-8.789,-597.656,0.000
1737550555.150,-117.188,-4.395,-17.578,-165.527,0.000
1737550555.154,-141.113,-11.719,-24.414,-724.121,0.000
1737550555.158,-158.691,-15.137,-21.484,-1000.000,0.000
1737550555.162,-164.062,-21.484,-13.184,-993.164,0.000
1737550555.166,-146.973,-38.574,3.418,-960.938,0.000
1737550555.170,-118.652,-30.762,-2.930,-806.152,0.000
1737550555.174,-122.070,-17.090,-16.113,-917.480,0.000
1737550555.178,-122.070,-21.973,-15.625,-998.047,0.000
1737550555.182,-98.145,-17.090,-18.555,-1000.000,0.000
1737550555.185,-83.008,-11.719,-18.555,-908.691,0.000
1737550555.189,-45.410,-15.625,-26.855,-214.355,0.000
1737550555.193,-27.344,-20.996,-25.879,-125.977,0.000
1737550555.197,-61.035,-22.949,-8.301,-771.973,0.000
1737550555.201,-69.336,-15.625,-4.395,-1000.000,0.000
1737550555.205,-62.988,-23.438,-5.859,-819.824,0.000
1737550555.209,-32.715,-25.879,-11.230,15.137,0.000
1737550555.213,-8.789,-29.297,-13.184,120.605,0.000
1737550555.217,-53.711,-30.273,-18.066,-685.059,0.000
1737550555.221,-108.398,-20.508,-26.855,-1000.000,0.000
1737550555.224,-72.754,-29.785,-20.020,-893.066,0.000
1737550555.228,0.488,-28.320,-13.184,-159.668,0.000
1737550555.232,4.395,-20.996,-24.414,48.340,0.000
1737550555.236,-30.273,-12.207,-33.691,-675.781,0.000
1737550555.240,-59.570,-19.043,-18.555,-1000.000,0.000
1737550555.244,-75.684,-35.645,-12.207,-1000.000,0.000
1737550555.248,-34.668,-24.902,-11.719,-594.238,0.000
1737550555.252,-12.207,-19.531,-8.789,-321.777,0.000
1737550555.256,-39.551,-16.113,-0.977,-786.133,0.000
1737550555.260,-44.434,-26.367,11.719,-1000.000,0.000
1737550555.264,-37.598,-33.691,10.742,-955.566,0.000
1737550555.267,-24.902,-31.738,-0.977,-131.836,0.000
1737550555.271,-14.160,-28.320,-11.230,567.383,0.000
1737550555.275,-12.695,-27.344,-16.602,172.363,0.000
1737550555.279,-34.180,-32.715,-27.832,-625.977,0.000
1737550555.283,-55.664,-28.320,-21.484,-912.598,0.000
1737550555.287,-29.297,-6.348,-4.395,65.430,0.000
1737550555.291,0.488,-12.695,-3.418,558.105,0.000
1737550555.295,-15.625,-24.902,7.324,-134.277,0.000
1737550555.299,-50.781,-19.043,-4.883,-794.922,0.000
1737550555.302,-52.734,-31.250,-22.461,-1000.000,0.000
1737550555.306,-46.387,-35.645,-21.484,-334.473,0.000
1737550555.310,-19.043,-19.043,-21.484,467.773,0.000
1737550555.314,-8.301,-24.414,-18.555,76.172,0.000
1737550555.318,-30.762,-29.785,-25.879,-567.383,0.000
1737550555.322,-57.129,-20.020,-22.949,-916.016,0.000
1737550555.326,-42.480,-17.578,-15.625,-224.121,0.000
1737550555.330,8.301,-18.066,-12.207,861.816,0.000
1737550555.334,3.906,-14.160,-15.137,802.246,0.000
1737550555.338,-32.227,-17.090,-19.043,-208.496,0.000
1737550555.342,-79.102,-20.996,-13.672,-1000.000,0.000
1737550555.345,-44.922,-20.508,-16.602,-751.953,0.000
1737550555.349,23.438,-16.602,-14.160,30.762,0.000
1737550555.353,6.836,-22.461,-24.414,-206.543,0.000
1737550555.357,-32.227,-25.391,-30.273,-898.926,0.000
1737550555.361,-73.242,-25.391,-20.508,-1000.000,0.000
1737550555.365,-62.012,-22.461,-21.484,-897.949,0.000
1737550555.369,15.137,-6.348,-24.902,-311.523,0.000
1737550555.373,15.137,-13.672,-15.137,-164.551,0.000
1737550555.377,3.906,-20.996,-20.020,-576.660,0.000
1737550555.381,28.320,-21.973,-40.527,-992.676,0.000
1737550555.385,49.805,-23.438,-38.574,-625.977,0.000
1737550555.388,83.984,-20.508,-22.461,643.555,0.000
1737550555.392,66.406,-22.949,-15.625,875.977,0.000
1737550555.396,-1.465,-12.207,-30.273,119.141,0.000
1737550555.400,-75.684,-8.789,-27.832,-769.531,0.000
1737550555.404,-74.219,-21.484,-11.719,-764.648,0.000
1737550555.408,-20.020,-19.043,-1.465,311.035,0.000
1737550555.412,15.137,-1.465,-8.789,433.105,0.000
1737550555.416,-18.555,-4.395,-26.367,-420.898,0.000
1737550555.420,-63.965,-13.672,-31.738,-971.680,0.000
1737550555.424,-49.805,-17.090,-30.273,-921.387,0.000
1737550555.428,-1.465,-12.207,-27.344,-117.676,0.000
1737550555.431,5.859,-8.301,-21.484,261.230,0.000
1737550555.435,-60.059,-3.906,-26.855,-419.922,0.000
1737550555.439,-91.309,-16.113,-18.555,-958.008,0.000
1737550555.443,-76.172,-32.715,-2.930,-961.914,0.000
1737550555.447,-36.621,-16.602,-8.301,-68.359,0.000
1737550555.451,-9.277,-17.578,-18.555,675.293,0.000
1737550555.455,-35.156,-21.973,-21.484,272.949,0.000
1737550555.459,-71.777,-13.184,-16.602,-416.992,0.000
1737550555.463,-82.520,-19.531,-13.672,-633.301,0.000
1737550555.467,-51.270,-19.043,-12.695,275.391,0.000
1737550555.471,-29.297,-18.555,-17.578,995.605,0.000
1737550555.474,-76.172,-15.137,-27.832,350.098,0.000
1737550555.478,-132.324,-18.066,-24.902,-631.348,0.000
1737550555.482,-138.672,-33.203,-23.438,-1000.000,0.000
1737550555.486,-121.582,-21.484,-23.438,-465.820,0.000
1737550555.490,-96.680,-13.184,-12.695,239.258,0.000
1737550555.494,-112.305,-25.879,-10.742,-112.793,0.000
1737550555.498,-149.414,-14.648,-23.438,-721.680,0.000
1737550555.502,-182.129,-9.766,-29.785,-1000.000,0.000
1737550555.506,-157.715,-31.738,-26.855,-449.219,0.000
1737550555.510,-95.215,-32.227,-29.297,635.742,0.000
1737550555.514,-93.750,-8.789,-12.695,603.027,0.000
1737550555.517,-103.516,-10.742,3.418,52.246,0.000
1737550555.521,-133.301,-18.555,-7.324,-422.363,0.000
1737550555.525,-121.582,-23.926,-8.301,14.160,0.000
1737550555.529,-72.266,-33.203,-6.836,956.543,0.000
1737550555.533,-83.008,-31.738,-24.414,795.898,0.000
1737550555.537,-114.258,-30.762,-19.531,43.457,0.000
1737550555.541,-111.816,-24.414,-14.648,-687.500,0.000
1737550555.545,-36.621,-20.020,-26.367,-408.203,0.000
1737550555.549,59.570,-11.719,-29.785,658.203,0.000
1737550555.553,61.523,-3.418,-24.902,631.836,0.000
1737550555.556,35.645,-8.789,-16.602,-107.910,0.000
1737550555.560,2.930,-11.230,-20.996,-799.316,0.000
1737550555.564,-32.715,-17.090,-25.879,-663.574,0.000
1737550555.568,-12.207,-17.090,-24.902,558.594,0.000
1737550555.572,-59.570,-18.555,-26.367,888.184,0.000
1737550555.576,-139.648,-23.926,-27.832,228.516,0.000
1737550555.580,-220.215,-17.090,-26.367,-532.715,0.000
1737550555.584,-258.301,-16.602,-25.391,-567.383,0.000
1737550555.588,-142.090,-16.602,-20.508,525.391,0.000
1737550555.592,-94.238,-16.602,-17.090,966.309,0.000
1737550555.596,-105.957,-19.043,-21.973,376.465,0.000
1737550555.599,-116.699,-20.508,-24.902,-486.816,0.000
1737550555.603,-131.348,-25.391,-22.949,-603.516,0.000
1737550555.607,-85.449,-30.762,-19.043,452.637,0.000
1737550555.611,-67.383,-20.508,-21.973,917.969,0.000
1737550555.615,-137.207,-27.344,-24.902,194.824,0.000
1737550555.619,-155.762,-43.457,-30.762,-688.965,0.000
1737550555.623,-200.684,-27.832,-24.902,-1000.000,0.000
1737550555.627,-244.141,-16.113,-6.836,-108.398,0.000
1737550555.631,-167.969,-14.648,-4.395,602.051,0.000
1737550555.635,-153.320,-18.555,-8.301,30.762,0.000
1737550555.639,-177.246,-20.508,-14.160,-707.520,0.000
1737550555.642,-212.402,-16.602,-31.250,-875.000,0.000
1737550555.646,-205.566,-14.648,-26.367,160.645,0.000
1737550555.650,-207.520,-13.184,-19.531,995.605,0.000
1737550555.654,-275.879,-23.438,-31.738,476.562,0.000
1737550555.658,-252.930,-28.320,-31.250,-272.461,0.000
1737550555.662,-145.020,-26.367,-32.227,-651.367,0.000
1737550555.666,6.348,-31.250,-25.879,-13.672,0.000
1737550555.670,119.141,-17.578,-6.836,830.078,0.000
1737550555.674,88.867,-7.812,-7.324,506.836,0.000
1737550555.677,-6.348,-24.414,-20.508,-249.512,0.000
1737550555.681,-31.738,-36.621,-24.414,-720.703,0.000
1737550555.685,26.367,-27.344,-23.926,-30.762,0.000
1737550555.689,64.453,-13.672,-25.879,982.910,0.000
1737550555.693,38.574,-19.531,-19.043,710.938,0.000
1737550555.697,-14.648,-30.762,-11.230,-214.844,0.000
1737550555.701,-61.035,-33.203,-21.484,-953.613,0.000
1737550555.705,-50.293,-23.926,-26.855,-441.406,0.000
1737550555.709,-5.859,-17.090,-12.695,795.410,0.000
1737550555.713,-11.719,-27.344,-10.254,712.891,0.000
1737550555.717,-9.766,-21.973,-9.277,-70.312,0.000
1737550555.720,-15.137,-8.789,-13.672,-607.910,0.000
1737550555.724,-22.949,-13.184,-19.043,-341.309,0.000
1737550555.728,42.969,-14.648,-8.789,725.586,0.000
1737550555.732,33.203,-9.277,-12.695,841.309,0.000
1737550555.736,3.418,-20.508,-26.855,59.570,0.000
1737550555.740,-13.672,-29.785,-33.691,-633.789,0.000
1737550555.744,-8.789,-24.902,-30.762,-449.219,0.000
1737550555.748,76.172,-20.996,-24.902,617.188,0.000
1737550555.752,103.027,-13.184,-20.508,950.684,0.000
1737550555.756,66.406,-21.484,-16.113,247.559,0.000
1737550555.759,21.973,-25.391,-22.949,-745.605,0.000
1737550555.763,10.742,-11.719,-22.949,-739.258,0.000
1737550555.767,48.828,-3.418,-15.137,485.352,0.000
1737550555.771,69.336,-11.719,-19.531,999.512,0.000
1737550555.775,64.453,-27.832,-26.855,731.445,0.000
1737550555.779,39.062,-23.926,-33.691,88.867,0.000
1737550555.783,31.738,-12.207,-36.133,147.461,0.000
1737550555.787,62.988,-16.602,-24.902,877.441,0.000
1737550555.791,71.289,-15.625,-13.184,995.605,0.000
1737550555.795,49.805,-13.672,-16.113,875.977,0.000
1737550555.799,43.945,-15.137,-26.367,358.398,0.000
1737550555.802,45.898,-20.508,-39.062,-168.457,0.000
1737550555.806,68.848,-24.902,-26.855,430.664,0.000
1737550555.810,102.051,-13.672,-19.531,999.512,0.000
1737550555.814,78.125,-11.230,-23.926,562.012,0.000
1737550555.818,43.945,-17.090,-17.090,-246.582,0.000
1737550555.822,36.133,-13.672,-23.926,-621.094,0.000
1737550555.826,52.734,-13.184,-25.879,167.480,0.000
1737550555.830,85.449,-18.555,-18.066,965.332,0.000
1737550555.834,78.125,-16.602,-15.625,458.984,0.000
1737550555.838,38.574,-15.625,-16.113,-349.609,0.000
1737550555.842,6.836,-22.949,-16.113,-737.305,0.000
1737550555.845,38.574,-13.672,-16.113,42.480,0.000
1737550555.849,86.914,-7.324,-10.742,999.512,0.000
1737550555.853,55.176,-14.160,-13.672,587.891,0.000
1737550555.857,24.902,-20.508,-29.785,-211.914,0.000
1737550555.861,23.926,-27.832,-31.250,-489.746,0.000
1737550555.865,55.664,-20.508,-31.738,261.230,0.000
1737550555.869,92.285,-10.742,-31.250,999.512,0.000
1737550555.873,57.129,-8.301,-23.926,911.133,0.000
1737550555.877,32.227,-11.230,-20.020,498.535,0.000
1737550555.881,32.227,-20.508,-15.625,-298.828,0.000
1737550555.885,53.223,-15.137,-12.207,31.250,0.000
1737550555.888,105.469,-10.742,-9.766,949.219,0.000
1737550555.892,106.934,-16.602,-4.395,989.746,0.000
1737550555.896,50.781,-16.602,-10.742,876.953,0.000
1737550555.900,-58.594,-15.625,-22.461,324.219,0.000
1737550555.904,-41.992,-14.648,-21.973,275.391,0.000
1737550555.908,50.781,-9.766,-18.066,903.809,0.000
1737550555.912,20.020,-15.137,-18.555,906.738,0.000
1737550555.916,-55.664,-22.461,-18.066,272.461,0.000
1737550555.920,-87.402,-20.020,-19.531,-614.746,0.000
1737550555.924,-79.590,-21.484,-26.855,-701.172,0.000
1737550555.928,-39.551,-14.648,-24.902,455.078,0.000
1737550555.931,-29.785,-14.160,-33.691,695.801,0.000
1737550555.935,-43.945,-18.555,-23.438,20.508,0.000
1737550555.939,-8.301,-18.066,-6.348,-268.555,0.000
1737550555.943,30.762,-10.742,-13.184,-39.062,0.000
1737550555.947,49.805,-14.648,-21.484,719.238,0.000
1737550555.951,44.922,-26.367,-18.555,993.652,0.000
1737550555.955,62.988,-17.578,-14.160,948.242,0.000
1737550555.959,49.805,-11.230,-10.254,552.734,0.000
1737550555.963,22.461,-16.602,-14.160,326.172,0.000
1737550555.967,42.480,-10.742,-15.137,824.219,0.000
1737550555.970,37.109,-5.859,-16.113,999.512,0.000
1737550555.974,37.109,-17.578,-24.902,856.934,0.000
1737550555.978,13.184,-22.949,-20.508,202.637,0.000
1737550555.982,-4.395,-22.461,-17.090,-163.086,0.000
1737550555.986,25.879,-25.879,-20.020,587.402,0.000
1737550555.990,30.273,-20.996,-21.484,999.512,0.000
1737550555.994,7.324,-17.090,-28.320,573.730,0.000
1737550555.998,-25.391,-18.555,-37.109,-149.414,0.000
1737550556.002,-49.805,-18.555,-36.621,-701.660,0.000
1737550556.006,-30.273,-21.973,-22.949,-15.625,0.000
1737550556.009,18.555,-28.809,-18.066,993.164,0.000
1737550556.013,20.020,-28.809,-28.809,691.406,0.000
1737550556.017,-26.367,-27.832,-31.250,-149.902,0.000
1737550556.021,-83.008,-26.367,-21.484,-671.387,0.000
1737550556.025,-83.008,-23.926,-14.160,87.402,0.000
1737550556.029,-37.598,-33.203,-14.648,999.512,0.000
1737550556.033,-16.113,-26.855,-13.672,892.090,0.000
1737550556.037,-30.762,-19.043,-22.461,354.004,0.000
1737550556.041,-69.824,-29.297,-27.832,-343.262,0.000
1737550556.045,-20.020,-27.344,-20.020,80.078,0.000
1737550556.049,25.879,-3.906,-34.668,981.445,0.000
1737550556.052,-6.836,-6.348,-33.691,761.719,0.000
1737550556.056,-20.020,-39.062,-10.742,99.609,0.000
1737550556.060,-31.738,-37.109,-10.742,-514.160,0.000
1737550556.064,-9.766,-20.508,-13.184,-200.195,0.000
1737550556.068,66.406,-16.113,-10.742,883.789,0.000
1737550556.072,45.898,-25.391,-17.090,658.203,0.000
1737550556.076,-40.039,-23.926,-23.438,-312.500,0.000
1737550556.080,-63.965,-21.973,-17.090,-931.641,0.000
1737550556.084,-20.020,-28.809,-14.160,-495.117,0.000
1737550556.088,49.316,-23.926,-17.578,757.324,0.000
1737550556.091,51.270,-10.254,-20.508,796.875,0.000
1737550556.095,0.488,-8.789,-13.672,-110.352,0.000
1737550556.099,-48.340,-22.461,-6.836,-784.668,0.000
1737550556.103,-41.016,-24.902,-12.695,-550.781,0.000
1737550556.107,47.363,-17.578,-9.766,553.711,0.000
1737550556.111,73.242,-20.020,-10.742,960.449,0.000
1737550556.115,21.973,-24.414,-25.879,435.059,0.000
1737550556.119,-8.301,-20.508,-20.508,-253.906,0.000
1737550556.123,17.090,-27.344,-5.371,-346.680,0.000
1737550556.127,56.641,-24.414,0.488,541.992,0.000
1737550556.131,64.941,-13.184,-8.789,999.512,0.000
1737550556.134,44.434,-18.066,-26.855,512.207,0.000
1737550556.138,-13.184,-18.555,-28.320,-201.172,0.000
1737550556.142,-37.109,-22.949,-16.113,-412.598,0.000
1737550556.146,0.977,-32.715,-9.277,411.621,0.000
1737550556.150,19.531,-21.973,-10.254,999.512,0.000
1737550556.154,-7.324,-13.672,-7.324,636.230,0.000
1737550556.158,-41.016,-27.344,-3.906,-158.691,0.000
1737550556.162,-65.430,-30.762,-10.742,-673.340,0.000
1737550556.166,-38.574,-20.508,-12.207,-0.977,0.000
1737550556.170,10.254,-19.531,-17.578,748.047,0.000
1737550556.174,-13.672,-26.367,-21.973,466.797,0.000
1737550556.177,-63.477,-29.297,-15.625,-325.684,0.000
1737550556.181,-76.660,-36.621,-7.324,-951.660,0.000
1737550556.185,-32.715,-26.367,-7.324,-25.879,0.000
1737550556.189,36.621,-9.766,-12.695,999.512,0.000
1737550556.193,1.465,-15.625,-21.973,676.758,0.000
1737550556.197,-68.359,-18.066,-34.668,-212.891,0.000
1737550556.201,-78.125,-15.625,-28.320,-613.770,0.000
1737550556.205,-42.969,-14.648,-5.859,-30.762,0.000
1737550556.209,-18.066,-14.648,15.137,841.797,0.000
1737550556.213,-31.738,-26.855,8.301,611.328,0.000
1737550556.217,-50.781,-28.809,-15.137,-142.578,0.000
1737550556.220,-57.129,-9.766,-17.090,-635.742,0.000
1737550556.224,-45.410,-9.277,-0.488,-278.320,0.000
1737550556.228,4.883,-16.113,-7.812,779.785,0.000
1737550556.232,14.648,-17.578,-22.949,806.641,0.000
1737550556.236,-26.367,-30.273,-28.320,-149.902,0.000
1737550556.240,-47.363,-35.645,-26.367,-939.453,0.000
1737550556.244,-43.945,-19.043,-20.508,-561.523,0.000
1737550556.248,22.461,-6.836,-20.020,604.980,0.000
1737550556.252,54.688,-4.395,-18.555,758.301,0.000
1737550556.256,35.645,-11.230,-3.906,89.844,0.000
1737550556.260,12.207,-20.020,-2.930,-439.941,0.000
1737550556.263,9.277,-26.855,-10.742,-148.438,0.000
1737550556.267,51.270,-21.973,-10.254,794.922,0.000
1737550556.271,78.125,-14.160,-18.555,815.918,0.000
1737550556.275,56.641,-19.531,-16.602,-40.039,0.000
1737550556.279,8.301,-22.461,-27.832,-766.113,0.000
1737550556.283,7.812,-24.902,-33.691,-714.844,0.000
1737550556.287,72.266,-20.508,-10.254,375.488,0.000
1737550556.291,73.242,-23.438,-4.395,833.496,0.000
1737550556.295,33.203,-22.949,-13.184,270.508,0.000
1737550556.299,17.578,-25.391,-6.348,-217.773,0.000
1737550556.302,7.812,-28.809,-6.348,-414.062,0.000
1737550556.306,29.297,-21.484,-22.461,352.539,0.000
1737550556.310,53.711,-23.438,-15.137,926.758,0.000
1737550556.314,41.992,-19.043,-10.254,544.922,0.000
1737550556.318,16.602,-11.230,-17.090,-0.488,0.000
1737550556.322,8.301,-19.043,-8.301,-221.680,0.000
1737550556.326,43.945,-21.973,-0.977,479.980,0.000
1737550556.330,65.918,-20.508,-6.836,999.512,0.000
1737550556.334,51.270,-12.207,-5.859,742.188,0.000
1737550556.338,29.297,-12.695,-11.719,135.254,0.000
1737550556.342,17.578,-22.949,-15.137,-11.719,0.000
1737550556.345,22.949,-20.020,-13.672,622.070,0.000
1737550556.349,40.527,-27.832,-16.602,999.512,0.000
1737550556.353,28.809,-27.832,-11.230,939.453,0.000
1737550556.357,-10.742,-22.461,-16.602,487.793,0.000
1737550556.361,-37.109,-23.926,-24.902,45.410,0.000
1737550556.365,-6.348,-20.020,-20.508,586.914,0.000
1737550556.369,9.277,-19.043,-19.531,999.512,0.000
1737550556.373,2.441,-26.367,-17.578,916.992,0.000
1737550556.377,14.160,-24.414,-13.672,485.840,0.000
1737550556.381,-2.441,-3.906,-2.441,-147.949,0.000
1737550556.384,0.000,-15.625,2.441,143.066,0.000
1737550556.388,31.738,-32.715,-15.137,919.922,0.000
1737550556.392,16.113,-19.531,-29.785,716.309,0.000
1737550556.396,-40.527,-10.254,-18.555,-33.691,0.000
1737550556.400,-67.871,-14.648,1.953,-749.512,0.000
1737550556.404,-53.223,-11.230,-5.859,-450.684,0.000
1737550556.408,-12.695,-3.906,-21.484,764.160,0.000
1737550556.412,24.902,-10.742,-8.789,902.344,0.000
1737550556.416,15.137,-30.273,3.906,336.426,0.000
1737550556.420,-20.508,-23.438,-8.789,70.312,0.000
1737550556.423,-5.859,-5.859,-24.902,354.980,0.000
1737550556.427,41.016,-20.508,-21.973,937.012,0.000
1737550556.431,37.109,-22.461,-16.602,803.711,0.000
1737550556.435,5.371,-6.348,-8.301,150.879,0.000
1737550556.439,-24.902,-5.859,-8.789,-474.609,0.000
1737550556.443,-5.859,-16.602,-15.137,-292.969,0.000
1737550556.447,33.203,-11.230,-20.508,725.098,0.000
1737550556.451,-1.465,-4.883,-16.602,960.938,0.000
1737550556.455,-10.742,-11.719,-3.418,531.250,0.000
1737550556.459,-2.441,-18.555,-8.789,-81.055,0.000
1737550556.463,-21.484,-9.766,-17.090,-262.207,0.000
1737550556.466,23.438,-4.883,-19.531,584.961,0.000
1737550556.470,45.410,-18.555,-13.184,978.516,0.000
1737550556.474,4.883,-11.719,7.324,451.660,0.000
1737550556.478,-19.531,-0.488,12.695,-223.633,0.000
1737550556.482,-25.391,-0.488,-10.742,-374.512,0.000
1737550556.486,-34.180,-8.789,-13.672,483.887,0.000
1737550556.490,3.418,-15.625,-4.883,999.512,0.000
1737550556.494,0.488,-8.789,-12.207,586.426,0.000
1737550556.498,-65.918,-18.066,-7.812,-175.781,0.000
1737550556.502,-78.125,-5.371,-2.441,-468.750,0.000
1737550556.506,-34.668,-2.930,-7.812,267.578,0.000
1737550556.509,-20.508,-14.648,-7.812,745.117,0.000
1737550556.513,-57.129,-10.254,-18.555,80.078,0.000
1737550556.517,-69.336,-20.020,-28.320,-713.379,0.000
1737550556.521,-65.918,-21.484,-17.090,-1000.000,0.000
1737550556.525,-31.738,-8.789,-9.766,-434.570,0.000
1737550556.529,-12.207,-2.441,-14.160,214.355,0.000
1737550556.533,-46.387,-22.949,-8.301,-334.473,0.000
1737550556.537,-48.828,-19.043,-16.602,-947.754,0.000
1737550556.541,-63.965,-10.254,-12.207,-1000.000,0.000
1737550556.545,-55.664,-10.254,-6.348,-690.430,0.000
1737550556.549,2.930,-10.254,-9.766,162.598,0.000
1737550556.552,-26.367,-16.602,-18.066,53.711,0.000
1737550556.556,-63.965,-29.297,-24.414,-700.684,0.000
1737550556.560,-94.238,-39.062,-15.137,-1000.000,0.000
1737550556.564,-128.906,-23.438,-10.742,-598.145,0.000
1737550556.568,-45.898,-16.602,-1.953,436.035,0.000
1737550556.572,-3.418,-27.832,-19.531,362.793,0.000
1737550556.576,-50.781,-22.949,-33.203,-532.715,0.000
1737550556.580,-103.027,-14.160,-15.625,-1000.000,0.000
1737550556.584,-104.980,-21.484,0.977,-569.824,0.000
1737550556.588,-27.344,-30.273,5.371,445.312,0.000
1737550556.591,-12.207,-33.203,3.418,437.500,0.000
1737550556.595,-56.641,-26.367,-7.324,-356.934,0.000
1737550556.599,-63.965,-7.812,-18.066,-923.340,0.000
1737550556.603,-72.754,-1.465,-8.789,-712.891,0.000
1737550556.607,-42.969,-1.953,-13.184,391.113,0.000
1737550556.611,-11.719,-23.438,-3.906,555.664,0.000
1737550556.615,-52.734,-29.785,-7.812,-457.520,0.000
1737550556.619,-86.426,-4.883,-37.598,-1000.000,0.000
1737550556.623,-62.988,-18.555,-19.043,-956.055,0.000
1737550556.627,-28.320,-22.461,3.418,-288.574,0.000
1737550556.631,-47.363,-16.602,13.184,-86.426,0.000
1737550556.634,-66.406,-16.602,0.488,-791.504,0.000
1737550556.638,-98.633,-4.395,-30.273,-1000.000,0.000
1737550556.642,-67.383,-15.625,-24.414,-955.078,0.000
1737550556.646,-0.488,-36.133,1.953,-201.172,0.000
1737550556.650,-0.977,-25.391,-4.395,374.512,0.000
1737550556.654,-56.152,-2.930,-20.508,-202.148,0.000
1737550556.658,-89.355,-22.461,-8.789,-809.570,0.000
1737550556.662,-52.246,-33.691,-13.184,-831.055,0.000
1737550556.666,-26.855,-20.996,-15.625,132.812,0.000
1737550556.670,-2.930,-13.672,9.766,865.234,0.000
1737550556.674,-45.898,5.859,5.859,196.289,0.000
1737550556.677,-65.430,-6.836,-19.043,-561.035,0.000
1737550556.681,-31.738,-26.367,-13.184,-602.539,0.000
1737550556.685,-40.527,-22.461,17.578,200.195,0.000
1737550556.689,-12.695,-20.996,5.859,924.316,0.000
1737550556.693,19.531,-29.785,-22.949,301.270,0.000
1737550556.697,-13.184,-37.109,-14.160,-647.461,0.000
1737550556.701,-68.848,-25.879,-28.809,-1000.000,0.000
1737550556.705,-64.941,-19.043,-13.184,-418.945,0.000
1737550556.709,41.992,-11.719,-5.371,489.258,0.000
1737550556.713,17.578,-20.508,-9.766,51.758,0.000
1737550556.716,-43.457,-25.391,-0.488,-770.020,0.000
1737550556.720,-34.668,-17.578,-12.695,-1000.000,0.000
1737550556.724,-21.973,-23.926,-17.578,-191.406,0.000
1737550556.728,40.039,-37.598,5.859,999.512,0.000
1737550556.732,32.227,-18.066,-18.555,456.543,0.000
1737550556.736,-38.086,-4.883,-38.086,-708.496,0.000
1737550556.740,-73.730,-9.766,-25.391,-1000.000,0.000
1737550556.744,-51.758,2.441,-7.812,-795.898,0.000
1737550556.748,26.367,0.000,-0.977,68.848,0.000
1737550556.752,57.129,-28.809,-21.484,22.461,0.000
1737550556.755,5.859,-51.270,-3.418,-794.434,0.000
1737550556.759,-62.500,-34.668,-3.418,-1000.000,0.000
1737550556.763,-19.043,-10.254,-35.645,-584.473,0.000
1737550556.767,45.898,-9.277,-25.391,483.398,0.000
1737550556.771,-7.812,-15.625,-4.883,645.020,0.000
1737550556.775,-22.949,-17.578,-6.348,54.688,0.000
1737550556.779,-42.480,-30.762,-7.324,-592.773,0.000
1737550556.783,-36.621,-23.926,-11.230,-457.520,0.000
1737550556.787,-2.930,-23.438,-11.719,662.598,0.000
1737550556.791,-20.020,-29.785,-6.348,778.809,0.000
1737550556.795,-57.617,-35.156,-0.977,-230.957,0.000
1737550556.798,-67.383,-38.574,-12.695,-933.594,0.000
1737550556.802,-63.477,-20.508,-16.602,-849.121,0.000
1737550556.806,-30.273,-23.926,0.977,118.164,0.000
1737550556.810,4.883,-31.738,-14.648,434.082,0.000
1737550556.814,-35.645,-26.367,-23.926,-532.715,0.000
1737550556.818,-62.012,-18.066,-16.113,-1000.000,0.000
1737550556.822,-42.969,-18.555,-9.766,-1000.000,0.000
1737550556.826,-52.734,-7.812,-7.812,-646.484,0.000
1737550556.830,-53.711,-6.836,-0.488,-267.578,0.000
1737550556.834,-30.762,-38.086,5.371,-746.094,0.000
1737550556.837,-29.297,-21.484,-20.020,-1000.000,0.000
1737550556.841,-41.504,-14.648,9.277,-1000.000,0.000
1737550556.845,-58.105,-32.715,9.766,-924.805,0.000
1737550556.849,-10.254,-16.602,-18.555,-676.758,0.000
1737550556.853,27.832,-16.602,-2.930,-844.727,0.000
1737550556.857,11.719,-20.020,-13.184,-991.211,0.000
1737550556.861,-11.719,-19.531,-3.418,-1000.000,0.000
1737550556.865,29.297,-9.766,-2.441,-589.355,0.000
1737550556.869,106.934,-4.395,-32.227,300.293,0.000
1737550556.873,60.059,-9.766,-14.648,-78.125,0.000
1737550556.877,0.000,-5.371,-15.625,-830.566,0.000
1737550556.880,-1.465,-15.137,-25.879,-1000.000,0.000
1737550556.884,23.926,-2.441,-26.367,-674.805,0.000
1737550556.888,79.590,-15.137,-17.578,282.715,0.000
1737550556.892,43.945,-41.504,-3.906,60.547,0.000
1737550556.896,-28.320,-17.090,-3.906,-819.824,0.000
1737550556.900,-52.246,-2.930,-3.418,-1000.000,0.000
1737550556.904,-5.859,-17.090,-12.695,-745.605,0.000
1737550556.908,30.762,-20.508,-16.602,140.625,0.000
1737550556.912,-15.137,-3.418,-22.461,97.168,0.000
1737550556.916,-44.922,-12.695,-25.391,-699.707,0.000
1737550556.920,-11.230,-39.551,-12.207,-1000.000,0.000
1737550556.923,-12.207,-20.508,-2.441,-862.793,0.000
1737550556.927,-10.254,-10.254,15.625,-510.254,0.000
1737550556.931,-27.832,-9.277,-3.906,-782.227,0.000
1737550556.935,-47.852,-25.879,-18.066,-1000.000,0.000
1737550556.939,-41.016,-39.551,-8.301,-983.887,0.000
1737550556.943,-41.992,-25.879,-5.859,-999.512,0.000
1737550556.947,-43.945,-13.672,0.488,-1000.000,0.000
1737550556.951,-57.129,-14.160,-14.648,-1000.000,0.000
1737550556.955,-41.992,-11.719,-28.320,-1000.000,0.000
1737550556.959,-35.645,-12.695,-6.836,-1000.000,0.000
1737550556.963,-58.594,-30.762,6.348,-1000.000,0.000
1737550556.966,-69.336,-31.250,-0.977,-1000.000,0.000
1737550556.970,-101.074,-19.531,-3.906,-1000.000,0.000
1737550556.974,-90.332,-17.090,-7.324,-1000.000,0.000
1737550556.978,-84.473,-23.438,-6.836,-1000.000,0.000
1737550556.982,-139.648,-28.809,2.930,-1000.000,0.000
1737550556.986,-92.773,-28.809,-4.883,-1000.000,0.000
1737550556.990,-54.199,-35.156,-9.766,-1000.000,0.000
1737550556.994,-57.617,-25.879,-4.395,-1000.000,0.000
1737550556.998,-50.293,-6.836,-12.207,-1000.000,0.000
1737550557.002,-84.473,-14.160,-8.301,-1000.000,0.000
1737550557.006,-87.891,-11.719,-20.996,-1000.000,0.000
1737550557.009,-65.918,-8.301,-45.898,-1000.000,0.000
1737550557.013,-76.172,-11.230,-32.227,-1000.000,0.000
1737550557.017,-108.887,-5.859,-25.879,-993.164,0.000
1737550557.021,-86.426,-20.508,-33.691,-1000.000,0.000
1737550557.025,-51.270,-30.273,-33.203,-968.262,0.000
1737550557.029,-62.988,-6.836,-32.227,-862.305,0.000
1737550557.033,-73.730,-2.441,-26.855,-961.914,0.000
1737550557.037,-57.617,-20.996,-9.277,-1000.000,0.000
1737550557.041,-65.430,-15.625,-17.578,-993.164,0.000
1737550557.045,-97.168,-18.066,-30.762,-1000.000,0.000
1737550557.048,-56.641,-28.809,-32.715,-1000.000,0.000
1737550557.052,-57.617,-23.926,-29.297,-1000.000,0.000
1737550557.056,-79.102,-12.207,-20.996,-971.191,0.000
1737550557.060,-82.031,-13.184,-23.438,-1000.000,0.000
1737550557.064,-74.219,-26.855,-15.625,-818.359,0.000
1737550557.068,-46.875,-27.344,-12.695,-55.176,0.000
1737550557.072,-51.758,-15.625,-18.555,-149.902,0.000
1737550557.076,-46.387,-15.137,-3.906,-840.332,0.000
1737550557.080,-45.410,-24.414,-14.648,-1000.000,0.000
1737550557.084,-59.570,-25.879,-29.785,-899.414,0.000
1737550557.087,-67.871,-15.137,-15.137,-568.359,0.000
1737550557.091,-104.492,-0.977,-16.602,-758.789,0.000
1737550557.095,-128.418,-6.348,-34.180,-1000.000,0.000
1737550557.099,-136.719,-28.809,-24.414,-976.074,0.000
1737550557.103,-164.551,-17.578,-10.254,-1000.000,0.000
1737550557.107,-126.465,7.812,-21.973,-518.066,0.000
1737550557.111,-94.727,6.836,-35.156,-166.504,0.000
1737550557.115,-144.043,1.953,-21.973,-717.285,0.000
1737550557.119,-200.684,-0.488,-17.578,-1000.000,0.000
1737550557.123,-214.844,-14.160,-19.043,-964.355,0.000
1737550557.127,-178.223,-31.738,-20.996,-274.414,0.000
1737550557.130,-227.051,-25.391,-23.926,57.617,0.000
1737550557.134,-272.461,-18.555,-27.832,-642.578,0.000
1737550557.138,-202.637,-23.926,-35.645,-1000.000,0.000
1737550557.142,-101.074,-11.719,-27.344,-873.047,0.000
1737550557.146,18.066,-10.254,-14.648,117.188,0.000
1737550557.150,21.484,-12.695,-12.207,719.238,0.000
1737550557.154,-70.312,-4.395,-25.391,97.168,0.000
1737550557.158,-102.539,-2.930,-22.461,-260.254,0.000
1737550557.162,-61.035,-19.043,-17.578,308.594,0.000
1737550557.166,87.402,-26.367,-21.484,948.730,0.000
1737550557.169,317.383,-32.227,-27.344,956.055,0.000
1737550557.173,422.852,-28.320,-20.508,988.281,0.000
1737550557.177,375.977,-13.184,-5.371,850.586,0.000
1737550557.181,284.180,-18.555,-10.254,528.320,0.000
1737550557.185,188.477,-19.531,-27.344,785.156,0.000
1737550557.189,158.691,-13.184,-35.645,999.512,0.000
1737550557.193,237.305,-7.812,-29.297,621.582,0.000
1737550557.197,97.168,-24.414,-9.766,-110.840,0.000
1737550557.201,-102.051,-35.156,-21.973,-581.543,0.000
1737550557.205,-122.070,-24.414,-26.855,64.453,0.000
1737550557.209,-149.414,-13.184,-29.297,986.328,0.000
1737550557.212,-134.766,-14.160,-42.969,419.434,0.000
1737550557.216,-55.176,-24.902,-22.949,-459.961,0.000
1737550557.220,20.020,-26.855,-20.508,-614.746,0.000
1737550557.224,18.066,-27.344,-35.156,78.613,0.000
1737550557.228,-28.320,-12.695,-21.973,943.359,0.000
1737550557.232,-200.684,2.441,-4.395,770.508,0.000
1737550557.236,-333.496,-5.371,-18.066,4.395,0.000
1737550557.240,-199.219,-9.277,-30.273,-334.473,0.000
1737550557.244,-202.148,-9.277,-17.090,374.023,0.000
1737550557.248,-464.355,-14.160,-7.812,996.094,0.000
1737550557.252,-530.762,-31.738,-12.207,979.980,0.000
1737550557.255,-463.379,-29.297,-15.137,768.555,0.000
1737550557.259,-536.621,-5.371,-15.625,180.664,0.000
1737550557.263,-672.363,-0.488,-5.371,389.160,0.000
1737550557.267,-818.359,-3.906,-8.301,978.516,0.000
1737550557.271,-812.500,-9.277,-22.949,954.590,0.000
1737550557.275,-670.410,-16.113,-16.113,465.332,0.000
1737550557.279,-594.238,-11.230,-12.695,-255.859,0.000
1737550557.283,-598.145,-3.906,-11.719,-250.000,0.000
1737550557.287,-583.496,-11.230,-7.812,613.770,0.000
1737550557.291,-555.664,-26.855,-7.324,757.324,0.000
1737550557.295,-542.969,-16.113,-17.578,-57.617,0.000
1737550557.298,-539.551,-14.648,-25.879,-621.094,0.000
1737550557.302,-466.797,-22.949,-32.715,-569.824,0.000
1737550557.306,-317.871,-15.137,-27.344,338.379,0.000
1737550557.310,-157.715,-13.184,-7.812,860.352,0.000
1737550557.314,-68.359,-23.926,-15.625,233.887,0.000
1737550557.318,27.344,-23.926,-25.879,-444.824,0.000
1737550557.322,195.801,-26.367,-32.227,-510.254,0.000
1737550557.326,363.770,-13.672,-31.738,387.695,0.000
1737550557.330,477.051,4.883,-22.461,924.316,0.000
1737550557.334,544.922,-8.301,-24.902,217.285,0.000
1737550557.338,572.266,-21.484,-36.133,-618.652,0.000
1737550557.341,591.309,-30.762,-28.320,-906.250,0.000
1737550557.345,625.488,-32.715,-21.484,8.301,0.000
1737550557.349,581.055,-24.414,-18.555,673.828,0.000
1737550557.353,493.164,-20.996,-13.184,-98.633,0.000
1737550557.357,417.969,-23.438,-22.461,-831.543,0.000
1737550557.361,360.840,-30.273,-27.344,-983.887,0.000
1737550557.365,311.523,-27.832,-14.160,-132.324,0.000
1737550557.369,272.461,-1.953,-17.578,870.605,0.000
1737550557.373,186.035,-5.371,-29.785,434.570,0.000
1737550557.377,69.336,-24.902,-26.855,-376.953,0.000
1737550557.381,17.090,-23.438,-21.484,-693.359,0.000
1737550557.384,20.020,-20.996,-22.461,-40.039,0.000
1737550557.388,25.391,-28.320,-20.996,815.918,0.000
1737550557.392,-40.527,-21.973,-13.672,392.090,0.000
1737550557.396,-116.211,-16.602,-16.113,-473.633,0.000
1737550557.400,-148.926,-23.926,-25.391,-992.676,0.000
1737550557.404,-116.211,-46.387,-25.391,-694.824,0.000
1737550557.408,-20.020,-37.109,-24.414,227.539,0.000
1737550557.412,-12.207,-12.695,-33.691,149.902,0.000
1737550557.416,-3.906,-20.508,-35.645,-616.699,0.000
1737550557.420,0.000,-24.902,-39.551,-1000.000,0.000
1737550557.423,23.438,-15.625,-35.156,-678.711,0.000
1737550557.427,97.656,-8.301,-32.227,315.430,0.000
1737550557.431,99.609,-4.395,-28.320,320.801,0.000
1737550557.435,98.145,-8.301,-16.602,-398.438,0.000
1737550557.439,99.121,-16.113,-15.625,-807.617,0.000
1737550557.443,91.797,-14.648,-11.719,-505.371,0.000
1737550557.447,132.324,0.977,-0.977,564.941,0.000
1737550557.451,88.867,-3.418,-10.254,737.793,0.000
1737550557.455,-16.113,-22.949,-30.762,-140.625,0.000
1737550557.459,-49.316,-30.762,-20.996,-608.887,0.000
1737550557.462,-17.090,-18.066,-15.137,-220.703,0.000
1737550557.466,68.359,-11.719,-20.996,708.008,0.000
1737550557.470,68.848,-22.461,-27.832,916.016,0.000
1737550557.474,12.207,-15.625,-23.926,257.324,0.000
1737550557.478,-22.461,-17.090,-27.832,-505.371,0.000
1737550557.482,-8.789,-27.832,-21.973,-551.270,0.000
1737550557.486,39.062,-5.859,-7.812,475.586,0.000
1737550557.490,34.180,5.371,-7.324,999.512,0.000
1737550557.494,-5.371,-14.160,-8.789,415.039,0.000
1737550557.498,-21.484,-12.695,-15.625,-201.172,0.000
1737550557.502,-11.719,-18.066,-9.766,-29.297,0.000
1737550557.505,54.688,-18.555,-1.953,761.719,0.000
1737550557.509,68.359,-10.254,-22.949,999.512,0.000
1737550557.513,21.973,-12.695,-29.785,935.059,0.000
1737550557.517,9.277,-19.531,-13.184,659.668,0.000
1737550557.521,11.230,-7.324,-14.160,537.598,0.000
1737550557.525,34.180,1.465,-9.766,914.551,0.000
1737550557.529,29.785,-9.277,-7.324,984.863,0.000
1737550557.533,32.227,-9.766,-3.418,966.309,0.000
1737550557.537,54.199,-6.348,-5.371,949.707,0.000
1737550557.541,12.207,-10.254,-9.277,820.312,0.000
1737550557.544,-5.859,-13.672,-11.230,910.645,0.000
1737550557.548,40.039,-11.719,-20.508,977.051,0.000
1737550557.552,38.574,-11.719,-37.109,981.445,0.000
1737550557.556,5.859,-12.695,-33.203,751.953,0.000
1737550557.560,-4.395,-23.926,-0.488,405.273,0.000
1737550557.564,12.695,-8.301,12.207,717.285,0.000
1737550557.568,5.371,4.395,-10.742,999.512,0.000
1737550557.572,-16.113,-12.207,-23.438,944.336,0.000
1737550557.576,-9.277,-23.438,-11.230,634.766,0.000
1737550557.580,-28.320,-10.254,-12.695,219.727,0.000
1737550557.584,-27.344,-7.812,-15.137,458.984,0.000
1737550557.587,-5.371,-17.578,-11.719,972.656,0.000
1737550557.591,12.207,-19.531,-18.555,832.520,0.000
1737550557.595,13.672,-10.742,-26.367,294.434,0.000
1737550557.599,-20.508,-16.602,-17.578,-217.773,0.000
1737550557.603,-0.488,-22.461,-10.254,205.566,0.000
1737550557.607,56.641,-12.695,0.977,972.168,0.000
1737550557.611,34.180,-16.113,3.906,977.539,0.000
1737550557.615,29.785,-12.207,-11.230,910.645,0.000
1737550557.619,15.625,-11.719,-20.020,479.492,0.000
1737550557.623,12.207,-23.438,-23.926,516.113,0.000
1737550557.627,39.551,-15.137,-20.996,976.074,0.000
1737550557.630,-10.254,-22.949,-25.391,987.793,0.000
1737550557.634,-27.344,-37.109,-31.250,825.195,0.000
1737550557.638,-33.691,-21.973,-16.602,406.250,0.000
1737550557.642,-39.551,-14.648,-5.371,396.484,0.000
1737550557.646,-7.812,-17.578,-5.859,873.047,0.000
1737550557.650,0.000,-27.344,-17.578,985.352,0.000
1737550557.654,-12.207,-24.414,-17.578,626.953,0.000
1737550557.658,-29.785,-23.926,-17.578,32.227,0.000
1737550557.662,-29.785,-20.996,-30.762,-58.594,0.000
1737550557.666,-10.254,-11.719,-35.156,631.348,0.000
1737550557.670,28.809,-26.367,-17.090,999.512,0.000
1737550557.673,39.551,-23.926,1.465,734.863,0.000
1737550557.677,-14.160,-19.043,-1.465,6.836,0.000
1737550557.681,-57.129,-25.391,-8.301,-427.246,0.000
1737550557.685,-16.113,-34.180,-9.766,401.855,0.000
1737550557.689,6.348,-30.273,-15.137,999.512,0.000
1737550557.693,-20.996,-16.602,-13.672,368.164,0.000
1737550557.697,-38.574,-15.137,-21.484,-479.004,0.000
1737550557.701,-66.406,-22.461,-26.855,-931.641,0.000
1737550557.705,-38.086,-29.297,-13.672,-286.133,0.000
1737550557.709,14.160,-15.137,-14.648,563.477,0.000
1737550557.713,1.465,-14.160,-16.113,83.496,0.000
1737550557.716,-27.832,-25.391,-9.277,-659.668,0.000
1737550557.720,-72.266,-14.648,-2.930,-967.285,0.000
1737550557.724,-47.363,-17.090,-2.441,-420.898,0.000
1737550557.728,5.859,-19.531,-19.043,414.062,0.000
1737550557.732,-6.348,-12.695,-15.625,127.930,0.000
1737550557.736,-50.781,-15.625,-14.160,-512.695,0.000
1737550557.740,-81.543,-10.742,-29.785,-780.273,0.000
1737550557.744,-57.129,-12.207,-20.020,-288.086,0.000
1737550557.748,8.789,-17.090,-16.113,759.766,0.000
1737550557.752,-19.043,-10.742,-21.973,800.781,0.000
1737550557.756,-81.543,-25.879,-3.418,87.891,0.000
1737550557.759,-66.895,-20.996,6.836,-382.812,0.000
1737550557.763,-37.598,-18.066,11.719,-20.996,0.000
1737550557.767,-21.484,-28.809,3.906,875.488,0.000
1737550557.771,-52.734,-19.531,-6.836,770.508,0.000
1737550557.775,-103.027,-15.137,-6.836,-174.316,0.000
1737550557.779,-110.352,-8.301,-13.672,-907.227,0.000
1737550557.783,-89.355,-3.418,-22.949,-787.109,0.000
1737550557.787,-53.711,-15.625,-22.949,182.129,0.000
1737550557.791,-34.668,-16.602,-7.324,434.570,0.000
1737550557.795,-73.730,0.488,-11.719,-408.203,0.000
1737550557.798,-93.750,-14.160,-34.668,-993.164,0.000
1737550557.802,-78.613,-32.715,-31.250,-979.492,0.000
1737550557.806,-47.363,-33.691,-12.695,-360.352,0.000
1737550557.810,-32.715,-36.133,-5.859,35.645,0.000
1737550557.814,-17.578,-22.461,-7.812,-339.844,0.000
1737550557.818,-28.809,-9.766,-21.973,-729.492,0.000
1737550557.822,-39.551,-13.184,-29.297,-661.621,0.000
1737550557.826,23.926,-3.906,-27.344,368.164,0.000
1737550557.830,62.500,-11.230,-15.625,999.512,0.000
1737550557.834,15.137,-16.602,-6.348,624.023,0.000
1737550557.837,-14.648,-14.648,-4.395,14.160,0.000
1737550557.841,-18.066,-15.137,-5.859,111.816,0.000
1737550557.845,0.977,-18.555,-14.160,809.570,0.000
1737550557.849,16.113,-21.484,-10.742,990.234,0.000
1737550557.853,15.137,-4.883,-19.043,980.469,0.000
1737550557.857,-8.789,-2.930,-31.250,803.223,0.000
1737550557.861,-9.766,-14.160,-14.648,682.129,0.000
1737550557.865,50.781,-16.602,-0.977,933.594,0.000
1737550557.869,28.809,-23.438,-12.207,999.512,0.000
1737550557.873,-13.184,-17.090,-22.949,804.688,0.000
1737550557.877,-11.719,-20.996,-1.953,230.957,0.000
1737550557.880,-34.180,-39.062,9.277,-276.367,0.000
1737550557.884,-20.508,-22.949,-18.066,167.480,0.000
1737550557.888,30.273,-2.441,-25.391,940.430,0.000
1737550557.892,12.207,-6.836,-12.695,521.973,0.000
1737550557.896,-36.133,-16.602,-10.742,-354.004,0.000
1737550557.900,-55.664,-26.855,-13.184,-825.684,0.000
1737550557.904,-16.113,-27.344,-12.695,-204.102,0.000
1737550557.908,19.531,-4.395,-3.418,898.438,0.000
1737550557.912,-20.508,4.395,-15.137,788.086,0.000
1737550557.916,-62.012,-28.320,-26.367,-33.203,0.000
1737550557.919,-54.199,-28.809,-19.531,-566.406,0.000
1737550557.923,-40.527,-15.625,-3.906,52.734,0.000
1737550557.927,-47.852,-27.832,-3.418,949.219,0.000
1737550557.931,1.465,-26.367,-15.137,951.172,0.000
1737550557.935,1.953,-14.160,-7.812,497.070,0.000
1737550557.939,-24.902,-13.672,-7.812,0.488,0.000
1737550557.943,1.465,-20.020,-17.578,283.691,0.000
1737550557.947,18.555,-20.508,-19.043,933.105,0.000
1737550557.951,41.992,-18.066,-19.531,856.934,0.000
1737550557.955,10.742,-13.184,-24.902,264.160,0.000
1737550557.959,-28.809,-9.766,-26.367,-455.078,0.000
1737550557.962,-18.555,-22.461,-17.090,-643.555,0.000
1737550557.966,-6.348,-23.926,-11.719,295.410,0.000
1737550557.970,-12.207,-20.996,-21.484,533.691,0.000
1737550557.974,-58.594,-28.809,-24.414,-361.816,0.000
1737550557.978,-70.801,-29.785,-25.391,-956.055,0.000
1737550557.982,-49.316,-34.180,-28.809,-798.340,0.000
1737550557.986,-27.344,-40.039,-16.602,312.012,0.000
1737550557.990,-8.789,-23.926,-22.949,867.676,0.000
1737550557.994,-13.184,-21.973,-40.039,81.543,0.000
1737550557.998,-27.344,-27.344,-27.832,-635.742,0.000
1737550558.002,-43.945,-25.879,-11.719,-540.039,0.000
1737550558.005,-5.371,-21.973,-8.789,444.336,0.000
1737550558.009,5.859,-20.020,-2.441,896.973,0.000
1737550558.013,-46.875,-19.043,-1.465,156.738,0.000
1737550558.017,-50.293,-14.648,-20.508,-604.492,0.000
1737550558.021,-63.477,-25.879,-27.832,-912.598,0.000
1737550558.025,-40.527,-24.414,-20.508,-133.789,0.000
1737550558.029,4.395,-11.719,-7.812,692.871,0.000
1737550558.033,-6.836,-7.324,-16.113,201.172,0.000
1737550558.037,-0.488,-22.949,-32.715,-555.176,0.000
1737550558.041,12.207,-32.227,-14.648,-856.445,0.000
1737550558.045,-7.324,-8.301,-5.859,-167.480,0.000
1737550558.048,-4.395,2.930,-13.672,786.133,0.000
1737550558.052,10.254,-12.695,-13.184,460.449,0.000
1737550558.056,-25.391,-14.648,-7.812,-371.094,0.000
1737550558.060,-47.363,-9.766,-12.695,-735.352,0.000
1737550558.064,-13.184,-11.230,-23.438,-10.254,0.000
1737550558.068,22.949,-24.902,-26.855,914.551,0.000
1737550558.072,4.883,-31.250,-25.391,466.309,0.000
1737550558.076,-32.227,-29.297,-26.855,-388.672,0.000
1737550558.080,-69.824,-19.043,-22.949,-887.695,0.000
1737550558.084,-49.805,-6.348,-17.090,-485.840,0.000
1737550558.088,13.672,-6.836,-16.602,591.797,0.000
1737550558.091,23.438,-12.695,-1.953,432.617,0.000
1737550558.095,-22.461,-12.207,-3.418,-483.398,0.000
1737550558.099,-53.223,-15.625,-9.277,-991.699,0.000
1737550558.103,-20.020,-31.250,-5.371,-746.582,0.000
1737550558.107,11.719,-28.320,-18.555,331.543,0.000
1737550558.111,22.461,-25.879,-22.949,524.414,0.000
1737550558.115,-24.414,-35.645,-25.391,-151.367,0.000
1737550558.119,-68.848,-15.625,-35.156,-687.988,0.000
1737550558.123,-16.602,-9.277,-27.832,-577.637,0.000
1737550558.127,44.922,-16.113,-24.414,519.043,0.000
1737550558.131,38.086,-11.230,-25.879,764.648,0.000
1737550558.134,-36.621,-20.508,-10.742,-135.742,0.000
1737550558.138,-71.289,-30.273,-7.812,-823.242,0.000
1737550558.142,-56.641,-14.160,-29.785,-722.656,0.000
1737550558.146,-0.488,-7.324,-26.855,421.387,0.000
1737550558.150,27.832,-19.043,-9.766,922.852,0.000
1737550558.154,-8.789,-31.250,-8.789,200.195,0.000
1737550558.158,-27.832,-28.809,-24.414,-409.180,0.000
1737550558.162,-33.691,-25.879,-32.227,-394.043,0.000
1737550558.166,-20.508,-35.156,-18.555,423.828,0.000
1737550558.170,29.785,-20.508,-9.766,980.469,0.000
1737550558.174,-3.906,-19.043,0.488,398.926,0.000
1737550558.177,-66.895,-13.672,-15.137,-335.449,0.000
1737550558.181,-71.777,-7.324,-15.137,-498.535,0.000
1737550558.185,-34.668,-12.207,0.488,316.406,0.000
1737550558.189,1.953,-10.742,-4.395,999.512,0.000
1737550558.193,-36.621,-14.160,-16.602,447.266,0.000
1737550558.197,-93.750,-20.020,-18.066,-492.676,0.000
1737550558.201,-108.398,-26.367,-21.484,-931.152,0.000
1737550558.205,-58.594,-20.508,-22.461,-210.938,0.000
1737550558.209,5.859,-16.602,-6.836,647.949,0.000
1737550558.213,0.977,-13.672,-5.371,209.961,0.000
1737550558.217,-43.945,-16.602,-24.902,-635.254,0.000
1737550558.220,-67.383,-29.785,-24.902,-1000.000,0.000
1737550558.224,-39.062,-27.344,-22.461,-645.020,0.000
1737550558.228,4.883,-4.883,-25.391,250.977,0.000
1737550558.232,-2.930,-3.418,-17.578,-54.688,0.000
1737550558.236,-12.207,-6.836,-17.090,-752.930,0.000
1737550558.240,-30.762,-13.672,-17.578,-1000.000,0.000
1737550558.244,-3.418,-22.949,-19.043,-703.613,0.000
1737550558.248,32.227,-23.926,-22.461,346.680,0.000
1737550558.252,26.855,-14.648,-18.555,495.117,0.000
1737550558.255,26.367,-7.812,-16.113,-155.762,0.000
1737550558.259,-14.160,-15.137,-24.414,-649.902,0.000
1737550558.263,1.465,-14.648,-27.832,-203.613,0.000
1737550558.267,51.758,-23.438,-11.230,826.660,0.000
1737550558.271,50.781,-14.648,-12.207,890.625,0.000
1737550558.275,9.277,1.465,-17.090,242.188,0.000
1737550558.279,-45.410,-8.789,-17.578,-509.277,0.000
1737550558.283,-23.926,-24.902,-15.625,-449.707,0.000
1737550558.287,33.203,-33.203,0.977,512.207,0.000
1737550558.291,7.812,-22.949,-15.137,582.031,0.000
1737550558.295,-44.434,-20.508,-34.180,-218.750,0.000
1737550558.298,-54.199,-11.719,-27.344,-779.785,0.000
1737550558.302,-37.598,-5.859,-15.137,-670.410,0.000
1737550558.306,1.465,-10.254,-11.230,422.363,0.000
1737550558.310,0.977,-16.113,-13.672,890.137,0.000
1737550558.314,-44.922,-21.973,-11.230,85.938,0.000
1737550558.318,-73.730,-19.043,-17.578,-718.750,0.000
1737550558.322,-70.312,-22.949,-17.090,-796.875,0.000
1737550558.326,-22.461,-23.438,-15.625,136.719,0.000
1737550558.330,-3.906,-9.277,-26.367,636.230,0.000
1737550558.334,-51.758,-6.348,-33.203,-140.137,0.000
1737550558.338,-122.070,-9.277,-24.902,-891.602,0.000
1737550558.341,-101.074,-23.926,-21.484,-970.215,0.000
1737550558.345,-2.930,-24.902,-18.555,-50.781,0.000
1737550558.349,38.086,-9.277,-15.137,744.629,0.000
1737550558.353,-10.254,-22.949,-5.859,178.223,0.000
1737550558.357,-63.965,-30.273,-6.348,-674.805,0.000
1737550558.361,-74.219,-24.902,-16.602,-1000.000,0.000
1737550558.365,-35.645,-19.531,-15.625,-249.512,0.000
1737550558.369,2.930,-29.785,-17.578,666.504,0.000
1737550558.373,-19.043,-35.156,-24.414,228.027,0.000
1737550558.377,-35.156,-17.578,-20.020,-361.816,0.000
1737550558.381,-51.270,-15.625,-16.602,-521.484,0.000
1737550558.384,-27.832,-8.789,-20.020,0.488,0.000
1737550558.388,13.672,-3.906,-19.043,873.047,0.000
1737550558.392,-11.719,-18.066,-10.742,424.316,0.000
1737550558.396,-69.336,-24.902,-18.066,-591.309,0.000
1737550558.400,-94.238,-25.391,-25.879,-1000.000,0.000
1737550558.404,-56.152,-23.438,-19.531,-646.484,0.000
1737550558.408,-34.668,-27.344,-14.648,277.344,0.000
1737550558.412,-47.852,-23.438,-10.254,56.152,0.000
1737550558.416,-54.199,-9.277,-28.320,-775.391,0.000
1737550558.420,-51.758,-11.230,-34.180,-1000.000,0.000
1737550558.424,-33.691,-7.812,-23.438,-825.195,0.000
1737550558.427,-3.906,-9.277,-30.273,-75.684,0.000
1737550558.431,2.930,-24.902,-28.809,-308.105,0.000
1737550558.435,-29.297,-27.344,-22.949,-997.559,0.000
1737550558.439,-53.223,-20.996,-25.391,-1000.000,0.000
1737550558.443,-21.484,-32.227,-30.273,-939.941,0.000
1737550558.447,40.039,-28.809,-27.832,-203.613,0.000
1737550558.451,20.996,0.977,-24.902,93.750,0.000
1737550558.455,-46.875,-12.207,-18.555,-553.711,0.000
1737550558.459,-61.523,-14.648,-9.277,-1000.000,0.000
1737550558.463,-41.016,-4.883,-13.184,-766.113,0.000
1737550558.466,-0.977,-12.695,-9.277,423.828,0.000
1737550558.470,-7.324,-10.254,-7.812,960.938,0.000
1737550558.474,-42.480,-16.113,-9.277,306.152,0.000
1737550558.478,-82.031,-17.578,-17.090,-426.758,0.000
1737550558.482,-115.234,-20.020,-13.672,-465.332,0.000
1737550558.486,-60.059,-44.922,-2.441,470.215,0.000
1737550558.490,-45.898,-30.273,-6.836,694.824,0.000
1737550558.494,-86.426,-6.348,-20.996,-207.031,0.000
1737550558.498,-128.906,-11.719,-27.832,-862.305,0.000
1737550558.502,-112.305,-1.953,-12.207,-1000.000,0.000
1737550558.506,-49.805,-10.254,-1.465,-271.484,0.000
1737550558.509,-14.160,-21.484,-7.812,415.039,0.000
1737550558.513,-35.156,-18.066,-9.766,-250.000,0.000
1737550558.517,-51.758,-8.301,-0.488,-923.828,0.000
1737550558.521,-9.766,-9.277,-2.930,-1000.000,0.000
1737550558.525,50.781,-16.113,-0.488,-270.996,0.000
1737550558.529,51.758,-6.348,-3.906,610.840,0.000
1737550558.533,-8.301,0.000,-15.625,119.141,0.000
1737550558.537,-37.598,-7.812,-6.348,-501.953,0.000
1737550558.541,-48.828,-13.672,-8.789,-728.516,0.000
1737550558.545,-17.090,-16.602,-22.461,-95.703,0.000
1737550558.549,20.020,-22.461,-13.672,845.215,0.000
1737550558.552,-9.277,-25.879,-26.855,453.125,0.000
1737550558.556,-48.340,-23.926,-46.387,-565.918,0.000
1737550558.560,-40.039,-9.277,-30.273,-1000.000,0.000
1737550558.564,1.465,-0.977,-19.043,-390.137,0.000
1737550558.568,41.016,-14.160,-7.324,677.246,0.000
1737550558.572,-6.348,-36.133,-20.508,28.809,0.000
1737550558.576,-55.664,-34.180,-36.133,-901.855,0.000
1737550558.580,-22.461,-19.531,-20.996,-1000.000,0.000
1737550558.584,-10.254,-13.672,-3.906,-785.156,0.000
1737550558.588,27.832,-9.766,-15.137,126.953,0.000
1737550558.592,39.551,-14.160,-36.133,335.449,0.000
1737550558.595,15.625,-16.113,-25.391,-187.012,0.000
1737550558.599,-4.883,-19.531,-5.859,-775.391,0.000
1737550558.603,-6.348,-38.086,-1.465,-836.426,0.000
1737550558.607,56.152,-31.250,-18.066,80.566,0.000
1737550558.611,70.801,-8.789,-22.949,297.363,0.000
1737550558.615,37.109,-3.906,-10.254,-322.754,0.000
1737550558.619,30.762,-2.441,-5.371,-919.922,0.000
1737550558.623,53.223,-8.789,-19.531,-828.613,0.000
1737550558.627,86.426,-14.648,-29.785,128.906,0.000
1737550558.630,93.750,-18.555,-20.996,337.891,0.000
1737550558.634,82.520,-22.949,-12.695,-368.652,0.000
1737550558.638,33.691,-12.207,-3.906,-909.668,0.000
1737550558.642,36.621,-13.184,-5.371,-911.621,0.000
1737550558.646,102.051,-15.625,-14.160,152.344,0.000
1737550558.650,99.121,-8.789,-18.555,865.234,0.000
1737550558.654,46.387,-8.789,-27.344,353.027,0.000
1737550558.658,9.766,-12.207,-23.926,-150.391,0.000
1737550558.662,4.395,-20.996,-7.324,142.090,0.000
1737550558.666,8.789,-20.508,-8.301,866.699,0.000
1737550558.670,20.020,-28.320,-7.324,986.816,0.000
1737550558.673,21.484,-25.879,-5.371,922.852,0.000
