,TP9,AF7,AF8,TP10,Right AUX,timestamps
0,-0.488,0.000,0.000,-0.488,0.000,1737547318.251
1,0.488,-0.488,-0.488,0.000,0.000,1737547318.255
2,-3.418,-0.977,-1.465,-0.977,0.000,1737547318.259
3,5.371,1.465,4.883,-1.953,0.000,1737547318.262
4,-17.578,-16.113,-23.926,2.930,0.000,1737547318.266
5,-89.355,-47.852,-17.090,-42.480,0.000,1737547318.270
6,-68.848,-44.922,16.602,-101.562,0.000,1737547318.274
7,-163.574,7.812,-49.805,-87.402,0.000,1737547318.278
8,-76.660,-20.996,-62.500,-30.762,0.000,1737547318.282
9,173.828,-60.059,-36.133,68.848,0.000,1737547318.286
10,56.641,-17.090,-41.504,34.668,0.000,1737547318.289
11,-80.566,-7.324,-46.875,-18.555,0.000,1737547318.293
12,-9.277,-65.430,-21.973,11.230,0.000,1737547318.295
13,29.785,-89.355,-4.883,-25.391,-0.977,1737547318.299
14,-24.414,-36.133,-16.113,-59.570,-4.883,1737547318.302
15,-10.742,-20.020,-10.742,-53.223,15.137,1737547318.306
16,3.906,-60.059,-49.805,0.000,-94.727,1737547318.310
17,-129.883,-24.414,-70.801,5.859,-138.184,1737547318.313
18,-42.969,-2.441,-62.012,8.301,-100.586,1737547318.317
19,113.770,-77.637,-38.574,47.363,-74.707,1737547318.321
20,-4.883,-64.453,-32.715,6.348,37.109,1737547318.324
21,-49.805,-37.598,-39.551,-39.062,102.051,1737547318.328
22,5.859,-80.566,-44.922,-20.508,108.887,1737547318.332
23,10.742,-61.523,-38.086,-13.672,17.578,1737547318.335
24,-39.551,-30.762,-30.273,-41.016,-58.594,1737547318.335
25,-13.184,-53.711,-51.270,-25.879,61.523,1737547318.338
26,3.906,-65.918,-47.852,-7.324,165.039,1737547318.342
27,4.883,-30.762,-49.316,-16.113,84.473,1737547318.345
28,-13.184,-49.805,-28.320,-23.438,-5.371,1737547318.349
29,-64.941,-62.012,-24.414,-21.484,-19.043,1737547318.352
30,46.387,-51.270,-32.227,-2.441,-15.625,1737547318.356
31,42.969,-56.152,-28.320,-18.555,-34.668,1737547318.359
32,-15.137,-53.223,-37.109,-38.574,-14.648,1737547318.363
33,-32.715,-38.574,-35.645,-29.785,39.551,1737547318.366
34,-49.316,-46.875,-22.949,-20.996,123.535,1737547318.370
35,-19.043,-67.871,-24.902,-14.160,66.895,1737547318.373
36,-5.859,-52.734,-41.016,-16.602,66.406,1737547318.375
37,-20.508,-47.363,-46.387,-23.438,209.473,1737547318.379
38,-29.297,-37.109,-43.945,-29.785,145.020,1737547318.382
39,-48.828,-31.250,-44.922,-26.367,106.445,1737547318.386
40,-39.551,-41.992,-34.180,-23.926,141.602,1737547318.389
41,-19.043,-44.434,-34.668,-23.438,104.980,1737547318.392
42,-39.062,-39.062,-51.758,-22.949,195.312,1737547318.396
43,-36.621,-49.316,-39.062,-19.043,156.738,1737547318.399
44,-58.105,-46.875,-25.879,-37.109,67.871,1737547318.403
45,-28.320,-43.457,-28.320,-25.391,25.879,1737547318.406
46,-36.621,-33.691,-40.527,-29.785,96.191,1737547318.410
47,-84.961,-29.785,-46.387,-51.758,58.105,1737547318.413
48,-55.664,-49.805,-40.039,-41.016,42.480,1737547318.414
49,-35.645,-52.734,-35.645,-31.738,125.000,1737547318.417
50,-33.203,-39.551,-37.109,-42.480,111.816,1737547318.420
51,-46.387,-32.227,-34.180,-50.293,178.223,1737547318.424
52,-51.758,-35.645,-37.109,-52.246,197.754,1737547318.427
53,-70.312,-39.062,-39.551,-54.688,137.695,1737547318.431
54,-56.152,-35.645,-34.180,-45.898,152.832,1737547318.434
55,-23.926,-27.832,-33.691,-48.828,90.820,1737547318.437
56,-23.926,-29.297,-30.762,-54.199,12.695,1737547318.441
57,-56.641,-39.551,-35.156,-46.875,113.770,1737547318.444
58,-83.008,-41.992,-47.852,-57.129,277.832,1737547318.448
59,-64.941,-41.504,-36.621,-50.293,308.594,1737547318.451
60,-35.645,-41.016,-31.738,-35.645,215.820,1737547318.450
61,-32.227,-34.668,-38.574,-31.250,246.582,1737547318.454
62,-49.316,-38.086,-35.645,-38.574,352.051,1737547318.457
63,-33.691,-40.039,-35.156,-48.828,255.371,1737547318.460
64,-49.316,-35.156,-36.621,-44.434,185.059,1737547318.464
65,-73.242,-29.785,-31.250,-41.504,152.832,1737547318.467
66,-20.020,-28.809,-31.738,-47.852,205.078,1737547318.470
67,-17.578,-35.156,-34.180,-42.969,283.691,1737547318.474
68,-70.801,-38.574,-37.598,-40.527,321.777,1737547318.477
69,-57.617,-36.621,-34.668,-55.176,324.219,1737547318.480
70,-39.551,-22.949,-32.715,-73.730,189.941,1737547318.484
71,-59.082,-23.926,-41.504,-74.707,184.570,1737547318.487
72,-71.777,-38.086,-41.016,-64.941,255.859,1737547318.487
73,-58.594,-47.363,-39.551,-50.781,285.645,1737547318.490
74,-49.316,-41.016,-38.574,-41.016,204.590,1737547318.493
75,-46.875,-28.320,-36.621,-51.758,131.348,1737547318.496
76,-44.922,-30.762,-30.273,-65.430,130.371,1737547318.500
77,-46.387,-28.320,-33.691,-51.270,117.188,1737547318.503
78,-64.941,-23.926,-47.363,-40.527,208.496,1737547318.506
79,-60.059,-37.598,-44.922,-41.504,166.992,1737547318.509
80,-20.020,-51.758,-37.598,-40.527,62.012,1737547318.513
81,-17.578,-39.062,-39.062,-46.387,89.355,1737547318.516
82,-46.387,-31.738,-38.574,-53.711,126.953,1737547318.519
83,-62.012,-46.875,-40.039,-59.570,152.832,1737547318.523
84,-55.176,-44.922,-41.016,-49.316,214.844,1737547318.523
85,-57.617,-45.410,-39.062,-39.551,104.004,1737547318.526
86,-58.594,-29.785,-39.062,-66.895,18.066,1737547318.529
87,-51.270,-27.344,-34.180,-63.965,54.199,1737547318.532
88,-62.012,-40.527,-37.109,-41.504,159.668,1737547318.536
89,-60.059,-40.527,-33.691,-39.551,202.637,1737547318.539
90,-115.234,-33.203,-25.879,-38.574,208.984,1737547318.542
91,-89.844,-32.715,-27.832,-40.039,160.156,1737547318.545
92,-5.371,-37.598,-27.344,-46.875,76.660,1737547318.549
93,-47.852,-43.457,-28.809,-63.477,121.582,1737547318.552
94,-63.965,-47.363,-36.621,-66.406,144.531,1737547318.555
95,-41.504,-37.598,-41.016,-48.828,64.453,1737547318.558
96,-43.457,-32.715,-40.527,-33.203,-57.617,1737547318.561
97,-28.320,-34.668,-33.691,-27.832,-59.082,1737547318.565
98,-44.434,-38.574,-37.109,-52.246,-16.602,1737547318.568
99,-74.219,-41.016,-47.363,-63.477,-24.414,1737547318.571
100,-83.984,-34.180,-44.434,-53.223,-78.613,1737547318.574
101,-52.246,-35.156,-29.297,-40.039,-114.258,1737547318.578
102,-32.715,-32.715,-27.832,-35.645,-142.090,1737547318.581
103,-42.480,-31.738,-39.062,-41.504,-115.234,1737547318.584
104,-55.664,-49.805,-34.180,-37.598,-107.422,1737547318.587
105,-101.074,-45.410,-34.180,-50.293,-159.668,1737547318.591
106,-111.816,-36.133,-37.598,-56.641,-123.047,1737547318.594
107,-30.273,-38.574,-34.180,-47.363,-127.930,1737547318.597
108,-24.414,-43.945,-37.598,-40.039,-85.449,1737547318.601
109,-77.148,-47.363,-37.109,-50.781,55.664,1737547318.605
110,-75.684,-45.410,-30.273,-53.223,47.852,1737547318.608
111,-55.176,-38.574,-33.203,-35.156,-51.758,1737547318.611
112,-50.781,-38.086,-32.715,-31.738,-59.082,1737547318.614
113,-62.012,-43.457,-37.598,-50.781,-37.598,1737547318.617
114,-83.008,-40.527,-47.852,-55.176,27.832,1737547318.621
115,-83.984,-45.898,-40.039,-32.227,-1.465,1737547318.624
116,-34.180,-46.387,-38.574,-36.621,-101.562,1737547318.627
117,-20.508,-35.645,-38.086,-36.621,-61.035,1737547318.630
118,-31.250,-39.062,-35.645,-27.344,-14.648,1737547318.634
119,-59.570,-43.945,-41.016,-32.227,21.484,1737547318.637
120,-83.984,-41.992,-47.363,-42.969,25.391,1737547318.642
121,-62.012,-45.410,-41.016,-50.293,-85.938,1737547318.645
122,-43.457,-36.621,-35.645,-42.480,-48.828,1737547318.648
123,-68.848,-36.133,-41.992,-37.598,11.719,1737547318.652
124,-82.520,-52.246,-45.898,-46.387,76.172,1737547318.655
125,-65.918,-52.246,-46.875,-37.109,38.574,1737547318.658
126,-57.617,-39.551,-36.621,-34.668,-47.852,1737547318.661
127,-65.430,-38.086,-39.551,-53.711,-41.016,1737547318.665
128,-53.223,-43.945,-47.363,-50.293,-71.777,1737547318.668
129,-51.758,-41.504,-43.945,-45.898,53.711,1737547318.671
130,-119.141,-42.480,-40.039,-46.875,88.379,1737547318.674
131,-72.266,-42.969,-38.086,-37.109,93.262,1737547318.678
132,12.695,-34.180,-33.691,-35.645,128.418,1737547318.681
133,-82.031,-23.438,-38.574,-41.992,173.828,1737547318.684
134,-77.148,-29.785,-44.434,-38.086,240.234,1737547318.688
135,-23.926,-43.457,-42.969,-37.598,111.328,1737547318.691
136,-65.918,-40.527,-39.062,-38.574,17.090,1737547318.694
137,-45.898,-41.504,-28.809,-46.387,65.430,1737547318.697
138,-41.016,-38.086,-30.762,-63.965,121.582,1737547318.701
139,-58.594,-40.527,-38.574,-44.922,74.219,1737547318.704
140,-57.617,-46.875,-37.109,-30.762,96.191,1737547318.707
141,-52.734,-39.551,-38.086,-35.156,1.465,1737547318.710
142,-46.875,-36.621,-39.062,-36.621,-168.457,1737547318.714
143,-46.387,-45.410,-41.016,-46.387,-98.633,1737547318.717
144,-67.871,-40.039,-50.781,-57.617,51.758,1737547318.723
145,-74.219,-33.691,-50.781,-33.203,-13.184,1737547318.726
146,-53.711,-43.457,-49.316,-23.926,-105.469,1737547318.729
147,-37.109,-46.875,-44.922,-32.715,-90.332,1737547318.733
148,-63.477,-41.992,-39.551,-26.367,-125.977,1737547318.736
149,-80.566,-41.992,-37.598,-24.414,-56.152,1737547318.739
150,-66.895,-45.898,-37.598,-33.203,-5.859,1737547318.743
151,-52.246,-48.340,-39.551,-37.598,-82.520,1737547318.746
152,-32.227,-44.434,-37.598,-28.809,-29.297,1737547318.749
153,-19.043,-44.922,-42.969,-34.668,98.633,1737547318.752
154,-31.250,-47.363,-41.992,-37.598,105.469,1737547318.756
155,-41.992,-45.898,-36.133,-33.691,113.281,1737547318.759
156,-65.430,-42.969,-35.645,-34.180,194.824,1737547318.765
157,-55.664,-43.457,-29.297,-26.367,95.703,1737547318.768
158,-9.277,-41.504,-26.855,-31.250,-82.031,1737547318.772
159,-6.836,-43.945,-37.109,-30.273,-123.047,1737547318.775
160,-33.203,-48.828,-40.039,-30.273,-82.520,1737547318.778
161,-45.410,-48.340,-34.668,-28.320,-42.969,1737547318.781
162,-61.523,-44.922,-29.297,-23.926,-50.781,1737547318.785
163,-48.340,-44.922,-32.227,-40.527,-23.926,1737547318.788
164,-26.855,-48.340,-36.621,-49.805,48.828,1737547318.791
165,-49.805,-54.199,-41.992,-41.992,86.914,1737547318.795
166,-49.805,-47.363,-42.480,-35.645,64.453,1737547318.798
167,-36.621,-34.180,-37.109,-29.297,-17.090,1737547318.801
168,-27.344,-37.109,-35.156,-25.391,-52.734,1737547318.808
169,-48.828,-44.922,-37.598,-33.691,-78.125,1737547318.811
170,-36.133,-48.340,-40.039,-36.621,-71.289,1737547318.814
171,-11.719,-44.922,-38.086,-37.598,-135.254,1737547318.817
172,-36.621,-41.016,-33.691,-34.180,-231.934,1737547318.821
173,-20.020,-33.691,-26.855,-22.949,-256.348,1737547318.824
174,-14.648,-35.156,-27.344,-22.949,-201.660,1737547318.827
175,-39.062,-37.598,-32.227,-29.785,-142.090,1737547318.831
176,-71.289,-36.621,-35.645,-35.645,-155.273,1737547318.834
177,-81.543,-37.109,-39.551,-37.109,-184.082,1737547318.837
178,-52.246,-37.109,-35.156,-34.180,-148.926,1737547318.841
179,-16.113,-44.922,-31.738,-30.762,-153.320,1737547318.844
180,-9.277,-42.480,-35.156,-35.156,-233.398,1737547318.851
181,-59.570,-37.109,-35.645,-40.527,-236.816,1737547318.854
182,-80.078,-38.086,-36.621,-45.898,-220.703,1737547318.857
183,-19.531,-35.645,-37.109,-36.621,-165.039,1737547318.861
184,-9.766,-33.691,-32.227,-38.574,-162.598,1737547318.864
185,-41.504,-40.039,-30.273,-42.969,-146.484,1737547318.867
186,-54.199,-41.992,-35.645,-41.992,-152.344,1737547318.871
187,-42.480,-41.992,-40.039,-41.016,-74.219,1737547318.874
188,-23.926,-43.945,-44.922,-33.691,90.820,1737547318.877
189,-29.297,-33.203,-35.156,-47.852,134.766,1737547318.881
190,-88.379,-38.574,-32.715,-54.688,113.281,1737547318.884
191,-85.938,-48.828,-51.270,-49.805,86.914,1737547318.887
192,-29.785,-46.387,-49.805,-46.387,51.270,1737547318.894
193,-20.020,-38.574,-47.363,-39.551,-4.395,1737547318.897
194,-23.438,-34.668,-45.898,-36.133,-41.504,1737547318.901
195,-34.180,-40.039,-41.504,-37.598,27.344,1737547318.904
196,-53.711,-42.969,-41.992,-43.945,95.215,1737547318.907
197,-57.129,-36.621,-42.969,-43.457,9.277,1737547318.911
198,-40.527,-34.180,-36.621,-37.109,-65.918,1737547318.914
199,-21.973,-36.133,-32.715,-37.598,-53.223,1737547318.917
200,-30.273,-40.039,-39.551,-41.992,20.508,1737547318.921
201,-43.945,-40.527,-41.992,-39.551,83.008,1737547318.924
202,-35.645,-29.785,-41.016,-40.039,80.566,1737547318.927
203,-28.809,-24.902,-38.574,-39.062,44.922,1737547318.931
204,-22.949,-27.832,-35.645,-38.574,-42.480,1737547318.939
205,-24.902,-34.180,-34.668,-42.480,-28.320,1737547318.942
206,-57.129,-42.969,-34.668,-41.992,45.410,1737547318.945
207,-65.430,-43.945,-35.645,-34.180,26.855,1737547318.949
208,-42.480,-36.133,-29.785,-35.156,35.156,1737547318.952
209,-25.879,-30.273,-26.855,-39.062,28.320,1737547318.955
210,-17.090,-30.762,-29.785,-40.527,-25.879,1737547318.959
211,-36.621,-42.480,-33.691,-36.621,47.852,1737547318.962
212,-50.781,-44.922,-38.574,-40.039,37.109,1737547318.966
213,-53.711,-40.527,-34.668,-40.527,-21.973,1737547318.969
214,-52.734,-35.156,-32.227,-43.457,-27.832,1737547318.972
215,-68.848,-41.504,-28.809,-52.246,-100.098,1737547318.976
216,-70.801,-48.340,-28.809,-50.781,-26.855,1737547318.983
217,-50.293,-37.109,-37.109,-40.039,62.500,1737547318.987
218,-66.406,-45.410,-26.367,-38.086,-11.230,1737547318.990
219,-56.641,-47.852,-24.902,-40.527,-82.031,1737547318.994
220,-7.324,-38.574,-35.645,-29.297,-41.992,1737547318.997
221,-47.363,-37.598,-33.203,-31.250,-22.461,1737547319.000
222,-59.082,-38.574,-34.668,-28.320,70.312,1737547319.004
223,-14.648,-36.621,-32.227,-28.320,39.062,1737547319.007
224,-24.902,-32.715,-30.762,-39.062,-81.055,1737547319.011
225,-20.996,-38.086,-32.715,-38.086,-14.648,1737547319.014
226,-31.250,-44.434,-33.203,-11.719,87.891,1737547319.017
227,-38.086,-49.316,-32.227,2.930,34.180,1737547319.021
228,-37.109,-47.852,-33.203,-21.484,53.223,1737547319.028
229,-29.785,-32.715,-33.203,-30.762,130.371,1737547319.032
230,-26.367,-29.785,-32.715,-32.227,61.035,1737547319.035
231,-14.648,-37.598,-32.715,-32.227,2.930,1737547319.039
232,-42.969,-39.062,-29.297,-24.414,-36.621,1737547319.042
233,-51.758,-32.715,-27.832,-21.973,-54.199,1737547319.045
234,-15.625,-31.738,-28.809,-29.785,-19.043,1737547319.049
235,-16.602,-38.574,-26.855,-28.320,44.922,1737547319.052
236,-43.945,-39.062,-29.297,-19.043,86.426,1737547319.056
237,-47.363,-38.574,-37.598,-26.855,8.789,1737547319.059
238,-47.363,-42.480,-37.598,-30.273,-75.684,1737547319.063
239,-27.344,-40.527,-30.762,-28.809,-79.102,1737547319.066
240,-17.578,-32.227,-24.414,-25.391,-101.562,1737547319.074
241,-28.809,-28.320,-26.855,-26.367,-122.070,1737547319.077
242,-28.809,-32.227,-30.762,-22.461,-95.215,1737547319.080
243,-45.898,-33.203,-29.297,-19.043,-3.906,1737547319.084
244,-46.387,-27.832,-26.367,-29.785,-36.621,1737547319.087
245,-42.969,-27.344,-26.855,-28.809,-104.492,1737547319.091
246,-37.109,-36.621,-35.156,-21.973,-139.648,1737547319.094
247,-43.945,-43.945,-44.434,-27.344,-21.484,1737547319.098
248,-43.945,-42.480,-46.875,-28.320,6.348,1737547319.101
249,-70.801,-40.039,-46.387,-30.273,-65.918,1737547319.104
250,-70.312,-36.133,-39.551,-28.809,48.340,1737547319.108
251,1.465,-37.109,-38.086,-28.809,13.672,1737547319.111
252,-7.324,-41.992,-42.969,-27.344,-79.590,1737547319.119
253,-34.668,-42.969,-44.922,-28.320,-58.594,1737547319.122
254,-32.227,-41.016,-43.945,-33.203,-42.969,1737547319.126
255,-8.789,-39.062,-37.109,-31.250,-93.750,1737547319.129
256,-21.484,-26.855,-37.109,-38.086,-100.586,1737547319.132
257,-57.129,-23.926,-41.504,-46.387,-1.953,1737547319.136
258,-60.547,-37.109,-31.250,-29.297,29.297,1737547319.139
259,-38.086,-38.574,-37.109,-25.391,-18.555,1737547319.143
260,-31.250,-34.180,-41.992,-34.668,-61.035,1737547319.146
261,-47.363,-31.738,-38.574,-37.109,-59.570,1737547319.150
262,-62.500,-37.109,-38.574,-33.203,-96.191,1737547319.153
263,-54.688,-38.574,-37.598,-31.738,-110.352,1737547319.157
264,-54.688,-39.062,-40.527,-39.551,-98.145,1737547319.164
265,-52.734,-35.156,-37.109,-41.016,-105.469,1737547319.167
266,-17.578,-29.785,-33.203,-30.762,-141.602,1737547319.171
267,-30.762,-36.133,-35.645,-31.738,-96.680,1737547319.174
268,-56.641,-42.480,-35.156,-31.738,5.859,1737547319.178
269,-53.223,-40.527,-35.156,-29.785,-32.227,1737547319.181
270,-18.555,-35.156,-33.691,-34.668,-112.793,1737547319.184
271,-8.789,-30.273,-28.809,-30.273,-78.613,1737547319.188
272,-54.688,-31.250,-35.645,-31.250,-96.191,1737547319.191
273,-73.730,-30.762,-36.621,-31.250,-82.031,1737547319.195
274,-34.668,-34.180,-34.668,-35.156,22.461,1737547319.198
275,-27.832,-33.691,-41.016,-44.434,94.727,1737547319.202
276,-38.086,-36.133,-40.527,-46.387,-49.805,1737547319.209
277,-54.199,-32.715,-41.016,-56.152,-126.465,1737547319.212
278,-82.520,-32.715,-45.410,-58.594,-61.523,1737547319.216
279,-43.945,-43.945,-44.434,-49.316,27.832,1737547319.219
280,-15.625,-35.156,-35.156,-50.781,-6.836,1737547319.223
281,-38.086,-30.762,-32.227,-47.852,-107.910,1737547319.226
282,-54.688,-32.227,-38.086,-44.922,-76.660,1737547319.230
283,-65.918,-36.133,-37.598,-46.875,-53.711,1737547319.233
284,-66.406,-47.363,-41.016,-52.246,-31.738,1737547319.237
285,-52.246,-37.109,-36.133,-40.039,-195.801,1737547319.240
286,-25.879,-29.785,-29.297,-30.273,-307.617,1737547319.243
287,-21.973,-40.039,-29.785,-48.340,-212.891,1737547319.247
288,-83.984,-46.875,-34.668,-57.617,-236.816,1737547319.254
289,-94.238,-41.504,-36.621,-51.270,-242.676,1737547319.258
290,-50.781,-35.645,-37.109,-53.223,-224.121,1737547319.261
291,-27.344,-38.574,-35.645,-54.199,-220.215,1737547319.264
292,-13.672,-39.551,-43.457,-51.270,-244.629,1737547319.268
293,-36.133,-45.898,-49.805,-50.293,-205.078,1737547319.271
294,-62.988,-43.945,-48.828,-48.828,-145.996,1737547319.275
295,-84.961,-43.945,-49.805,-51.758,-38.574,1737547319.278
296,-60.547,-41.992,-48.828,-51.758,53.223,1737547319.282
297,-29.785,-42.480,-43.457,-51.270,41.992,1737547319.285
298,-71.777,-50.293,-43.457,-48.340,114.258,1737547319.289
299,-102.539,-53.223,-48.828,-41.016,55.176,1737547319.292
300,-77.637,-46.387,-50.293,-41.992,-23.926,1737547319.299
301,-53.223,-41.992,-40.039,-41.992,6.348,1737547319.303
302,-37.109,-45.898,-37.598,-48.828,77.637,1737547319.306
303,-38.086,-42.480,-44.922,-48.340,132.812,1737547319.310
304,-83.984,-41.016,-43.945,-43.945,-7.324,1737547319.313
305,-83.496,-43.945,-41.016,-42.480,-39.062,1737547319.317
306,-29.785,-38.574,-40.527,-39.551,20.996,1737547319.320
307,-40.039,-39.551,-40.527,-40.527,32.227,1737547319.324
308,-37.109,-43.945,-44.922,-40.527,8.301,1737547319.327
309,-34.180,-40.039,-41.504,-45.898,-35.156,1737547319.331
310,-56.152,-38.086,-35.645,-46.387,-70.801,1737547319.334
311,-37.109,-40.527,-31.738,-40.039,-132.324,1737547319.338
312,-47.363,-42.969,-28.320,-44.922,-43.945,1737547319.346
313,-60.059,-40.039,-26.855,-40.039,92.773,1737547319.349
314,-58.105,-43.457,-32.227,-32.715,107.422,1737547319.353
315,-64.941,-48.340,-39.062,-40.527,72.266,1737547319.356
316,-37.598,-49.316,-35.645,-49.316,-47.852,1737547319.360
317,-16.113,-46.387,-35.645,-45.898,-168.945,1737547319.363
318,-31.250,-40.527,-38.086,-43.457,-147.461,1737547319.367
319,-33.691,-45.898,-38.086,-41.992,-29.297,1737547319.370
320,-22.461,-47.852,-39.551,-40.527,55.176,1737547319.374
321,-41.992,-41.504,-36.133,-44.922,113.281,1737547319.377
322,-23.926,-40.527,-36.621,-48.828,136.719,1737547319.381
323,-82.520,-46.875,-41.016,-48.340,125.488,1737547319.384
324,-80.566,-50.293,-42.969,-46.875,43.945,1737547319.391
325,-19.531,-48.828,-45.898,-60.059,76.660,1737547319.394
326,-33.691,-40.039,-47.852,-56.641,97.168,1737547319.398
327,-24.414,-37.109,-44.434,-44.922,93.262,1737547319.401
328,-43.457,-46.387,-49.316,-46.875,65.430,1737547319.405
329,-64.453,-43.457,-50.293,-47.363,37.598,1737547319.408
330,-57.617,-39.062,-41.016,-46.387,-23.926,1737547319.412
331,-58.594,-38.086,-41.992,-42.969,-185.059,1737547319.415
332,-53.223,-38.086,-42.480,-39.062,-199.219,1737547319.419
333,-48.340,-40.527,-44.922,-41.992,-176.758,1737547319.423
334,-52.246,-42.480,-48.340,-41.016,-146.484,1737547319.426
335,-85.449,-44.922,-48.340,-37.598,-139.648,1737547319.430
336,-79.590,-41.504,-43.945,-41.992,-89.355,1737547319.437
337,-33.203,-33.203,-41.504,-41.504,-56.641,1737547319.441
338,-35.156,-34.180,-40.039,-44.434,-40.527,1737547319.444
339,-67.383,-43.945,-42.969,-42.480,64.453,1737547319.448
340,-76.172,-50.781,-44.922,-42.969,18.555,1737547319.451
341,-55.664,-46.875,-39.062,-39.062,-74.219,1737547319.455
342,-41.016,-41.016,-37.598,-31.250,-153.809,1737547319.459
343,-32.715,-36.621,-33.691,-32.227,-149.902,1737547319.462
344,-45.410,-36.621,-32.227,-39.551,-58.105,1737547319.466
345,-42.969,-37.598,-37.598,-39.062,-94.238,1737547319.469
346,-64.453,-32.715,-41.992,-36.621,-0.977,1737547319.473
347,-55.664,-27.344,-42.969,-38.086,142.090,1737547319.476
348,-8.301,-31.738,-37.598,-41.504,73.730,1737547319.484
349,-35.645,-40.039,-36.133,-40.527,-24.414,1737547319.487
350,-31.738,-41.504,-36.133,-37.598,-6.348,1737547319.491
351,-11.719,-37.598,-34.668,-27.344,103.027,1737547319.494
352,-22.461,-31.738,-36.133,-25.879,82.031,1737547319.498
353,-6.348,-29.785,-37.109,-37.109,78.613,1737547319.501
354,-7.812,-38.086,-35.156,-38.574,69.336,1737547319.505
355,-38.574,-39.062,-33.203,-38.574,8.301,1737547319.508
356,-26.855,-33.203,-33.203,-40.527,102.539,1737547319.512
357,-36.621,-31.738,-30.273,-40.527,32.715,1737547319.515
358,-39.551,-33.691,-32.715,-36.621,45.898,1737547319.519
359,-40.527,-37.598,-44.434,-30.273,55.176,1737547319.523
360,-73.730,-40.039,-50.293,-33.203,45.898,1737547319.530
361,-92.285,-39.062,-47.363,-41.016,91.797,1737547319.533
362,-60.059,-35.156,-48.340,-41.504,-39.062,1737547319.537
363,-14.648,-36.621,-46.875,-38.574,-40.039,1737547319.541
364,-50.293,-41.992,-43.945,-43.457,-53.711,1737547319.544
365,-60.547,-41.016,-46.875,-43.457,-3.906,1737547319.548
366,-41.504,-40.039,-45.898,-41.016,32.227,1737547319.551
367,-41.016,-39.062,-43.457,-47.363,36.133,1737547319.555
368,-41.504,-36.621,-46.387,-48.828,152.344,1737547319.558
369,-46.387,-41.504,-42.480,-38.574,109.375,1737547319.562
370,-51.758,-37.109,-38.574,-39.062,131.348,1737547319.565
371,-57.129,-33.203,-36.621,-44.434,146.973,1737547319.569
372,-34.180,-31.738,-36.133,-43.457,98.145,1737547319.576
373,-45.898,-31.738,-34.668,-39.062,93.262,1737547319.580
374,-46.875,-36.133,-32.227,-41.992,87.402,1737547319.583
375,-23.438,-36.133,-37.109,-48.340,-3.906,1737547319.587
376,-43.457,-36.133,-31.738,-49.316,-64.453,1737547319.590
377,-37.109,-32.227,-35.645,-41.016,-13.672,1737547319.594
378,-24.414,-21.973,-42.480,-41.992,27.344,1737547319.597
379,-32.227,-23.926,-38.574,-47.852,74.219,1737547319.601
380,-74.219,-36.133,-39.551,-40.527,41.504,1737547319.605
381,-63.965,-38.086,-39.062,-34.180,-89.355,1737547319.608
382,-32.715,-35.645,-38.086,-41.504,-27.832,1737547319.612
383,-52.246,-37.598,-41.504,-48.828,-29.297,1737547319.615
384,-65.918,-38.086,-40.039,-43.457,24.902,1737547319.622
385,-64.941,-39.551,-38.574,-43.457,79.590,1737547319.626
386,-68.848,-38.086,-48.828,-60.059,-74.707,1737547319.629
387,-79.590,-35.156,-46.875,-57.617,-98.145,1737547319.633
388,-44.434,-38.574,-40.039,-45.410,-135.742,1737547319.636
389,-18.066,-41.504,-43.945,-48.828,-42.969,1737547319.640
390,-40.039,-34.668,-38.086,-47.363,9.277,1737547319.644
391,-59.082,-34.180,-39.551,-44.922,-11.230,1737547319.647
392,-63.965,-37.598,-43.945,-42.480,13.672,1737547319.651
393,-54.199,-37.109,-33.691,-45.410,31.738,1737547319.654
394,-38.574,-37.598,-35.645,-43.945,-13.184,1737547319.658
395,-31.738,-41.504,-37.598,-36.133,-90.820,1737547319.661
396,-77.637,-44.434,-38.574,-43.945,-75.684,1737547319.670
397,-70.312,-39.551,-44.922,-43.945,-8.301,1737547319.674
398,-15.137,-33.691,-38.574,-39.551,-35.156,1737547319.678
399,-11.719,-30.762,-29.785,-47.852,-75.195,1737547319.681
400,-30.762,-36.133,-31.250,-48.828,-73.242,1737547319.685
401,-51.758,-35.645,-32.227,-44.922,-83.984,1737547319.688
402,-48.340,-33.691,-30.762,-46.875,-51.758,1737547319.692
403,-62.012,-35.645,-29.785,-44.922,-94.238,1737547319.695
404,-38.574,-35.645,-26.855,-44.922,-114.258,1737547319.699
405,9.766,-35.645,-30.273,-43.457,-57.617,1737547319.703
406,-32.715,-41.016,-30.273,-42.969,-124.512,1737547319.706
407,-79.102,-43.457,-33.691,-47.363,-145.508,1737547319.710
408,-65.918,-44.922,-38.574,-41.016,-190.918,1737547319.718
409,-26.855,-41.992,-30.762,-17.090,-255.859,1737547319.722
410,-39.062,-39.551,-29.785,-15.625,-248.047,1737547319.725
411,-43.945,-39.551,-34.180,-34.180,-146.973,1737547319.729
412,-42.969,-42.480,-35.156,-41.992,-213.379,1737547319.733
413,-51.270,-40.527,-28.809,-33.203,-274.902,1737547319.736
414,-53.223,-33.203,-31.250,-42.969,-104.004,1737547319.740
415,-62.500,-46.387,-37.109,-53.223,-108.887,1737547319.743
416,-47.363,-47.852,-30.762,-38.574,-133.789,1737547319.747
417,-64.453,-40.039,-28.809,-32.227,-16.113,1737547319.750
418,-45.410,-39.062,-29.297,-32.715,-99.121,1737547319.754
419,-28.320,-40.527,-30.762,-41.504,-177.246,1737547319.758
420,-57.617,-40.039,-29.297,-46.387,-92.773,1737547319.764
421,-51.270,-36.621,-24.414,-42.969,-35.156,1737547319.768
422,-57.129,-41.992,-30.762,-43.945,-98.145,1737547319.771
423,-59.570,-38.574,-38.574,-43.945,-38.086,1737547319.775
424,-23.438,-34.668,-35.156,-36.133,-25.391,1737547319.778
425,-25.391,-41.016,-35.156,-34.668,-102.539,1737547319.782
426,-44.922,-45.898,-36.621,-44.922,42.480,1737547319.786
427,-62.012,-45.898,-36.621,-45.410,29.297,1737547319.789
428,-67.383,-37.598,-33.691,-44.434,-61.523,1737547319.793
429,-23.926,-32.227,-31.738,-48.340,14.648,1737547319.796
430,-36.621,-35.156,-34.668,-49.316,61.035,1737547319.800
431,-82.031,-36.133,-34.668,-47.852,-32.715,1737547319.804
432,-41.992,-37.598,-36.621,-44.434,-55.664,1737547319.811
433,-28.320,-40.039,-38.086,-47.363,-29.785,1737547319.814
434,-33.203,-40.527,-35.156,-52.734,-45.898,1737547319.818
435,-52.734,-41.504,-34.668,-48.828,-112.305,1737547319.821
436,-57.617,-38.574,-34.668,-47.852,-56.641,1737547319.825
437,-51.270,-32.715,-37.598,-43.945,-29.297,1737547319.829
438,-51.758,-37.598,-42.969,-47.363,-134.766,1737547319.832
439,-49.316,-39.551,-39.551,-49.316,-54.688,1737547319.836
440,-47.852,-38.086,-37.109,-49.316,-80.566,1737547319.839
441,-39.551,-43.457,-43.457,-55.176,-166.016,1737547319.843
442,-49.805,-45.898,-41.992,-50.781,-135.742,1737547319.847
443,-45.410,-39.062,-35.156,-51.758,-117.188,1737547319.850
444,-54.199,-35.645,-35.156,-55.176,-35.645,1737547319.857
445,-41.016,-36.621,-39.551,-52.734,-60.547,1737547319.861
446,4.883,-37.598,-42.969,-56.641,-138.672,1737547319.864
447,-44.434,-37.598,-41.016,-39.551,-103.027,1737547319.868
448,-95.703,-41.992,-35.645,-22.949,-54.199,1737547319.872
449,-93.262,-41.992,-36.621,-32.227,-80.078,1737547319.875
450,-69.336,-37.109,-40.527,-35.645,-112.305,1737547319.879
451,-71.777,-41.504,-38.574,-44.434,-16.113,1737547319.882
452,-72.754,-45.410,-36.621,-49.805,-14.648,1737547319.886
453,-46.875,-42.480,-40.527,-50.781,-136.719,1737547319.890
454,-47.363,-39.062,-40.527,-48.828,-148.926,1737547319.893
455,-52.734,-39.062,-39.062,-47.363,-102.051,1737547319.897
456,-52.246,-44.434,-42.480,-45.898,-67.871,1737547319.904
457,-68.359,-50.293,-43.945,-43.945,-37.109,1737547319.907
458,-72.754,-53.711,-46.387,-46.387,-6.348,1737547319.911
459,-49.805,-47.363,-45.410,-48.828,-50.781,1737547319.915
460,-55.176,-40.039,-42.480,-44.434,-70.312,1737547319.918
461,-74.219,-33.691,-40.039,-40.527,-24.902,1737547319.922
462,-51.758,-36.621,-40.527,-46.387,-100.098,1737547319.925
463,-50.293,-45.898,-38.574,-55.664,-134.766,1737547319.929
464,-62.500,-48.828,-36.621,-51.270,-153.320,1737547319.933
465,-49.805,-41.992,-38.574,-40.527,-224.609,1737547319.936
466,-38.086,-30.273,-37.598,-41.504,-225.586,1737547319.940
467,-63.965,-35.156,-41.504,-48.340,-276.855,1737547319.944
468,-51.270,-44.434,-47.363,-48.340,-273.926,1737547319.950
469,-29.785,-43.457,-46.387,-42.480,-226.562,1737547319.954
470,-26.855,-33.691,-40.527,-44.922,-272.461,1737547319.957
471,-29.297,-32.715,-39.551,-50.293,-262.207,1737547319.961
472,-46.875,-37.598,-37.598,-48.340,-81.055,1737547319.965
473,-35.645,-32.227,-34.180,-43.945,-36.133,1737547319.968
474,-19.531,-31.250,-34.668,-40.039,-63.965,1737547319.972
475,-36.133,-36.621,-35.156,-40.527,-47.363,1737547319.976
476,-58.594,-42.480,-41.016,-36.621,-108.887,1737547319.979
477,-107.910,-44.434,-39.062,-41.992,-37.598,1737547319.983
478,-103.027,-42.480,-39.062,-39.551,50.781,1737547319.986
479,-52.734,-37.598,-44.434,-35.645,-40.039,1737547319.990
480,-48.828,-37.109,-38.574,-41.016,-68.848,1737547319.997
481,-47.852,-39.551,-34.668,-40.527,-23.926,1737547320.000
482,-73.730,-36.621,-31.738,-42.969,5.859,1737547320.004
483,-73.242,-33.691,-27.832,-39.062,-26.855,1737547320.008
484,-52.734,-36.621,-28.809,-35.156,-3.906,1737547320.011
485,-33.203,-34.180,-31.250,-30.762,-20.508,1737547320.015
486,-33.203,-30.273,-30.273,-33.691,-72.266,1737547320.018
487,-52.246,-39.062,-33.203,-34.668,-104.004,1737547320.022
488,-58.105,-48.340,-35.645,-33.691,-61.523,1737547320.026
489,-57.129,-46.387,-34.180,-40.039,73.730,1737547320.029
490,-50.781,-44.434,-27.832,-28.809,43.457,1737547320.033
491,-36.621,-41.504,-24.902,-22.949,-27.832,1737547320.037
492,-22.949,-36.621,-35.156,-35.156,-14.160,1737547320.043
493,-54.688,-34.668,-44.434,-54.199,-37.598,1737547320.047
494,-75.195,-36.621,-52.734,-61.523,-44.922,1737547320.050
495,-52.246,-36.621,-50.293,-58.105,5.859,1737547320.054
496,-24.902,-29.297,-40.527,-62.012,1.465,1737547320.058
497,-31.250,-26.367,-42.480,-46.875,-10.254,1737547320.061
498,-59.570,-27.344,-50.781,-45.410,-36.621,1737547320.065
499,-41.992,-32.227,-50.781,-52.246,-78.125,1737547320.069
500,-22.949,-32.715,-50.781,-58.594,-116.699,1737547320.072
501,-33.203,-32.715,-49.316,-64.941,-83.984,1737547320.076
502,-53.223,-35.645,-45.898,-53.711,119.629,1737547320.080
503,-54.199,-36.133,-49.316,-45.898,119.141,1737547320.083
504,-36.621,-38.574,-47.363,-43.457,1.953,1737547320.090
505,-11.230,-33.691,-41.992,-43.945,-0.488,1737547320.094
506,-15.137,-31.738,-40.039,-48.828,22.461,1737547320.097
507,-73.730,-36.133,-38.574,-48.828,-48.828,1737547320.101
508,-73.730,-38.574,-43.945,-38.086,-21.484,1737547320.105
509,-50.293,-44.434,-50.293,-41.016,22.949,1737547320.108
510,-53.711,-40.527,-47.852,-48.340,-21.973,1737547320.112
511,-25.391,-40.039,-46.387,-40.527,-33.691,1737547320.116
512,-15.625,-41.504,-44.434,-39.062,-75.684,1737547320.119
513,-55.176,-43.457,-36.133,-41.016,-90.820,1737547320.123
514,-65.918,-43.457,-35.645,-36.133,-154.297,1737547320.127
515,-34.180,-31.250,-41.504,-31.738,-142.090,1737547320.130
516,-21.484,-31.738,-39.062,-32.227,-130.859,1737547320.136
517,-25.879,-35.156,-40.039,-34.180,-127.441,1737547320.140
518,-32.715,-33.203,-42.969,-38.574,-145.508,1737547320.144
519,-52.246,-28.809,-40.527,-41.016,-155.273,1737547320.147
520,-57.129,-35.156,-40.527,-37.109,-168.457,1737547320.151
521,-23.438,-39.062,-36.133,-30.762,-89.844,1737547320.155
522,-30.273,-34.180,-33.691,-26.855,-48.340,1737547320.158
523,-32.227,-38.574,-39.551,-26.855,-100.098,1737547320.162
524,-29.297,-35.645,-38.086,-34.180,-113.281,1737547320.165
525,-50.293,-34.668,-34.668,-36.133,-71.289,1737547320.169
526,-35.156,-35.156,-34.668,-38.574,-55.664,1737547320.173
527,-24.414,-34.668,-31.738,-45.410,-75.195,1737547320.176
528,-27.832,-38.086,-37.598,-43.457,-117.188,1737547320.184
529,-43.945,-41.016,-46.875,-45.898,-153.320,1737547320.188
530,-24.902,-39.551,-41.992,-48.340,-188.477,1737547320.191
531,-19.531,-37.109,-37.109,-42.969,-170.898,1737547320.195
532,-56.641,-37.109,-41.016,-34.180,-46.387,1737547320.199
533,-26.855,-36.133,-39.062,-33.691,-70.312,1737547320.202
534,-9.277,-36.621,-34.180,-36.133,-154.297,1737547320.206
535,-36.133,-37.598,-34.668,-45.898,-186.035,1737547320.210
536,-38.574,-39.062,-41.016,-47.852,-133.301,1737547320.213
537,-44.922,-43.945,-44.922,-42.969,-114.258,1737547320.217
538,-64.453,-45.410,-43.945,-47.363,-120.605,1737547320.221
539,-52.734,-43.945,-42.480,-44.434,-44.434,1737547320.224
540,-50.781,-45.898,-41.016,-35.645,-95.703,1737547320.231
541,-45.410,-45.898,-42.969,-40.527,-96.191,1737547320.234
542,-48.340,-45.410,-45.898,-47.363,-68.848,1737547320.238
543,-51.758,-40.039,-42.969,-40.039,-111.328,1737547320.242
544,-70.801,-38.574,-35.645,-41.016,-88.379,1737547320.245
545,-60.547,-37.598,-30.273,-34.668,-20.996,1737547320.249
546,-35.156,-35.156,-31.738,-33.691,-37.109,1737547320.253
547,-55.664,-39.551,-32.715,-35.156,-55.664,1737547320.256
548,-43.945,-42.480,-33.203,-34.180,-94.238,1737547320.260
549,-33.691,-41.992,-32.227,-44.922,-62.012,1737547320.264
550,-50.781,-38.574,-34.180,-42.480,-12.207,1737547320.267
551,-59.570,-41.992,-37.109,-34.668,-153.809,1737547320.271
552,-30.273,-40.527,-34.180,-30.762,-164.551,1737547320.277
553,-51.758,-35.156,-33.203,-33.691,-171.387,1737547320.281
554,-69.824,-39.551,-32.227,-36.621,-214.355,1737547320.285
555,-19.043,-39.551,-33.203,-37.598,-221.680,1737547320.288
556,-28.809,-36.133,-32.715,-37.598,-178.711,1737547320.292
557,-39.551,-33.203,-37.598,-42.969,-66.895,1737547320.296
558,-41.016,-35.645,-34.180,-59.082,-154.297,1737547320.299
559,-49.316,-33.691,-35.156,-54.199,-270.020,1737547320.303
560,-48.828,-34.180,-42.969,-50.293,-193.848,1737547320.307
561,-66.895,-44.922,-39.551,-56.152,-171.875,1737547320.310
562,-63.477,-38.086,-38.086,-39.551,-146.973,1737547320.314
563,-52.246,-35.645,-33.691,-43.945,-138.184,1737547320.318
564,-54.199,-42.480,-35.645,-62.012,-171.387,1737547320.325
565,-66.895,-42.969,-38.574,-61.035,-153.809,1737547320.329
566,-68.359,-44.434,-38.574,-58.594,-187.012,1737547320.332
567,-61.035,-40.527,-35.645,-58.594,-233.398,1737547320.336
568,-36.621,-35.645,-31.738,-45.898,-336.426,1737547320.340
569,-45.898,-37.109,-29.297,-41.016,-273.926,1737547320.343
570,-53.223,-36.621,-34.180,-37.109,-251.465,1737547320.347
571,-24.414,-36.133,-37.109,-33.203,-305.664,1737547320.351
572,-59.082,-40.527,-35.645,-31.250,-71.289,1737547320.354
573,-45.898,-39.062,-34.668,-32.227,-6.348,1737547320.358
574,-33.691,-41.992,-32.227,-41.016,-103.027,1737547320.362
575,-59.570,-43.457,-35.645,-46.387,-46.875,1737547320.365
576,-48.828,-42.969,-39.551,-30.273,-19.531,1737547320.371
577,-48.828,-41.504,-30.273,-24.414,-103.516,1737547320.375
578,-54.688,-37.109,-26.855,-36.621,-165.527,1737547320.379
579,-53.223,-44.922,-31.738,-36.621,-186.035,1737547320.382
580,-48.340,-47.363,-39.062,-33.691,-68.359,1737547320.386
581,-57.617,-45.898,-38.086,-38.086,-4.883,1737547320.390
582,-70.312,-44.922,-31.250,-35.156,-65.430,1737547320.393
583,-44.434,-46.875,-34.180,-31.738,-92.285,1737547320.397
584,-23.926,-46.875,-36.133,-27.832,-48.340,1737547320.401
585,-58.594,-41.016,-30.762,-26.367,53.223,1737547320.405
586,-72.754,-41.992,-38.086,-25.879,-48.340,1737547320.408
587,-35.645,-40.527,-37.109,-26.367,-171.387,1737547320.412
588,-31.738,-38.086,-30.273,-23.926,-199.707,1737547320.419
589,-30.762,-33.691,-36.133,-19.531,-168.945,1737547320.422
590,-29.785,-34.668,-38.574,-24.414,-34.180,1737547320.426
591,-40.527,-36.133,-37.598,-31.250,-71.777,1737547320.430
592,-26.367,-30.273,-36.621,-28.809,-113.281,1737547320.433
593,-19.043,-30.273,-34.668,-24.902,-196.289,1737547320.437
594,-38.574,-32.227,-36.133,-29.297,-251.953,1737547320.441
595,-47.852,-36.621,-30.762,-37.109,-133.789,1737547320.444
596,-50.781,-39.551,-33.203,-30.762,-4.395,1737547320.448
597,-39.062,-38.086,-41.016,-29.297,-40.527,1737547320.452
598,-24.414,-35.645,-39.551,-37.109,-94.238,1737547320.455
599,-68.848,-33.691,-39.062,-37.598,-53.711,1737547320.459
600,-99.609,-34.668,-34.668,-42.969,-117.676,1737547320.466
601,-40.527,-43.945,-40.527,-48.340,-130.371,1737547320.469
602,-28.320,-42.480,-47.852,-44.434,-143.066,1737547320.473
603,-41.992,-38.574,-43.945,-46.875,-238.281,1737547320.477
604,-42.480,-43.457,-44.922,-52.734,-276.367,1737547320.480
605,-51.270,-40.039,-40.527,-52.734,-210.449,1737547320.484
606,-41.504,-38.086,-36.621,-55.176,-36.133,1737547320.488
607,-36.621,-39.062,-41.016,-42.969,-28.320,1737547320.491
608,-48.340,-39.551,-41.016,-29.785,-165.527,1737547320.495
609,-41.504,-41.016,-39.551,-35.156,-177.734,1737547320.499
610,-47.363,-42.480,-37.598,-45.410,-57.617,1737547320.503
611,-49.805,-39.062,-41.016,-45.410,-130.371,1737547320.506
612,-38.574,-40.039,-42.969,-40.039,-168.457,1737547320.512
613,-41.504,-43.457,-37.598,-37.109,-103.516,1737547320.516
614,-40.527,-39.062,-33.691,-27.344,-88.379,1737547320.519
615,-47.363,-42.480,-31.738,-38.086,-64.941,1737547320.523
616,-64.941,-38.574,-39.062,-38.574,-104.492,1737547320.527
617,-79.590,-22.461,-42.480,-16.113,-166.992,1737547320.530
618,-50.293,-35.645,-35.156,-28.320,-112.793,1737547320.534
619,-39.062,-48.340,-33.203,-44.434,-65.430,1737547320.538
620,-56.641,-39.551,-34.180,-45.410,-116.211,1737547320.541
621,-50.781,-41.992,-35.645,-44.434,-35.645,1737547320.545
622,-63.477,-41.992,-35.645,-36.621,-69.336,1737547320.549
623,-56.641,-41.992,-30.273,-37.598,-77.637,1737547320.553
624,-52.734,-45.410,-23.926,-41.504,-17.090,1737547320.559
625,-64.941,-41.992,-30.762,-36.621,-40.039,1737547320.563
626,-65.918,-42.969,-28.809,-41.992,-1.953,1737547320.566
627,-71.289,-36.133,-26.855,-39.062,-0.488,1737547320.570
628,-38.086,-36.621,-29.297,-34.668,7.324,1737547320.574
629,-16.602,-40.039,-30.273,-41.992,73.730,1737547320.577
630,-27.344,-40.039,-38.086,-53.711,-76.172,1737547320.581
631,-62.500,-42.969,-33.691,-56.641,-182.129,1737547320.585
632,-77.148,-44.922,-27.832,-39.062,-62.012,1737547320.588
633,-75.195,-43.457,-34.668,-31.250,-121.582,1737547320.592
634,-57.129,-44.434,-33.691,-33.203,-71.289,1737547320.596
635,-42.969,-47.852,-28.809,-41.504,43.457,1737547320.600
636,-62.988,-49.805,-29.785,-34.180,-90.820,1737547320.606
637,-66.406,-46.875,-32.715,-22.949,-30.762,1737547320.610
638,-42.969,-41.992,-33.691,-39.062,-33.691,1737547320.614
639,-33.691,-40.527,-28.320,-41.016,-116.699,1737547320.618
640,-36.133,-37.109,-27.832,-34.668,-6.348,1737547320.621
641,-24.902,-37.109,-28.809,-38.086,33.691,1737547320.625
642,-20.508,-39.062,-26.855,-43.457,-43.945,1737547320.629
643,-39.551,-35.156,-27.832,-38.574,-43.457,1737547320.632
644,-53.711,-40.039,-29.297,-38.086,-49.316,1737547320.636
645,-42.969,-47.852,-32.715,-49.316,-92.285,1737547320.640
646,-72.266,-47.852,-36.621,-49.316,-71.777,1737547320.644
647,-88.867,-41.504,-33.691,-36.133,-12.207,1737547320.647
648,-58.105,-38.086,-33.691,-27.832,-69.824,1737547320.653
649,-70.801,-42.480,-38.086,-37.598,-38.574,1737547320.657
650,-53.223,-41.016,-38.574,-43.945,16.113,1737547320.661
651,-44.922,-42.969,-38.086,-46.875,-124.023,1737547320.664
652,-50.293,-46.875,-36.133,-45.898,-18.066,1737547320.668
653,-26.855,-43.945,-39.551,-37.109,23.438,1737547320.672
654,-16.602,-42.969,-37.598,-37.598,-102.539,1737547320.676
655,-38.574,-42.969,-32.715,-38.574,-61.035,1737547320.679
656,-66.406,-45.898,-32.715,-33.691,-35.156,1737547320.683
657,-68.848,-53.711,-35.645,-30.762,-69.824,1737547320.687
658,-62.012,-45.898,-36.621,-41.016,-137.207,1737547320.690
659,-53.223,-38.574,-36.133,-48.828,-139.648,1737547320.694
660,-32.227,-37.598,-31.738,-33.203,-135.742,1737547320.701
661,-55.664,-34.180,-32.227,-25.391,-2.441,1737547320.705
662,-84.961,-35.156,-34.180,-41.504,22.461,1737547320.709
663,-57.617,-41.992,-27.832,-45.410,-43.945,1737547320.712
664,-24.414,-37.598,-28.320,-39.551,-60.547,1737547320.716
665,-44.434,-33.203,-32.715,-40.039,-83.008,1737547320.720
666,-56.641,-41.504,-34.180,-44.434,-40.039,1737547320.724
667,-37.109,-43.457,-37.109,-39.551,-105.469,1737547320.727
668,-43.945,-42.969,-35.156,-39.062,-79.102,1737547320.731
669,-41.992,-39.062,-38.086,-37.598,-139.160,1737547320.735
670,-38.086,-37.109,-35.156,-36.621,-252.930,1737547320.738
671,-35.645,-35.156,-30.762,-32.227,-197.754,1737547320.742
672,-47.363,-34.180,-35.645,-33.203,-248.047,1737547320.749
673,-46.387,-41.992,-39.551,-37.598,-273.438,1737547320.752
674,-43.457,-39.062,-32.227,-32.227,-177.734,1737547320.756
675,-23.438,-33.691,-23.926,-28.320,-189.453,1737547320.760
676,-16.113,-38.086,-30.762,-41.504,-258.301,1737547320.763
677,-54.688,-37.598,-35.156,-50.293,-142.090,1737547320.767
678,-73.242,-42.969,-35.645,-40.527,-50.293,1737547320.771
679,-45.898,-45.898,-36.621,-40.039,-18.066,1737547320.775
680,-46.875,-40.039,-39.551,-45.410,-39.551,1737547320.778
681,-34.668,-36.133,-35.156,-37.598,-161.621,1737547320.782
682,-6.348,-36.133,-33.691,-42.969,-172.363,1737547320.786
683,-40.527,-42.480,-37.598,-45.898,-136.230,1737547320.789
684,-55.176,-46.387,-35.645,-32.227,-188.965,1737547320.797
685,-41.992,-35.645,-33.691,-28.320,-141.113,1737547320.801
686,-55.664,-36.133,-35.645,-39.062,61.035,1737547320.804
687,-62.988,-50.781,-36.133,-39.062,134.766,1737547320.808
688,-45.898,-56.641,-39.062,-30.762,115.234,1737547320.812
689,-42.480,-48.828,-42.480,-34.668,171.875,1737547320.816
690,-33.203,-43.457,-38.086,-36.621,114.746,1737547320.819
691,-45.410,-47.363,-37.109,-37.598,12.695,1737547320.823
692,-57.129,-47.363,-38.574,-50.781,27.344,1737547320.827
693,-47.852,-46.387,-40.527,-51.270,14.160,1737547320.830
694,-60.059,-41.504,-42.480,-43.945,35.645,1737547320.834
695,-51.270,-39.062,-40.527,-49.316,-21.973,1737547320.838
696,-33.203,-41.992,-41.504,-43.945,-30.762,1737547320.843
697,-28.320,-38.574,-41.504,-36.133,106.445,1737547320.847
698,-48.340,-35.156,-38.574,-40.039,35.156,1737547320.851
699,-28.320,-28.320,-39.551,-30.762,-28.320,1737547320.855
700,4.883,-28.809,-41.504,-22.949,75.684,1737547320.858
701,-25.391,-44.434,-37.598,-43.945,42.480,1737547320.862
702,-49.316,-44.922,-34.668,-57.617,0.488,1737547320.866
703,-41.016,-39.551,-29.785,-44.922,-88.867,1737547320.869
704,-51.758,-43.457,-28.809,-36.621,-111.816,1737547320.873
705,-49.316,-47.852,-23.926,-35.156,3.418,1737547320.877
706,-36.621,-46.387,-18.555,-34.180,73.242,1737547320.881
707,-65.430,-53.711,-23.438,-43.457,23.438,1737547320.884
708,-71.777,-62.988,-21.973,-28.320,-110.352,1737547320.890
709,-80.078,-65.918,-20.996,-11.719,1.953,1737547320.893
710,-53.223,-60.547,-19.531,-23.438,-58.594,1737547320.897
711,-16.602,-57.617,-8.301,-26.855,-214.355,1737547320.901
712,-36.133,-63.965,-7.324,-8.789,-188.965,1737547320.905
713,-57.617,-61.523,-12.695,-4.883,-180.176,1737547320.908
714,-55.664,-64.941,-18.555,-7.324,-50.781,1737547320.912
715,-38.574,-65.430,-20.508,-4.395,-71.289,1737547320.916
716,-52.734,-60.547,-17.578,-16.113,-153.809,1737547320.920
717,-73.730,-58.594,-16.113,-14.648,-165.039,1737547320.923
718,-42.480,-58.594,-14.648,-9.277,-133.301,1737547320.927
719,-21.973,-52.734,-16.602,-9.277,-116.211,1737547320.931
720,-31.738,-47.363,-23.438,-2.441,-102.539,1737547320.937
721,-8.301,-49.316,-23.438,-2.441,-89.844,1737547320.940
722,-11.719,-51.270,-24.902,-14.648,-80.078,1737547320.944
723,-54.199,-54.688,-29.297,-12.695,-27.832,1737547320.948
724,-25.391,-51.270,-29.297,-10.742,12.695,1737547320.952
725,1.465,-48.340,-33.691,-13.184,67.383,1737547320.955
726,-4.395,-50.293,-33.203,-9.277,-19.531,1737547320.959
727,-22.461,-48.340,-30.273,-15.137,-146.973,1737547320.963
728,-40.039,-49.805,-28.809,-18.555,-21.484,1737547320.966
729,-47.852,-54.688,-34.180,-12.695,9.277,1737547320.970
730,-48.340,-53.711,-35.156,-19.043,-62.988,1737547320.974
731,-28.320,-47.363,-34.180,-21.484,-34.180,1737547320.978
732,-42.969,-43.945,-41.992,-25.391,41.016,1737547320.985
733,-48.340,-46.875,-35.156,-42.969,-58.594,1737547320.988
734,-39.551,-52.734,-32.715,-40.039,-84.961,1737547320.992
735,-41.992,-47.363,-41.016,-36.621,45.410,1737547320.996
736,-57.129,-41.504,-40.039,-33.691,-11.230,1737547321.000
737,-42.480,-43.457,-33.691,-31.738,-62.988,1737547321.003
738,-31.250,-47.363,-28.320,-31.738,-116.211,1737547321.007
739,-41.016,-50.293,-29.297,-25.879,-92.773,1737547321.011
740,-36.621,-49.316,-32.227,-15.137,84.961,1737547321.014
741,-16.602,-45.898,-27.344,-16.602,134.277,1737547321.018
742,-23.926,-46.875,-32.715,-21.973,195.801,1737547321.022
743,-43.457,-46.875,-32.227,-24.414,139.160,1737547321.026
744,-47.363,-46.875,-27.344,-28.809,79.590,1737547321.031
745,-44.434,-42.480,-34.180,-28.809,87.891,1737547321.035
746,-23.438,-44.434,-27.832,-30.273,83.008,1737547321.039
747,-3.418,-42.969,-26.367,-32.715,167.969,1737547321.043
748,-35.645,-41.016,-30.273,-31.738,131.836,1737547321.046
749,-81.055,-47.852,-30.762,-34.180,60.547,1737547321.050
750,-50.293,-46.875,-37.598,-34.180,85.449,1737547321.054
751,-34.668,-36.621,-33.203,-33.203,99.609,1737547321.058
752,-41.992,-36.621,-32.715,-36.133,145.020,1737547321.061
753,-54.199,-43.457,-35.156,-35.156,129.395,1737547321.065
754,-60.547,-40.527,-34.668,-24.902,51.758,1737547321.069
755,-43.457,-35.645,-38.086,-25.879,69.336,1737547321.072
756,-14.648,-35.645,-39.551,-33.203,94.238,1737547321.079
757,-10.742,-37.109,-33.203,-30.762,98.633,1737547321.082
758,-28.809,-35.156,-31.250,-37.109,125.000,1737547321.086
759,-41.016,-36.621,-35.645,-37.598,19.043,1737547321.090
760,-38.086,-41.992,-34.180,-40.039,-181.641,1737547321.094
761,-34.180,-42.480,-37.109,-30.762,-228.027,1737547321.097
762,-67.871,-44.434,-38.086,-35.156,-240.234,1737547321.101
763,-54.688,-46.387,-29.785,-36.621,-158.691,1737547321.105
764,-28.320,-44.434,-32.227,-35.156,-73.730,1737547321.109
765,-68.848,-43.945,-31.738,-36.133,-162.598,1737547321.112
766,-64.941,-39.062,-35.156,-37.109,-173.828,1737547321.116
767,-20.996,-41.992,-38.086,-47.363,-108.887,1737547321.120
768,-35.156,-51.270,-34.668,-47.852,-29.297,1737547321.126
769,-66.406,-47.363,-39.062,-48.828,-95.703,1737547321.129
770,-67.383,-43.945,-42.480,-54.199,-83.496,1737547321.133
771,-58.105,-50.293,-37.598,-50.293,-86.914,1737547321.137
772,-42.480,-42.969,-38.574,-52.246,-138.184,1737547321.141
773,-36.133,-40.039,-44.922,-47.363,-200.195,1737547321.144
774,-51.758,-44.434,-42.969,-38.086,-207.031,1737547321.148
775,-75.684,-43.945,-35.156,-49.316,-112.305,1737547321.152
776,-62.988,-44.434,-30.762,-45.410,-153.809,1737547321.156
777,-16.113,-35.645,-32.715,-31.738,-132.812,1737547321.159
778,-27.344,-31.738,-28.809,-25.879,-34.180,1737547321.163
779,-51.758,-39.062,-28.320,-31.738,50.781,1737547321.167
780,-51.270,-38.574,-30.762,-38.574,64.453,1737547321.173
781,-24.902,-33.691,-36.621,-24.902,43.457,1737547321.177
782,-25.391,-38.086,-36.621,-26.855,106.934,1737547321.180
783,-59.082,-44.922,-36.133,-53.711,-85.449,1737547321.184
784,-67.871,-46.875,-36.621,-61.523,-181.641,1737547321.188
785,-52.246,-48.340,-35.156,-39.551,17.090,1737547321.191
786,-45.898,-48.340,-36.133,-40.527,26.367,1737547321.195
787,-35.645,-51.270,-38.086,-57.617,46.387,1737547321.199
788,-34.668,-51.270,-33.203,-48.828,31.250,1737547321.203
789,-54.199,-48.828,-28.809,-22.949,-61.523,1737547321.206
790,-82.520,-45.898,-34.668,-26.855,110.840,1737547321.210
791,-44.922,-43.457,-32.715,-44.434,84.473,1737547321.214
792,-15.625,-45.898,-30.762,-41.504,-44.922,1737547321.219
793,-32.715,-45.898,-34.180,-35.156,-9.766,1737547321.223
794,-54.688,-45.410,-35.645,-32.715,-79.590,1737547321.227
795,-73.242,-43.945,-30.762,-35.645,-134.766,1737547321.230
796,-59.570,-43.457,-28.809,-39.062,-130.859,1737547321.234
797,-36.133,-41.016,-39.551,-37.109,-66.406,1737547321.238
798,-18.066,-43.945,-41.504,-40.039,-59.082,1737547321.242
799,-28.320,-48.828,-43.457,-39.551,-25.879,1737547321.245
800,-73.730,-46.387,-41.992,-40.039,-29.297,1737547321.249
801,-77.637,-41.992,-42.480,-37.598,-16.602,1737547321.253
802,-65.918,-41.992,-41.016,-31.738,26.855,1737547321.257
803,-80.566,-40.527,-39.551,-29.297,37.109,1737547321.260
804,-61.523,-46.875,-41.504,-37.109,-20.996,1737547321.267
805,-46.875,-46.387,-32.227,-53.711,-68.359,1737547321.270
806,-50.781,-40.527,-38.086,-48.828,-71.777,1737547321.274
807,-57.129,-36.621,-40.039,-34.180,16.602,1737547321.278
808,-49.805,-33.691,-33.203,-31.250,-47.363,1737547321.282
809,-32.227,-36.621,-38.574,-34.180,-97.168,1737547321.285
810,-50.293,-42.969,-39.551,-34.180,20.020,1737547321.289
811,-58.594,-43.457,-38.086,-37.598,55.176,1737547321.293
812,-42.969,-40.527,-38.574,-43.945,28.320,1737547321.297
813,-26.367,-39.062,-38.574,-39.062,-13.184,1737547321.300
814,-29.785,-41.016,-39.062,-42.480,11.719,1737547321.304
815,-43.457,-45.410,-31.250,-40.527,-60.059,1737547321.308
816,-70.801,-39.551,-28.809,-35.156,-145.508,1737547321.315
817,-80.078,-34.668,-34.668,-27.832,-122.070,1737547321.318
818,-23.438,-34.668,-35.645,-30.273,-44.434,1737547321.322
819,-18.555,-43.457,-36.621,-37.598,5.859,1737547321.326
820,-28.320,-41.504,-37.109,-41.016,79.590,1737547321.330
821,-35.156,-30.762,-36.621,-34.668,82.031,1737547321.333
822,-46.387,-35.645,-36.133,-24.902,4.395,1737547321.337
823,-36.133,-41.504,-40.527,-31.738,-38.086,1737547321.341
824,-38.086,-45.410,-42.969,-26.855,-10.254,1737547321.345
825,-34.668,-43.457,-41.992,-44.434,57.129,1737547321.348
826,-42.480,-42.480,-47.852,-49.805,-15.137,1737547321.352
827,-47.363,-46.387,-46.387,-31.250,-119.141,1737547321.356
828,-42.969,-40.527,-39.551,-23.926,-65.430,1737547321.362
829,-29.297,-34.668,-39.062,-36.133,52.734,1737547321.366
830,-56.641,-37.109,-37.109,-42.969,122.559,1737547321.370
831,-44.434,-33.691,-33.203,-37.598,64.453,1737547321.374
832,-15.625,-33.691,-31.738,-21.484,-22.949,1737547321.377
833,-28.320,-36.133,-37.109,-29.785,-14.648,1737547321.381
834,2.441,-32.715,-40.527,-48.828,-28.320,1737547321.385
835,-21.484,-37.109,-35.156,-45.410,-23.926,1737547321.389
836,-61.523,-40.527,-31.738,-36.133,8.789,1737547321.392
837,-72.266,-37.598,-35.156,-27.344,-56.641,1737547321.396
838,-62.500,-39.062,-37.598,-29.785,-74.219,1737547321.400
839,-43.457,-40.039,-30.273,-34.668,-63.965,1737547321.404
840,-38.086,-40.039,-30.273,-30.273,-151.367,1737547321.410
841,-49.316,-39.551,-31.250,-27.832,-189.453,1737547321.413
842,-68.848,-38.086,-34.668,-42.480,-198.730,1737547321.417
843,-29.297,-38.086,-38.574,-42.480,-206.543,1737547321.421
844,-49.316,-37.109,-39.551,-32.227,-147.949,1737547321.425
845,-62.500,-38.086,-34.668,-29.785,-147.949,1737547321.428
846,-12.695,-40.039,-36.621,-26.367,-168.457,1737547321.432
847,-47.852,-36.621,-33.691,-24.414,-85.449,1737547321.436
848,-49.805,-39.062,-31.738,-31.738,19.531,1737547321.440
849,-21.973,-42.969,-39.062,-43.945,1.465,1737547321.444
850,-44.434,-41.504,-39.062,-43.457,-102.051,1737547321.447
851,-38.574,-40.039,-30.762,-25.391,-94.727,1737547321.451
852,-41.992,-38.574,-29.785,-22.949,-27.832,1737547321.456
853,-46.387,-37.109,-36.621,-31.738,-85.938,1737547321.460
854,-17.090,-38.086,-34.180,-36.621,-67.383,1737547321.464
855,-24.902,-39.062,-37.598,-39.551,-15.137,1737547321.468
856,-42.969,-35.156,-35.156,-35.156,-99.121,1737547321.471
857,-56.152,-33.203,-35.645,-29.297,-102.051,1737547321.475
858,-51.270,-35.156,-37.598,-37.598,-90.820,1737547321.479
859,-25.391,-38.086,-34.668,-35.156,-18.555,1737547321.483
860,-7.812,-39.551,-30.273,-21.973,87.402,1737547321.486
861,-20.996,-37.109,-28.320,-22.461,218.750,1737547321.490
862,-36.133,-33.203,-40.039,-48.828,258.789,1737547321.494
863,-44.434,-28.809,-46.387,-54.688,154.297,1737547321.498
864,-35.156,-25.879,-37.109,-29.785,125.000,1737547321.503
865,-17.090,-22.949,-33.691,-15.625,62.012,1737547321.507
866,-30.273,-20.020,-34.180,-18.066,26.855,1737547321.510
867,-47.852,-29.297,-30.762,-19.531,-13.672,1737547321.514
868,-36.133,-34.180,-33.691,-24.902,5.371,1737547321.518
869,-19.043,-32.715,-34.180,-26.367,115.723,1737547321.522
870,-35.156,-29.297,-34.668,-21.973,18.066,1737547321.526
871,-12.695,-34.668,-33.203,-24.902,12.207,1737547321.529
872,11.230,-37.109,-40.527,-27.344,98.145,1737547321.533
873,-27.832,-31.250,-38.086,-29.297,37.598,1737547321.537
874,-37.109,-36.621,-31.250,-23.926,-75.684,1737547321.541
875,-14.648,-34.668,-36.133,-14.648,-96.191,1737547321.544
876,-7.812,-29.297,-33.203,-16.602,-43.457,1737547321.550
877,-37.598,-33.203,-33.203,-21.973,-121.094,1737547321.554
878,-35.645,-35.645,-36.133,-16.113,-158.203,1737547321.557
879,-19.043,-33.691,-37.109,-18.066,-147.949,1737547321.561
880,-37.598,-32.715,-38.086,-41.016,-226.074,1737547321.565
881,-40.039,-31.250,-36.133,-28.320,-142.090,1737547321.569
882,-15.625,-34.668,-32.715,-15.625,-11.719,1737547321.573
883,-48.340,-41.992,-36.133,-25.879,-41.016,1737547321.576
884,-46.387,-43.945,-39.062,-28.320,-142.578,1737547321.580
885,-33.203,-41.504,-35.156,-28.809,-100.098,1737547321.584
886,-31.250,-31.738,-26.367,-22.461,-75.684,1737547321.588
887,-1.465,-33.203,-25.391,-22.461,-172.852,1737547321.591
888,-29.297,-38.574,-30.762,-9.766,-196.289,1737547321.597
889,-28.320,-37.598,-34.180,0.977,-165.039,1737547321.601
890,-4.883,-38.574,-36.133,-9.766,-119.141,1737547321.604
891,-3.418,-41.992,-33.691,-31.738,-46.387,1737547321.608
892,-21.973,-40.039,-31.250,-36.133,-58.105,1737547321.612
893,-33.203,-39.551,-39.551,-25.879,-154.785,1737547321.616
894,-7.812,-39.551,-41.504,-24.414,-30.273,1737547321.619
895,-8.789,-41.504,-31.738,-28.320,45.898,1737547321.623
896,-17.578,-44.434,-28.320,-20.020,1.953,1737547321.627
897,-8.301,-44.434,-28.809,-9.277,-45.410,1737547321.631
898,-61.035,-42.969,-30.273,-13.672,-12.207,1737547321.635
899,-57.617,-44.434,-31.250,-24.414,41.992,1737547321.638
900,-22.949,-46.387,-30.762,-19.531,18.066,1737547321.643
901,-46.875,-42.480,-24.414,-22.461,-0.488,1737547321.647
902,-35.645,-39.062,-27.344,-35.156,-49.805,1737547321.651
903,-15.137,-42.480,-39.551,-28.320,154.297,1737547321.655
904,-8.301,-40.039,-42.480,-17.578,245.605,1737547321.658
905,-18.555,-31.738,-37.598,-20.996,113.281,1737547321.662
906,-38.086,-37.109,-35.645,-35.156,173.828,1737547321.666
907,-60.059,-45.898,-30.762,-40.039,75.684,1737547321.670
908,-76.660,-47.852,-31.250,-30.273,-24.902,1737547321.673
909,-46.875,-41.504,-41.016,-26.367,-30.762,1737547321.677
910,-41.504,-32.227,-40.039,-23.926,-149.414,1737547321.681
911,-23.438,-39.062,-35.156,-35.156,-83.008,1737547321.685
912,-36.133,-45.410,-30.273,-49.316,4.883,1737547321.690
913,-84.961,-46.387,-30.273,-39.551,62.988,1737547321.694
914,-61.035,-46.875,-33.691,-44.434,232.910,1737547321.698
915,-30.273,-44.434,-28.320,-41.016,129.883,1737547321.701
916,-31.738,-47.852,-23.438,-45.898,-62.500,1737547321.705
917,-56.641,-49.316,-26.855,-51.270,-9.766,1737547321.709
918,-80.078,-48.340,-29.297,-36.133,31.250,1737547321.713
919,-59.570,-46.875,-30.762,-40.527,-21.484,1737547321.717
920,-39.062,-43.945,-40.039,-47.852,-78.613,1737547321.720
921,-43.457,-47.852,-40.527,-56.641,-76.660,1737547321.724
922,-57.129,-55.664,-37.598,-50.293,25.879,1737547321.728
923,-81.543,-49.805,-30.273,-39.062,82.031,1737547321.732
924,-70.312,-45.410,-33.203,-43.945,83.984,1737547321.737
925,-42.969,-42.480,-36.621,-51.758,128.906,1737547321.741
926,-59.570,-40.039,-29.785,-43.945,56.152,1737547321.744
927,-76.172,-42.969,-36.621,-34.180,-36.133,1737547321.748
928,-48.828,-40.039,-37.109,-26.367,-115.723,1737547321.752
929,-46.387,-37.109,-33.691,-32.227,-125.488,1737547321.756
930,-41.504,-40.039,-40.527,-44.434,-149.902,1737547321.760
931,-28.809,-43.945,-43.457,-49.316,-104.004,1737547321.763
932,-31.738,-45.410,-40.527,-52.246,-16.602,1737547321.767
933,-31.738,-43.945,-45.410,-38.086,-5.859,1737547321.771
934,-61.035,-46.875,-45.410,-47.852,-53.223,1737547321.775
935,-84.961,-48.828,-41.016,-39.551,-97.656,1737547321.778
936,-69.824,-46.387,-36.621,-18.066,-76.172,1737547321.784
937,-66.406,-42.480,-32.715,-25.391,-5.371,1737547321.788
938,-60.059,-45.898,-25.879,-30.762,0.488,1737547321.792
939,-45.898,-52.246,-28.320,-39.551,-5.371,1737547321.795
940,-50.293,-45.410,-37.109,-41.992,-15.625,1737547321.799
941,-41.992,-36.133,-34.180,-33.691,-80.566,1737547321.803
942,-25.879,-32.227,-27.344,-38.086,-83.496,1737547321.807
943,-32.715,-32.715,-25.391,-43.457,-78.125,1737547321.811
944,-61.035,-36.133,-23.926,-33.203,-75.684,1737547321.814
945,-50.781,-41.016,-26.855,-31.250,-80.566,1737547321.818
946,-13.672,-35.156,-34.180,-35.156,-107.422,1737547321.822
947,-14.160,-32.227,-32.715,-41.992,-230.469,1737547321.826
948,-32.715,-31.738,-31.738,-46.875,-279.785,1737547321.831
949,-55.176,-35.645,-31.250,-52.246,-194.824,1737547321.835
950,-56.641,-38.086,-32.227,-39.062,-129.883,1737547321.839
951,-33.691,-32.715,-29.297,-37.598,-119.629,1737547321.843
952,-38.086,-32.227,-30.762,-43.457,-240.723,1737547321.846
953,-38.574,-31.738,-23.438,-40.527,-225.098,1737547321.850
954,-52.246,-32.227,-18.555,-39.551,-192.871,1737547321.854
955,-53.711,-41.504,-28.809,-28.320,-224.609,1737547321.858
956,-55.176,-50.781,-31.738,-39.062,-83.496,1737547321.861
957,-54.688,-51.270,-28.320,-41.992,21.973,1737547321.865
958,-40.039,-44.434,-23.926,-27.344,120.605,1737547321.869
959,-55.176,-45.410,-32.715,-30.273,124.512,1737547321.873
960,-76.660,-49.316,-37.598,-39.551,-30.273,1737547321.878
961,-67.871,-46.387,-27.832,-50.293,12.695,1737547321.882
962,-37.109,-36.133,-32.227,-39.551,6.836,1737547321.886
963,-34.668,-34.180,-33.203,-32.227,-47.363,1737547321.890
964,-39.551,-40.039,-32.227,-38.086,28.809,1737547321.893
965,-41.992,-40.527,-37.109,-30.273,1.953,1737547321.897
966,-47.852,-41.504,-43.945,-32.227,-11.719,1737547321.901
967,-43.945,-46.875,-59.570,-34.668,12.207,1737547321.905
968,-62.988,-48.340,-55.176,-30.273,-31.250,1737547321.909
969,-49.805,-42.480,-32.715,-42.969,-8.301,1737547321.912
970,-19.531,-39.062,-19.531,-52.734,-22.461,1737547321.916
971,-27.832,-40.039,-26.367,-49.805,-0.977,1737547321.920
972,-33.203,-44.922,-36.621,-48.340,31.738,1737547321.925
973,-56.641,-41.016,-38.574,-55.176,-22.461,1737547321.929
974,-54.688,-35.156,-40.039,-56.641,-5.371,1737547321.933
975,-20.508,-38.086,-39.551,-38.574,-9.277,1737547321.937
976,-28.809,-38.574,-36.621,-37.598,23.438,1737547321.940
977,-39.551,-36.621,-28.320,-44.434,-28.809,1737547321.944
978,-38.086,-37.109,-25.879,-45.410,-108.398,1737547321.948
979,-50.293,-43.457,-33.691,-36.133,-76.660,1737547321.952
980,-39.062,-46.387,-41.504,-19.531,-85.938,1737547321.956
981,-50.781,-42.969,-39.062,-30.273,-77.637,1737547321.959
982,-25.391,-40.527,-35.156,-42.969,52.734,1737547321.963
983,-36.133,-44.922,-45.410,-39.551,-0.977,1737547321.967
984,-91.797,-50.781,-44.922,-44.922,-68.848,1737547321.972
985,-63.965,-43.945,-37.109,-50.293,-37.109,1737547321.976
986,-46.875,-39.062,-36.133,-48.340,-81.543,1737547321.980
987,-26.855,-41.504,-31.250,-34.668,-53.711,1737547321.984
988,-36.621,-44.434,-33.203,-24.414,42.480,1737547321.987
989,-61.523,-50.293,-33.203,-31.250,68.848,1737547321.991
990,-48.828,-43.457,-38.086,-50.293,-71.777,1737547321.995
991,-41.016,-41.016,-45.410,-52.246,-74.707,1737547321.999
992,-50.781,-40.039,-40.527,-50.781,-108.887,1737547322.003
993,-42.969,-32.227,-35.645,-51.270,-196.777,1737547322.006
994,-32.715,-34.668,-37.598,-41.992,-121.582,1737547322.010
995,-51.758,-35.156,-38.574,-34.180,-92.773,1737547322.014
996,-51.758,-31.250,-36.133,-40.039,-113.770,1737547322.019
997,-30.762,-33.203,-38.086,-38.574,18.066,1737547322.023
998,-34.668,-40.039,-40.039,-36.621,-31.738,1737547322.027
999,-37.109,-45.410,-39.062,-46.875,-137.207,1737547322.030
1000,-25.879,-43.945,-32.715,-45.410,-102.539,1737547322.034
1001,-25.879,-38.574,-31.250,-43.457,-145.020,1737547322.038
1002,-24.414,-41.016,-33.691,-37.109,-140.137,1737547322.042
1003,-49.316,-45.898,-28.809,-24.414,-88.379,1737547322.046
1004,-83.008,-49.805,-28.320,-19.043,-152.832,1737547322.049
1005,-67.871,-48.340,-30.762,-29.785,-112.793,1737547322.053
1006,-54.199,-44.434,-30.273,-28.809,7.324,1737547322.057
1007,-57.129,-45.410,-34.180,-30.273,-20.020,1737547322.061
1008,-45.898,-44.434,-37.109,-48.828,-27.832,1737547322.066
1009,-54.688,-45.410,-36.133,-33.203,24.414,1737547322.070
1010,-80.078,-48.340,-30.273,-17.090,59.570,1737547322.073
1011,-54.199,-46.387,-30.273,-48.340,88.867,1737547322.077
1012,-41.016,-46.875,-37.109,-48.340,30.273,1737547322.081
1013,-44.922,-43.457,-39.551,-26.855,-69.336,1737547322.085
1014,-51.758,-40.527,-39.062,-40.527,-148.926,1737547322.089
1015,-61.523,-43.457,-38.574,-44.434,-195.801,1737547322.092
1016,-60.059,-44.922,-37.109,-39.551,-73.730,1737547322.096
1017,-36.133,-45.410,-43.457,-46.875,28.809,1737547322.100
1018,-28.809,-45.898,-42.969,-48.828,-153.809,1737547322.104
1019,-57.617,-43.945,-37.598,-30.273,-139.160,1737547322.108
1020,-72.754,-43.457,-35.645,-29.297,-23.926,1737547322.113
1021,-54.688,-45.410,-33.203,-39.551,-1.953,1737547322.116
1022,-63.477,-46.387,-36.133,-17.578,-8.789,1737547322.120
1023,-41.992,-43.945,-35.645,-24.414,-62.500,1737547322.124
1024,-17.578,-41.504,-38.574,-38.574,-9.766,1737547322.128
1025,-31.250,-45.410,-45.898,-47.363,-128.418,1737547322.132
1026,-59.570,-49.316,-41.504,-52.734,-116.211,1737547322.135
1027,-77.637,-50.781,-37.598,-43.457,-44.922,1737547322.139
1028,-62.988,-47.363,-43.945,-58.594,-42.480,1737547322.143
1029,-55.664,-49.316,-44.434,-50.293,-70.801,1737547322.147
1030,-56.641,-47.852,-37.109,-30.762,-144.531,1737547322.151
1031,-52.734,-41.992,-36.133,-36.621,-132.812,1737547322.154
1032,-47.852,-43.457,-36.133,-40.527,-133.789,1737547322.160
1033,-39.551,-43.457,-40.527,-49.316,-224.121,1737547322.164
1034,-45.410,-43.457,-41.504,-42.969,-279.297,1737547322.167
1035,-59.082,-41.504,-34.668,-43.457,-100.098,1737547322.171
1036,-28.320,-43.457,-35.156,-43.945,-85.938,1737547322.175
1037,-35.645,-40.039,-37.109,-43.945,-181.152,1737547322.179
1038,-67.383,-39.551,-33.691,-38.574,-166.016,1737547322.183
1039,-55.664,-38.574,-28.320,-35.156,-160.645,1737547322.186
1040,-45.898,-35.156,-33.691,-34.668,-173.340,1737547322.190
1041,-47.363,-37.598,-34.180,-25.879,-134.277,1737547322.194
1042,-28.320,-36.621,-28.320,-38.574,-141.602,1737547322.198
1043,-23.438,-33.203,-29.785,-37.109,-216.309,1737547322.202
1044,-40.527,-37.598,-32.227,-31.250,-311.523,1737547322.207
1045,-59.082,-43.457,-33.691,-58.594,-256.348,1737547322.211
1046,-47.852,-39.062,-37.109,-41.016,-165.527,1737547322.214
1047,-58.594,-40.527,-37.598,-36.133,-131.348,1737547322.218
1048,-44.922,-44.922,-38.574,-48.828,-18.555,1737547322.222
1049,-11.230,-42.480,-31.738,-31.250,12.207,1737547322.226
1050,-29.785,-44.434,-27.344,-37.109,-111.328,1737547322.230
1051,-51.270,-46.387,-30.273,-29.297,-126.953,1737547322.233
1052,-69.336,-51.270,-31.738,-25.879,-165.039,1737547322.237
1053,-70.312,-46.387,-33.691,-41.992,-139.160,1737547322.241
1054,-31.250,-36.621,-33.203,-33.203,-124.023,1737547322.245
1055,-38.574,-40.527,-31.738,-38.574,-165.039,1737547322.249
1056,-68.359,-43.945,-35.156,-47.852,-156.738,1737547322.253
1057,-63.965,-36.621,-36.133,-40.527,-172.852,1737547322.257
1058,-37.109,-32.715,-42.969,-29.785,-166.016,1737547322.261
1059,-24.902,-41.504,-39.062,-38.574,-198.730,1737547322.265
1060,-32.227,-39.551,-29.785,-47.363,-104.004,1737547322.269
1061,-53.711,-31.738,-30.762,-20.996,-75.684,1737547322.272
1062,-49.805,-30.762,-22.949,-28.320,-109.863,1737547322.276
1063,-33.691,-37.598,-26.367,-46.875,-78.125,1737547322.280
1064,-21.973,-45.410,-33.691,-37.598,-53.223,1737547322.284
1065,-26.367,-43.945,-26.855,-23.438,-72.754,1737547322.288
1066,-51.758,-41.992,-30.762,-31.250,-152.832,1737547322.291
1067,-44.922,-41.504,-41.504,-48.828,-163.086,1737547322.295
1068,-54.688,-40.039,-40.527,-28.320,-131.836,1737547322.301
1069,-45.898,-34.668,-33.203,-33.203,33.203,1737547322.305
1070,-39.062,-35.156,-31.738,-40.527,162.598,1737547322.308
1071,-69.336,-37.109,-33.203,-41.016,64.941,1737547322.312
1072,-62.500,-36.621,-28.809,-46.875,75.195,1737547322.316
1073,-33.203,-37.598,-25.391,-22.949,89.844,1737547322.320
1074,-9.766,-30.273,-25.879,-13.184,43.945,1737547322.324
1075,-40.039,-27.832,-27.344,-21.973,4.883,1737547322.327
1076,-61.035,-37.598,-33.203,-46.875,-36.133,1737547322.331
1077,-45.898,-35.645,-34.668,-95.703,-8.301,1737547322.335
1078,-42.480,-28.320,-37.109,-62.012,-22.461,1737547322.339
1079,-44.922,-22.461,-41.504,-25.879,86.426,1737547322.343
1080,-33.691,-21.973,-36.133,-75.195,109.375,1737547322.348
1081,-16.113,-26.855,-39.062,-64.941,57.129,1737547322.352
1082,-65.430,-33.691,-44.922,-34.180,83.008,1737547322.355
1083,-80.566,-35.645,-41.992,-26.855,11.230,1737547322.359
1084,-37.109,-31.250,-40.527,-25.879,-10.742,1737547322.363
1085,-39.551,-30.273,-41.016,-48.828,43.457,1737547322.367
1086,-26.367,-32.715,-48.828,-48.828,64.453,1737547322.371
1087,-40.039,-37.598,-48.828,-51.758,15.137,1737547322.374
1088,-49.805,-36.621,-39.551,-60.059,33.203,1737547322.378
1089,-30.762,-38.574,-40.039,-43.945,9.766,1737547322.382
1090,-35.156,-43.457,-40.039,-31.250,-70.801,1737547322.386
1091,-60.059,-40.527,-35.156,-60.059,-131.348,1737547322.389
1092,-60.547,-40.527,-33.203,-63.477,-109.863,1737547322.394
1093,-49.316,-36.621,-28.320,-47.852,-40.527,1737547322.398
1094,-30.762,-38.086,-35.156,-39.551,17.090,1737547322.402
1095,-32.227,-45.410,-40.527,-26.855,-52.246,1737547322.406
1096,-43.457,-36.621,-31.250,-61.523,-75.195,1737547322.409
1097,-42.969,-33.203,-29.785,-55.664,-5.371,1737547322.413
1098,-78.613,-35.156,-33.203,-20.508,-5.859,1737547322.417
1099,-88.867,-37.109,-36.621,-22.461,-49.316,1737547322.421
1100,-34.668,-45.898,-37.598,-27.344,-15.137,1737547322.425
1101,-37.598,-42.969,-37.109,-21.484,34.668,1737547322.428
1102,-45.410,-36.621,-37.598,-29.785,-41.016,1737547322.432
1103,-25.391,-38.574,-35.156,-55.176,-91.309,1737547322.436
1104,-35.156,-36.621,-40.039,-49.316,-58.594,1737547322.441
1105,-23.926,-35.156,-33.691,-37.109,-42.480,1737547322.445
1106,-30.762,-37.598,-31.738,-20.508,-133.789,1737547322.449
1107,-56.152,-37.598,-32.715,-26.367,-222.168,1737547322.452
1108,-67.383,-35.156,-27.832,-39.062,-164.551,1737547322.456
1109,-58.594,-33.691,-37.598,-48.828,-99.121,1737547322.460
1110,-38.574,-38.574,-41.504,-39.062,-80.078,1737547322.464
1111,-44.434,-44.922,-35.156,-47.852,-65.430,1737547322.468
1112,-51.270,-39.062,-36.133,-65.430,-121.094,1737547322.471
1113,-59.082,-37.598,-41.504,-38.086,-178.223,1737547322.475
1114,-64.941,-44.922,-38.086,-57.617,-159.180,1737547322.479
1115,-27.344,-38.574,-37.598,-51.758,-120.605,1737547322.483
1116,-70.312,-35.156,-40.039,-30.273,2.441,1737547322.488
1117,-63.965,-40.039,-41.504,-29.297,10.254,1737547322.492
1118,-9.277,-37.109,-36.621,-37.109,-99.121,1737547322.495
1119,-35.156,-34.668,-35.645,-41.992,-45.410,1737547322.499
1120,-38.574,-38.574,-41.016,-40.527,51.758,1737547322.503
1121,-26.855,-35.645,-32.715,-39.551,113.770,1737547322.507
1122,-36.133,-32.715,-24.902,-51.758,30.273,1737547322.511
1123,-62.012,-38.086,-35.645,-48.828,-81.543,1737547322.514
1124,-61.035,-39.062,-40.527,-25.391,-67.383,1737547322.518
1125,-53.711,-36.621,-36.621,-18.066,-65.430,1737547322.522
1126,-48.828,-36.133,-41.016,-36.621,74.707,1737547322.526
1127,-35.645,-33.691,-36.621,-62.988,170.410,1737547322.530
1128,-45.410,-33.203,-30.762,-41.992,79.590,1737547322.535
1129,-54.199,-33.691,-27.832,-30.273,25.879,1737547322.538
1130,-41.992,-32.715,-29.297,-37.109,-23.926,1737547322.542
1131,-9.277,-30.762,-31.250,-20.508,18.555,1737547322.546
1132,-44.922,-30.273,-25.879,-4.395,37.109,1737547322.550
1133,-65.918,-34.668,-29.297,-17.090,-55.176,1737547322.554
1134,-27.344,-41.016,-32.227,-40.039,-102.051,1737547322.557
1135,-37.598,-41.016,-32.715,-41.992,-93.750,1737547322.561
1136,-45.410,-40.039,-33.203,-32.715,-91.309,1737547322.565
1137,-30.762,-39.551,-33.203,-26.855,-112.793,1737547322.569
1138,-33.691,-40.527,-33.203,-40.527,-31.738,1737547322.573
1139,-54.199,-42.969,-30.762,-45.898,-20.508,1737547322.576
1140,-44.434,-42.480,-25.879,-28.320,-63.477,1737547322.581
1141,-46.875,-40.527,-21.973,-41.504,-22.949,1737547322.585
1142,-44.922,-40.527,-29.297,-35.645,-32.715,1737547322.589
1143,-38.574,-40.527,-32.227,-47.852,-60.059,1737547322.593
1144,-47.363,-39.551,-31.250,-52.734,4.883,1737547322.597
1145,-28.320,-40.039,-31.250,-39.551,61.035,1737547322.600
1146,-19.043,-37.109,-30.762,-30.273,-60.547,1737547322.604
1147,-49.805,-35.156,-29.297,-24.902,-110.840,1737547322.608
1148,-88.379,-37.109,-27.832,-30.273,-100.098,1737547322.612
1149,-69.824,-41.992,-33.691,-22.461,-33.203,1737547322.616
1150,-25.391,-42.480,-39.551,-35.156,45.898,1737547322.619
1151,-25.879,-34.180,-40.527,-58.105,-179.688,1737547322.623
1152,-43.457,-36.133,-39.551,-53.223,-315.430,1737547322.629
1153,-57.129,-47.852,-36.133,-29.297,-143.066,1737547322.633
1154,-58.105,-47.852,-36.133,-36.133,-112.793,1737547322.636
1155,-52.734,-44.434,-36.621,-51.270,-154.785,1737547322.640
1156,-31.250,-43.945,-31.250,-27.344,-104.004,1737547322.644
1157,-24.414,-42.480,-31.250,-32.715,-152.344,1737547322.648
1158,-15.625,-40.039,-38.086,-52.246,-62.988,1737547322.652
1159,-18.066,-43.945,-38.086,-48.340,37.109,1737547322.655
1160,-18.066,-47.852,-36.621,-42.480,-69.336,1737547322.659
1161,-16.113,-42.480,-36.621,-33.203,-4.883,1737547322.663
1162,-60.547,-41.992,-33.203,-42.969,3.418,1737547322.667
1163,-70.312,-45.898,-31.250,-31.738,-50.293,1737547322.671
1164,-60.059,-43.945,-30.273,-34.180,-80.566,1737547322.676
1165,-54.688,-43.457,-31.738,-46.387,-62.500,1737547322.680
1166,-44.434,-42.969,-38.086,-19.043,74.707,1737547322.683
1167,-30.762,-44.922,-41.992,-14.160,83.008,1737547322.687
1168,-67.871,-51.758,-39.551,-40.527,36.621,1737547322.691
1169,-78.613,-47.852,-35.645,-42.969,134.766,1737547322.695
1170,-33.691,-39.551,-37.109,-19.043,161.133,1737547322.699
1171,-19.531,-44.922,-44.434,-18.555,32.715,1737547322.702
1172,-21.973,-47.852,-41.016,-45.410,4.883,1737547322.706
1173,-47.363,-41.992,-30.762,-51.758,44.922,1737547322.710
1174,-36.133,-36.133,-31.738,-26.367,80.566,1737547322.714
1175,-8.789,-41.504,-39.551,-17.090,118.164,1737547322.718
1176,-37.109,-51.270,-42.969,-31.250,99.121,1737547322.723
1177,-49.316,-50.293,-40.527,-50.781,17.578,1737547322.726
1178,-50.781,-48.340,-35.156,-58.594,-54.199,1737547322.730
1179,-62.012,-53.223,-33.203,-56.641,-72.754,1737547322.734
1180,-59.082,-50.781,-30.762,-40.039,-83.496,1737547322.738
1181,-42.480,-46.875,-27.344,-44.922,-89.355,1737547322.742
1182,-27.832,-52.246,-25.879,-35.156,-51.270,1737547322.745
1183,-44.434,-56.641,-24.414,-28.809,-170.898,1737547322.749
1184,-77.148,-54.688,-23.926,-46.875,-181.152,1737547322.753
1185,-63.965,-48.828,-25.391,-43.945,27.832,1737547322.757
1186,-50.293,-54.688,-25.879,-25.391,84.473,1737547322.761
1187,-60.059,-55.176,-30.762,-22.461,59.082,1737547322.765
1188,-76.660,-44.434,-28.809,-19.043,-9.766,1737547322.769
1189,-70.312,-46.875,-20.020,-26.855,-57.617,1737547322.773
1190,-70.312,-51.758,-25.879,-39.062,19.043,1737547322.777
1191,-80.078,-54.688,-30.762,-40.039,157.715,1737547322.781
1192,-61.035,-53.223,-31.738,-46.387,138.184,1737547322.784
1193,-32.227,-43.945,-30.762,-36.621,43.457,1737547322.788
1194,-46.875,-42.480,-39.551,-31.738,19.043,1737547322.792
1195,-64.941,-46.875,-40.039,-37.109,26.855,1737547322.796
1196,-46.387,-45.898,-28.320,-41.016,85.938,1737547322.800
1197,-36.621,-41.504,-27.832,-45.898,105.957,1737547322.803
1198,-55.176,-41.504,-35.156,-26.367,61.523,1737547322.807
1199,-78.125,-46.875,-36.621,-35.645,67.383,1737547322.811
1200,-65.430,-44.434,-32.715,-39.062,91.797,1737547322.816
1201,-40.527,-37.109,-33.691,-30.762,44.434,1737547322.820
1202,-26.855,-36.133,-36.133,-44.434,23.438,1737547322.824
1203,-25.879,-40.039,-29.297,-27.344,-17.090,1737547322.828
1204,-44.922,-40.527,-25.879,-11.719,-97.168,1737547322.832
1205,-54.199,-35.156,-26.855,-46.387,-77.148,1737547322.835
1206,-43.945,-37.109,-27.832,-37.598,-131.348,1737547322.839
1207,-25.391,-45.898,-30.273,-12.695,-217.285,1737547322.843
1208,-24.414,-47.363,-27.344,-32.715,-105.469,1737547322.847
1209,-28.320,-39.551,-19.531,-40.527,-197.754,1737547322.851
1210,-34.668,-35.645,-19.043,-21.484,-271.484,1737547322.854
1211,-40.039,-38.574,-26.855,1.953,-65.918,1737547322.858
1212,-23.926,-39.062,-31.738,-13.184,8.789,1737547322.863
1213,-22.461,-42.969,-30.762,-37.598,-89.844,1737547322.867
1214,-24.414,-45.410,-31.738,-35.156,-139.160,1737547322.871
1215,-44.922,-41.016,-26.855,-20.020,-123.535,1737547322.875
1216,-40.527,-34.668,-26.367,-27.832,-170.410,1737547322.878
1217,-53.223,-33.691,-34.180,-26.367,-141.602,1737547322.882
1218,-53.711,-39.551,-36.621,-14.648,-101.562,1737547322.886
1219,-14.648,-41.016,-32.715,-22.461,-139.648,1737547322.890
1220,-35.645,-41.992,-29.785,-41.016,-152.832,1737547322.894
1221,-36.133,-42.480,-26.855,-51.270,-121.094,1737547322.897
1222,-38.574,-41.992,-31.250,-33.691,31.250,1737547322.901
1223,-41.992,-37.109,-32.715,-19.531,-9.277,1737547322.905
1224,-16.602,-34.180,-26.855,-19.043,-10.254,1737547322.910
1225,-6.836,-33.691,-24.902,-16.602,133.789,1737547322.914
1226,-48.828,-38.086,-24.414,-27.832,37.109,1737547322.918
1227,-31.738,-38.574,-29.785,-55.664,90.820,1737547322.922
1228,-2.441,-34.180,-34.668,-34.668,141.602,1737547322.926
1229,-20.020,-29.785,-24.902,-14.648,78.613,1737547322.929
1230,-24.414,-31.738,-23.438,-12.695,101.562,1737547322.933
1231,-48.828,-36.133,-28.320,-33.691,55.176,1737547322.937
1232,-46.875,-42.969,-29.785,-34.180,30.762,1737547322.941
1233,-27.344,-45.410,-34.668,-10.254,69.824,1737547322.945
1234,-20.020,-33.691,-36.133,-20.996,87.891,1737547322.948
1235,0.977,-31.250,-24.414,-29.297,53.223,1737547322.952
1236,-29.785,-29.297,-27.344,-18.555,59.570,1737547322.957
1237,-59.570,-27.832,-39.551,-20.996,136.719,1737547322.961
1238,-23.926,-31.738,-35.645,-25.391,111.328,1737547322.965
1239,0.488,-27.832,-33.691,-18.555,35.645,1737547322.969
1240,-27.344,-25.391,-34.668,-23.926,-4.395,1737547322.973
1241,-33.203,-26.855,-34.668,-40.039,84.961,1737547322.976
1242,-20.508,-25.879,-39.551,-37.598,144.531,1737547322.980
1243,-27.344,-26.367,-38.574,-11.230,158.691,1737547322.984
1244,-27.344,-33.203,-40.039,-10.254,175.781,1737547322.988
1245,-39.551,-33.691,-36.133,-23.926,95.703,1737547322.992
1246,-51.758,-33.691,-37.598,-16.602,-41.016,1737547322.995
1247,-41.504,-39.551,-43.457,-24.414,-99.121,1737547322.999
1248,5.371,-34.180,-37.109,-29.297,-22.949,1737547323.005
1249,6.836,-30.762,-31.738,-31.738,104.980,1737547323.009
1250,-41.992,-34.668,-29.297,-24.902,133.301,1737547323.012
1251,-41.992,-34.668,-31.738,-14.648,15.137,1737547323.016
1252,-15.625,-31.738,-41.504,-24.414,-6.836,1737547323.020
1253,-11.719,-31.250,-41.016,-22.949,-100.586,1737547323.024
1254,-28.320,-33.203,-41.992,-32.227,-100.586,1737547323.028
1255,-45.410,-33.691,-48.828,-34.180,53.711,1737547323.031
1256,-38.086,-37.598,-43.457,-27.344,54.688,1737547323.035
1257,-21.484,-39.551,-43.945,-31.250,-36.133,1737547323.039
1258,-17.578,-37.109,-45.898,-25.879,14.648,1737547323.043
1259,-33.691,-38.086,-39.551,-39.062,108.887,1737547323.047
1260,-50.781,-36.133,-37.109,-42.969,66.895,1737547323.052
1261,-33.691,-37.598,-38.086,-27.344,-9.766,1737547323.056
1262,-43.945,-42.480,-37.109,-25.391,-1.953,1737547323.060
1263,-34.180,-40.527,-41.504,-32.227,-24.902,1737547323.064
1264,-24.902,-39.062,-37.598,-29.785,-38.574,1737547323.067
1265,-47.852,-33.691,-33.691,-36.621,-82.031,1737547323.071
1266,-49.805,-30.762,-30.762,-31.738,-94.727,1737547323.075
1267,-28.320,-38.574,-31.250,-24.414,-41.016,1737547323.079
1268,-39.551,-39.551,-38.574,-42.480,14.648,1737547323.083
1269,-41.016,-37.598,-35.156,-34.668,-43.457,1737547323.086
1270,-34.180,-44.434,-36.133,-35.156,21.484,1737547323.090
1271,-38.086,-40.527,-35.645,-41.504,104.004,1737547323.094
1272,-38.086,-32.715,-36.133,-53.711,49.316,1737547323.099
1273,-44.434,-38.086,-40.527,-46.875,19.531,1737547323.103
1274,-22.949,-35.645,-37.109,-57.129,-94.238,1737547323.107
1275,-12.207,-36.621,-38.086,-64.453,-83.008,1737547323.110
1276,-40.039,-48.828,-28.320,-36.621,-31.738,1737547323.114
1277,-42.480,-45.410,-26.855,-34.180,-18.066,1737547323.118
1278,-31.738,-39.062,-39.062,-20.508,72.754,1737547323.122
1279,-55.176,-44.434,-41.504,-24.902,67.871,1737547323.126
1280,-48.340,-46.875,-33.203,-57.617,-14.160,1737547323.129
1281,-51.270,-44.434,-33.691,-77.637,-22.461,1737547323.133
1282,-58.594,-43.457,-39.551,-24.902,28.809,1737547323.137
1283,-31.250,-42.969,-36.621,-8.789,-48.340,1737547323.141
1284,-26.855,-39.551,-35.645,-28.320,-57.617,1737547323.145
1285,-20.996,-43.457,-33.203,-20.508,-31.738,1737547323.149
1286,-21.973,-44.434,-30.273,-22.461,-89.844,1737547323.153
1287,-31.250,-41.992,-36.621,-25.391,-17.578,1737547323.157
1288,-34.668,-37.109,-36.621,-25.391,34.668,1737547323.161
1289,-20.508,-31.738,-29.297,-21.484,-169.434,1737547323.165
1290,-12.207,-36.133,-30.273,-22.461,-202.637,1737547323.168
1291,-20.996,-37.598,-37.109,-20.996,-125.000,1737547323.172
1292,-27.344,-34.180,-31.250,-11.719,-113.281,1737547323.176
1293,-17.578,-35.645,-27.832,-22.461,-73.730,1737547323.180
1294,-17.578,-39.551,-36.621,-30.762,-156.250,1737547323.184
1295,-19.531,-40.527,-29.297,-36.133,-265.137,1737547323.187
1296,-28.809,-41.504,-29.297,-39.551,-117.676,1737547323.192
1297,-44.922,-37.109,-32.715,-23.926,-20.020,1737547323.196
1298,-30.273,-36.621,-30.273,-24.902,27.344,1737547323.200
1299,-27.832,-40.527,-32.227,-35.645,70.312,1737547323.204
1300,-29.785,-38.086,-34.180,-18.555,50.293,1737547323.208
1301,-32.715,-30.273,-30.762,-25.391,108.887,1737547323.211
1302,-55.176,-30.762,-34.668,-27.344,8.301,1737547323.215
1303,-44.922,-39.551,-44.922,-29.785,-28.320,1737547323.219
1304,-28.320,-40.527,-41.016,-35.156,129.395,1737547323.223
1305,-41.016,-42.480,-37.598,-28.320,110.352,1737547323.227
1306,-49.316,-44.434,-38.574,-40.039,9.766,1737547323.230
1307,-35.645,-35.156,-40.039,-29.785,15.137,1737547323.234
1308,-55.176,-35.645,-31.250,-49.316,44.434,1737547323.240
1309,-58.105,-36.621,-30.762,-58.105,-36.133,1737547323.244
1310,-34.180,-37.598,-30.762,-22.949,-55.664,1737547323.248
1311,-41.504,-43.457,-31.738,-22.461,-79.102,1737547323.252
1312,-79.590,-44.434,-33.203,-34.180,-166.992,1737547323.255
1313,-67.383,-35.156,-28.320,-36.133,-101.074,1737547323.259
1314,-17.090,-31.738,-35.645,-28.320,3.418,1737547323.263
1315,-16.602,-43.945,-32.227,-23.926,-6.348,1737547323.267
1316,-38.574,-44.922,-27.832,-29.297,-28.809,1737547323.271
1317,-81.543,-37.598,-31.250,-41.016,-19.531,1737547323.275
1318,-73.730,-42.480,-30.273,-30.762,-4.395,1737547323.278
1319,-14.648,-42.480,-31.250,-23.438,26.855,1737547323.282
1320,-26.855,-38.574,-35.156,-47.363,9.766,1737547323.288
1321,-34.668,-43.457,-37.598,-43.945,-76.172,1737547323.291
1322,-17.578,-40.527,-38.086,-34.668,-111.328,1737547323.295
1323,-41.992,-41.016,-38.574,-40.039,-122.559,1737547323.299
1324,-55.176,-40.527,-37.598,-44.434,-75.684,1737547323.303
1325,-38.574,-36.133,-34.668,-37.598,11.230,1737547323.307
1326,-42.969,-39.551,-34.668,-37.598,23.438,1737547323.311
1327,-50.293,-47.363,-37.109,-33.691,-44.434,1737547323.314
1328,-61.035,-49.805,-38.086,-36.621,-65.918,1737547323.318
1329,-82.031,-47.852,-32.715,-51.758,-73.730,1737547323.322
1330,-48.828,-45.898,-36.621,-53.223,-62.500,1737547323.326
1331,-18.555,-41.992,-50.293,-45.898,10.742,1737547323.330
1332,-41.016,-52.734,-43.457,-46.387,2.930,1737547323.335
1333,-46.387,-55.664,-40.527,-44.434,-80.566,1737547323.339
1334,-44.922,-44.922,-42.969,-37.109,-48.340,1737547323.343
1335,-58.594,-41.992,-34.668,-40.039,-92.285,1737547323.346
1336,-44.434,-39.062,-32.227,-41.504,-125.977,1737547323.350
1337,-9.766,-34.668,-28.809,-47.363,-177.246,1737547323.354
1338,-14.160,-32.227,-27.344,-29.297,-357.422,1737547323.358
1339,-29.785,-31.738,-30.762,-24.414,-285.156,1737547323.362
1340,-29.297,-28.809,-29.785,-40.527,-214.355,1737547323.366
1341,-51.270,-37.109,-28.809,-47.852,-76.172,1737547323.369
1342,-55.664,-35.645,-30.273,-35.645,88.379,1737547323.373
1343,-32.715,-28.809,-26.855,-43.945,75.684,1737547323.377
1344,-52.246,-34.180,-24.414,-38.086,8.789,1737547323.382
1345,-46.387,-30.762,-33.691,-34.668,0.977,1737547323.386
1346,-10.254,-28.320,-37.598,-46.387,20.996,1737547323.390
1347,-52.734,-37.109,-24.414,-50.293,5.371,1737547323.393
1348,-63.965,-37.109,-29.785,-46.387,41.016,1737547323.397
1349,-38.086,-30.273,-32.715,-33.691,5.859,1737547323.401
1350,-41.504,-37.109,-27.344,-27.344,13.184,1737547323.405
1351,-34.668,-35.645,-32.227,-19.043,8.301,1737547323.409
1352,-46.875,-31.738,-36.621,-38.574,4.883,1737547323.413
1353,-38.574,-33.203,-33.203,-56.152,-19.043,1737547323.416
1354,-46.875,-34.668,-27.344,-41.504,-40.527,1737547323.420
1355,-41.992,-38.086,-34.180,-30.273,-29.297,1737547323.424
1356,-22.949,-39.062,-36.133,-35.645,37.598,1737547323.429
1357,-39.062,-35.156,-32.715,-35.156,60.059,1737547323.432
1358,-74.219,-31.250,-34.668,-36.133,-42.969,1737547323.436
1359,-79.102,-35.156,-35.156,-40.039,9.766,1737547323.440
1360,-41.016,-37.109,-38.086,-51.270,24.414,1737547323.444
1361,-14.648,-33.691,-36.133,-53.711,78.125,1737547323.448
1362,-25.391,-34.180,-33.691,-33.203,111.328,1737547323.452
1363,-59.570,-42.480,-35.156,-35.645,9.277,1737547323.455
1364,-59.082,-47.363,-40.039,-53.711,3.418,1737547323.459
1365,-53.223,-42.969,-42.969,-62.500,1.465,1737547323.463
1366,-47.852,-33.203,-39.062,-38.086,-6.836,1737547323.467
1367,-55.176,-33.203,-29.785,-39.062,-60.059,1737547323.471
1368,-58.594,-41.504,-32.227,-44.434,-29.297,1737547323.475
1369,-33.203,-38.086,-31.738,-35.645,11.719,1737547323.479
1370,-39.551,-35.156,-37.109,-45.410,67.383,1737547323.483
1371,-42.969,-37.598,-48.828,-58.594,158.203,1737547323.487
1372,-44.922,-41.992,-36.133,-56.152,183.594,1737547323.491
1373,-59.570,-38.574,-25.391,-41.504,112.305,1737547323.495
1374,-49.316,-35.645,-32.715,-57.129,95.215,1737547323.498
1375,-75.195,-41.016,-38.086,-58.105,211.426,1737547323.502
1376,-65.918,-36.621,-36.621,-60.059,95.215,1737547323.506
1377,-20.996,-30.273,-32.227,-57.617,55.664,1737547323.510
1378,-31.738,-32.227,-29.297,-39.551,90.820,1737547323.514
1379,-14.648,-28.809,-36.621,-35.645,125.000,1737547323.517
1380,-12.695,-26.855,-33.203,-54.688,86.426,1737547323.523
1381,-41.016,-27.832,-32.715,-41.504,143.066,1737547323.527
1382,-40.527,-31.738,-33.203,-18.066,169.922,1737547323.531
1383,-8.301,-35.156,-31.250,-26.367,-35.156,1737547323.534
1384,-6.836,-30.762,-38.086,-22.461,-51.270,1737547323.538
1385,-29.785,-21.484,-31.738,-14.160,-0.977,1737547323.542
1386,-6.348,-21.484,-21.973,3.906,-15.625,1737547323.546
1387,12.695,-21.973,-23.926,-5.859,-72.266,1737547323.550
1388,-12.695,-18.066,-28.809,-11.230,80.078,1737547323.554
1389,-20.508,-25.879,-26.367,11.230,165.039,1737547323.557
1390,-13.184,-27.344,-20.508,17.090,56.152,1737547323.561
1391,-8.789,-21.973,-22.461,16.602,91.309,1737547323.565
1392,29.297,-16.602,-22.461,37.598,72.754,1737547323.570
1393,58.594,-17.090,-13.672,45.898,106.934,1737547323.574
1394,43.457,-21.973,-12.207,29.785,238.770,1737547323.578
1395,31.250,-15.137,-21.484,32.227,96.680,1737547323.582
1396,34.180,-14.160,-25.879,37.598,35.156,1737547323.586
1397,43.457,-23.926,-28.320,33.203,189.941,1737547323.590
1398,48.828,-23.438,-25.879,38.574,279.785,1737547323.593
1399,68.359,-22.461,-20.020,56.152,158.691,1737547323.597
1400,46.875,-22.461,-22.461,46.875,99.609,1737547323.601
1401,47.852,-19.043,-24.902,36.621,145.508,1737547323.605
1402,69.824,-15.625,-22.461,49.316,105.957,1737547323.609
1403,53.223,-19.531,-21.973,54.688,164.551,1737547323.613
1404,42.969,-21.484,-21.973,38.574,139.648,1737547323.618
1405,37.109,-14.648,-27.344,47.363,142.578,1737547323.621
1406,27.344,-20.020,-29.785,41.016,264.648,1737547323.625
1407,22.461,-25.879,-21.973,27.344,129.395,1737547323.629
1408,31.250,-28.809,-25.391,15.625,44.434,1737547323.633
1409,34.180,-32.227,-27.344,8.789,60.547,1737547323.637
1410,1.953,-32.227,-22.949,8.789,87.402,1737547323.640
1411,6.836,-29.785,-27.832,17.090,217.285,1737547323.644
1412,26.855,-30.273,-23.926,23.926,232.422,1737547323.648
1413,13.184,-26.855,-22.949,18.066,178.711,1737547323.652
1414,4.883,-31.738,-22.949,15.625,150.391,1737547323.656
1415,-0.977,-36.621,-18.555,1.953,207.031,1737547323.660
1416,-3.906,-34.180,-29.297,-0.488,191.895,1737547323.664
1417,17.578,-28.320,-29.297,14.648,113.281,1737547323.668
1418,14.160,-34.180,-23.438,0.488,145.020,1737547323.672
1419,-16.113,-33.691,-37.109,-5.371,170.898,1737547323.676
1420,-12.207,-31.738,-36.133,-4.883,83.984,1737547323.680
1421,-19.531,-31.738,-27.832,-13.672,51.270,1737547323.683
1422,-17.578,-27.344,-36.621,-14.648,50.781,1737547323.687
1423,-2.930,-28.809,-37.109,-11.719,-7.812,1737547323.691
1424,-22.461,-34.668,-31.738,-5.859,46.387,1737547323.695
1425,-32.715,-40.527,-34.668,-3.906,145.020,1737547323.699
1426,-24.902,-36.133,-37.109,-12.207,79.102,1737547323.702
1427,6.348,-28.809,-38.086,-13.672,13.184,1737547323.706
1428,4.883,-25.879,-33.691,-16.113,-29.297,1737547323.711
1429,-40.039,-29.297,-30.273,-24.902,-121.582,1737547323.715
1430,-26.855,-34.180,-29.297,-34.180,-66.406,1737547323.719
1431,-3.906,-35.645,-37.109,-41.992,-53.711,1737547323.722
1432,-36.621,-36.621,-45.410,-19.043,-6.348,1737547323.726
1433,-13.184,-36.133,-39.062,-2.930,-0.488,1737547323.730
1434,4.883,-29.785,-35.156,-17.090,-56.641,1737547323.734
1435,-3.906,-35.156,-36.133,-15.137,17.090,1737547323.738
1436,-11.719,-46.875,-35.645,-12.207,37.598,1737547323.742
1437,-31.250,-45.898,-36.621,-29.785,60.547,1737547323.745
1438,-36.621,-40.527,-41.016,-38.086,74.707,1737547323.749
1439,-50.293,-35.156,-36.621,-30.273,-132.324,1737547323.753
1440,-30.273,-40.527,-23.438,-29.297,-147.461,1737547323.758
1441,-25.879,-43.457,-25.391,-29.785,20.508,1737547323.761
1442,-28.320,-37.109,-32.715,-39.551,60.547,1737547323.765
1443,-32.227,-43.457,-38.086,-28.320,58.594,1737547323.769
1444,-93.262,-41.992,-36.133,-16.113,26.855,1737547323.773
1445,-49.316,-35.645,-30.273,-27.832,-39.062,1737547323.777
1446,4.395,-42.969,-39.062,-24.902,43.945,1737547323.781
1447,-27.344,-46.875,-39.551,-24.902,48.828,1737547323.784
1448,-23.438,-42.969,-39.551,-27.832,-3.418,1737547323.788
1449,-27.344,-40.039,-41.504,-24.414,-4.395,1737547323.792
1450,-38.086,-36.133,-37.598,-33.691,60.059,1737547323.796
1451,-31.250,-39.551,-35.645,-39.551,113.281,1737547323.800
1452,-20.508,-40.527,-37.598,-25.391,23.926,1737547323.804
1453,-31.250,-36.621,-36.133,-29.785,0.000,1737547323.808
1454,-30.762,-41.992,-33.691,-30.273,79.102,1737547323.812
1455,-40.527,-43.945,-28.809,-33.203,78.125,1737547323.816
1456,-49.805,-38.574,-26.367,-34.668,-22.949,1737547323.820
1457,-72.754,-34.668,-29.785,-37.109,-16.113,1737547323.823
1458,-59.082,-42.480,-30.273,-40.039,-40.527,1737547323.827
1459,-21.484,-45.898,-33.203,-34.180,-184.570,1737547323.831
1460,-44.434,-44.922,-35.156,-48.340,-242.676,1737547323.835
1461,-58.594,-44.922,-31.250,-53.223,-153.809,1737547323.839
1462,-55.664,-43.945,-35.156,-30.762,7.324,1737547323.842
1463,-50.293,-43.945,-41.992,-19.531,-67.383,1737547323.846
1464,-45.410,-45.898,-39.551,-27.344,-78.125,1737547323.851
1465,-47.363,-49.805,-35.645,-37.109,36.621,1737547323.855
1466,-46.875,-40.039,-32.715,-34.668,37.109,1737547323.859
1467,-75.684,-38.574,-34.668,-38.086,71.289,1737547323.863
1468,-49.805,-45.898,-35.156,-37.109,35.156,1737547323.866
1469,-3.906,-41.504,-29.297,-25.879,-2.930,1737547323.870
1470,-29.297,-36.133,-32.715,-19.043,1.465,1737547323.874
1471,-68.848,-36.621,-37.109,-34.180,-43.945,1737547323.878
1472,-60.059,-38.574,-36.133,-51.758,-75.684,1737547323.882
1473,-23.926,-32.715,-40.527,-39.062,-118.164,1737547323.886
1474,-33.691,-27.344,-40.527,-35.645,-155.762,1737547323.889
1475,-70.312,-29.297,-35.156,-55.176,-0.488,1737547323.893
1476,-63.965,-25.879,-31.738,-57.129,65.918,1737547323.898
1477,-40.527,-34.180,-30.762,-21.973,-87.891,1737547323.902
1478,-9.766,-44.434,-38.086,-5.859,-40.527,1737547323.905
1479,-7.324,-44.434,-37.109,-13.184,27.344,1737547323.909
1480,-48.340,-35.645,-31.738,-34.180,-65.918,1737547323.913
1481,-39.551,-28.809,-34.180,-41.504,-2.930,1737547323.917
1482,-40.039,-35.645,-35.645,-23.438,56.152,1737547323.921
1483,-34.668,-36.621,-33.203,-13.672,53.223,1737547323.925
1484,-18.555,-32.715,-32.227,-30.273,8.301,1737547323.928
1485,-44.434,-37.598,-35.156,-44.434,-110.352,1737547323.932
1486,-33.203,-40.039,-39.551,-36.621,-109.375,1737547323.936
1487,-46.387,-36.621,-39.062,-23.926,-11.230,1737547323.940
1488,-57.617,-36.133,-35.156,-28.809,-110.352,1737547323.945
1489,-22.461,-34.668,-28.809,-28.320,-122.070,1737547323.948
1490,-18.555,-31.250,-31.738,-23.438,-75.195,1737547323.952
1491,-30.273,-31.250,-28.320,-31.738,-164.062,1737547323.956
1492,-44.434,-27.344,-24.414,-27.344,-126.465,1737547323.960
1493,-49.316,-30.273,-31.738,-29.297,-114.258,1737547323.964
1494,-23.926,-40.527,-36.621,-28.809,-68.359,1737547323.968
1495,-21.484,-40.039,-35.645,-15.625,-26.855,1737547323.971
1496,-21.484,-31.738,-31.250,-19.531,-106.445,1737547323.975
1497,-31.738,-31.250,-35.645,-25.879,-101.562,1737547323.979
1498,-48.828,-38.574,-42.969,-27.344,-97.656,1737547323.983
1499,-22.949,-40.527,-41.016,-22.461,-101.074,1737547323.987
1500,-23.438,-31.738,-40.527,-28.809,-16.602,1737547323.991
1501,-55.176,-35.645,-39.551,-40.039,-86.914,1737547323.995
1502,-49.805,-37.109,-34.180,-22.461,-131.836,1737547323.999
1503,-28.320,-28.809,-35.156,-18.066,-71.289,1737547324.003
1504,-19.531,-31.250,-37.598,-39.551,-68.848,1737547324.007
1505,-26.367,-37.109,-35.156,-49.316,18.066,1737547324.011
1506,-44.922,-40.039,-34.180,-44.922,-53.711,1737547324.014
1507,-58.594,-39.551,-41.504,-44.434,-67.871,1737547324.018
1508,-34.668,-34.668,-42.969,-33.203,9.766,1737547324.022
1509,-32.227,-37.109,-41.504,-27.832,-55.176,1737547324.026
1510,-57.129,-41.016,-41.504,-36.621,-54.688,1737547324.030
1511,-42.969,-41.504,-41.992,-39.062,-9.766,1737547324.033
1512,-38.574,-39.062,-38.086,-30.762,-2.441,1737547324.038
1513,-54.199,-38.086,-36.133,-22.949,-32.227,1737547324.042
1514,-65.430,-33.203,-38.086,-49.805,-145.508,1737547324.046
1515,-46.875,-35.645,-37.598,-47.852,-193.848,1737547324.050
1516,-15.137,-43.945,-38.574,-26.855,-183.105,1737547324.053
1517,-73.242,-41.016,-31.738,-35.156,-53.711,1737547324.057
1518,-63.965,-39.551,-28.320,-36.133,-7.324,1737547324.061
1519,-13.672,-38.574,-33.203,-27.344,-140.625,1737547324.065
1520,-30.762,-42.480,-36.133,-30.762,-98.145,1737547324.069
1521,-40.527,-44.922,-38.574,-34.668,-27.344,1737547324.073
1522,-50.781,-48.340,-43.945,-31.738,25.391,1737547324.076
1523,-62.988,-44.922,-43.457,-55.664,12.207,1737547324.080
1524,-45.410,-41.992,-41.016,-58.594,46.875,1737547324.085
1525,-31.250,-45.898,-37.598,-24.414,-60.059,1737547324.089
1526,-40.039,-38.086,-29.297,-33.691,-137.695,1737547324.093
1527,-50.293,-34.180,-27.832,-33.691,-40.039,1737547324.096
1528,-52.246,-45.898,-26.367,-23.926,-26.855,1737547324.100
1529,-25.391,-44.434,-30.762,-27.832,-71.777,1737547324.104
1530,-32.715,-40.039,-33.691,-30.762,-95.703,1737547324.108
1531,-41.992,-40.039,-29.785,-38.086,-60.547,1737547324.112
1532,-45.410,-41.992,-33.691,-42.969,-123.535,1737547324.116
1533,-63.965,-45.898,-42.480,-39.551,-267.090,1737547324.119
1534,-37.598,-44.922,-42.969,-39.062,-242.676,1737547324.123
1535,-19.043,-35.645,-38.574,-30.762,-212.402,1737547324.127
1536,-15.625,-32.715,-36.621,-26.367,-207.031,1737547324.132
1537,-42.969,-38.574,-39.062,-35.156,-221.680,1737547324.136
1538,-80.078,-37.109,-39.551,-37.109,-214.844,1737547324.140
1539,-50.293,-36.621,-36.133,-24.414,-150.391,1737547324.143
1540,-24.902,-35.645,-31.250,-20.020,-24.414,1737547324.147
1541,-50.781,-32.227,-33.203,-35.645,-39.062,1737547324.151
1542,-56.641,-31.738,-32.715,-44.434,-103.516,1737547324.155
1543,-50.781,-34.668,-31.738,-42.480,57.129,1737547324.159
1544,-33.203,-37.109,-37.598,-29.785,47.363,1737547324.163
1545,3.418,-39.062,-37.109,-10.254,54.199,1737547324.166
1546,-6.836,-41.992,-33.691,-20.996,98.633,1737547324.170
1547,-39.551,-43.457,-34.180,-46.387,-25.879,1737547324.174
1548,-48.340,-44.434,-39.062,-45.898,-157.227,1737547324.179
1549,-36.621,-43.457,-40.039,-30.273,-211.426,1737547324.182
1550,-41.016,-41.992,-36.133,-37.598,-182.129,1737547324.186
1551,-51.758,-43.457,-34.180,-45.898,-174.316,1737547324.190
1552,-46.387,-48.828,-38.574,-31.738,-203.125,1737547324.194
1553,-64.453,-40.527,-37.109,-26.855,-183.105,1737547324.198
1554,-50.293,-41.016,-34.180,-29.785,-103.516,1737547324.201
1555,-7.812,-48.340,-32.227,-21.973,-72.266,1737547324.205
1556,-15.625,-42.969,-27.344,-24.414,-81.055,1737547324.209
1557,-34.668,-41.504,-22.949,-26.367,-180.664,1737547324.213
1558,-45.898,-40.527,-31.250,-33.203,-237.305,1737547324.217
1559,-51.758,-40.039,-36.621,-35.645,-150.879,1737547324.221
1560,-30.273,-47.852,-33.691,-40.527,-82.031,1737547324.225
1561,-12.207,-46.387,-29.785,-35.645,-71.777,1737547324.229
1562,-16.113,-43.457,-29.297,-13.672,-28.809,1737547324.233
1563,-32.715,-39.062,-30.762,-20.508,130.371,1737547324.237
1564,-42.480,-41.016,-30.273,-25.391,132.324,1737547324.241
1565,-41.504,-38.086,-34.668,-21.484,72.266,1737547324.245
1566,-38.574,-33.691,-38.086,-32.715,127.930,1737547324.248
1567,-36.621,-39.062,-41.504,-39.062,105.469,1737547324.252
1568,-67.383,-44.922,-40.527,-30.273,-11.719,1737547324.256
1569,-71.777,-44.922,-31.738,-41.992,-82.031,1737547324.260
1570,-29.785,-34.668,-39.062,-49.805,-26.367,1737547324.264
1571,-41.016,-37.109,-42.480,-41.992,48.828,1737547324.268
1572,-49.316,-39.062,-38.086,-49.316,10.742,1737547324.272
1573,-44.434,-36.133,-39.551,-50.293,19.043,1737547324.276
1574,-72.754,-37.598,-41.016,-35.156,9.277,1737547324.280
1575,-56.641,-33.203,-48.340,-42.969,21.973,1737547324.284
1576,-18.555,-38.086,-49.316,-70.801,16.113,1737547324.287
1577,-52.246,-36.621,-43.945,-52.246,-21.484,1737547324.291
1578,-62.012,-37.598,-38.574,-35.156,-0.977,1737547324.295
1579,-37.109,-47.363,-37.598,-54.199,-14.648,1737547324.299
1580,-41.016,-40.039,-41.016,-44.434,-70.312,1737547324.303
1581,-37.598,-44.434,-36.621,-32.715,-75.195,1737547324.307
1582,-48.340,-47.363,-35.156,-26.855,-122.559,1737547324.310
1583,-62.988,-41.504,-37.598,-40.527,-141.113,1737547324.314
1584,-42.480,-41.016,-41.992,-58.105,-44.922,1737547324.319
1585,-32.227,-38.574,-43.945,-56.152,-8.789,1737547324.323
1586,-48.828,-41.016,-41.504,-54.688,-18.066,1737547324.327
1587,-47.852,-43.457,-40.527,-47.363,73.242,1737547324.330
1588,-58.105,-38.086,-37.598,-42.480,126.953,1737547324.334
1589,-73.242,-39.551,-41.992,-40.039,-16.602,1737547324.338
1590,-42.969,-48.828,-45.898,-59.570,-86.914,1737547324.342
1591,-66.406,-51.758,-43.945,-61.035,-23.438,1737547324.346
1592,-62.988,-46.387,-46.387,-31.250,-85.938,1737547324.350
1593,-27.344,-44.434,-44.434,-39.551,-106.934,1737547324.353
1594,-45.898,-45.410,-37.598,-44.922,-101.562,1737547324.357
1595,-61.523,-40.527,-33.203,-42.480,-146.484,1737547324.361
1596,-44.922,-35.156,-34.180,-52.734,-139.160,1737547324.366
1597,-41.504,-37.598,-38.574,-57.129,-104.004,1737547324.370
1598,-54.199,-38.086,-35.645,-41.992,-116.211,1737547324.374
1599,-51.270,-36.621,-33.691,-40.527,-60.059,1737547324.378
1600,-62.988,-39.551,-35.156,-55.664,12.695,1737547324.381
1601,-45.898,-31.250,-37.598,-47.852,-59.082,1737547324.385
1602,-15.137,-30.273,-37.109,-28.320,-29.297,1737547324.389
1603,-38.086,-36.621,-32.715,-31.250,-95.215,1737547324.393
1604,-60.059,-46.387,-37.109,-40.527,-273.438,1737547324.397
1605,-47.363,-49.316,-32.715,-38.086,-266.113,1737547324.400
1606,-62.012,-43.945,-27.832,-44.434,-74.707,1737547324.404
1607,-92.285,-42.969,-26.367,-68.359,32.227,1737547324.408
1608,-71.289,-46.875,-31.250,-52.246,-30.273,1737547324.413
1609,-62.012,-50.293,-36.133,-28.320,-59.570,1737547324.417
1610,-72.266,-47.852,-33.203,-37.598,-119.141,1737547324.421
1611,-62.988,-43.457,-26.367,-56.641,-53.223,1737547324.425
1612,-67.383,-35.156,-26.855,-75.195,78.125,1737547324.428
1613,-61.035,-31.738,-34.180,-68.359,50.293,1737547324.432
1614,-69.824,-41.992,-30.273,-71.289,-62.012,1737547324.436
1615,-64.941,-43.945,-28.809,-65.430,30.273,1737547324.440
1616,-49.805,-45.898,-39.551,-48.828,-8.301,1737547324.444
1617,-44.434,-44.922,-36.621,-56.641,-103.027,1737547324.448
1618,-65.918,-37.598,-24.902,-39.062,-122.070,1737547324.451
1619,-75.684,-39.551,-24.414,-41.016,-204.590,1737547324.455
1620,-71.289,-39.551,-29.297,-43.457,-152.344,1737547324.460
1621,-73.242,-44.922,-30.273,-36.621,-215.332,1737547324.464
1622,-62.012,-48.828,-32.227,-46.875,-153.809,1737547324.468
1623,-39.062,-44.434,-31.250,-40.527,-46.387,1737547324.472
1624,-22.949,-43.945,-28.320,-35.156,-41.504,1737547324.476
1625,-45.898,-45.898,-31.738,-40.039,-88.867,1737547324.480
1626,-47.852,-40.527,-36.621,-29.297,-100.098,1737547324.483
1627,-36.133,-38.574,-37.598,-26.855,22.461,1737547324.487
1628,-58.105,-43.457,-38.086,-39.551,81.543,1737547324.491
1629,-84.473,-41.504,-29.297,-38.574,-37.109,1737547324.495
1630,-66.895,-38.574,-27.832,-39.551,-82.031,1737547324.499
1631,-35.156,-38.574,-32.227,-51.758,-17.578,1737547324.503
1632,-31.738,-45.898,-34.180,-41.016,-16.602,1737547324.508
1633,-41.992,-53.223,-40.039,-28.809,0.977,1737547324.511
1634,-41.504,-44.922,-31.738,-28.320,-102.539,1737547324.515
1635,-42.480,-41.504,-21.973,-48.340,-75.195,1737547324.519
1636,-46.387,-39.062,-30.762,-52.246,91.309,1737547324.523
1637,-41.016,-35.645,-36.133,-34.668,75.684,1737547324.527
1638,-54.688,-41.992,-40.039,-43.457,25.391,1737547324.531
1639,-65.430,-45.898,-41.504,-42.480,-55.176,1737547324.534
1640,-60.547,-45.410,-38.574,-33.203,-226.562,1737547324.538
1641,-51.758,-42.969,-43.945,-39.551,-294.922,1737547324.542
1642,-62.988,-42.969,-46.387,-63.477,-272.461,1737547324.546
1643,-54.199,-43.945,-44.434,-41.016,-266.113,1737547324.550
1644,-32.715,-48.340,-41.992,-14.160,-218.262,1737547324.554
1645,-36.133,-49.805,-41.504,-33.203,-155.762,1737547324.558
1646,-65.918,-46.875,-43.457,-44.922,-108.887,1737547324.562
1647,-49.805,-49.316,-43.457,-46.387,-93.750,1737547324.566
1648,-41.016,-44.434,-43.457,-54.688,-70.312,1737547324.570
1649,-66.895,-30.762,-39.062,-63.477,-39.062,1737547324.573
1650,-35.156,-34.180,-32.715,-32.227,-28.320,1737547324.577
1651,-49.805,-43.945,-34.180,-34.180,-5.371,1737547324.581
1652,-50.781,-45.410,-41.992,-53.711,25.879,1737547324.585
1653,-38.086,-42.969,-48.340,-48.828,-140.137,1737547324.589
1654,-33.691,-47.852,-42.969,-37.598,-156.250,1737547324.593
1655,-26.855,-42.969,-39.551,-23.926,11.230,1737547324.596
1656,-45.898,-42.969,-38.574,-43.945,6.836,1737547324.601
1657,-42.969,-45.898,-40.527,-45.410,-0.488,1737547324.605
1658,-41.504,-44.434,-45.898,-29.785,20.996,1737547324.609
1659,-40.527,-38.574,-36.621,-26.855,35.645,1737547324.612
1660,-46.387,-40.039,-29.785,-12.207,-16.602,1737547324.616
1661,-47.852,-42.480,-31.738,-23.926,-9.766,1737547324.620
1662,-58.105,-41.992,-35.156,-33.691,58.594,1737547324.624
1663,-45.410,-45.410,-36.133,-14.648,61.035,1737547324.628
1664,-5.859,-41.504,-26.367,-25.391,22.949,1737547324.632
1665,-30.273,-39.551,-23.926,-41.992,47.363,1737547324.635
1666,-40.039,-39.551,-32.227,-39.062,10.254,1737547324.639
1667,-34.668,-43.457,-33.691,-23.438,-19.043,1737547324.643
1668,-27.344,-44.922,-31.738,-21.484,27.344,1737547324.648
1669,-26.367,-39.062,-34.668,-33.691,-34.180,1737547324.652
1670,-57.617,-36.133,-31.738,-31.250,-105.469,1737547324.655
1671,-50.781,-46.875,-29.297,-41.504,-24.414,1737547324.659
1672,-45.410,-51.270,-29.785,-49.316,-20.996,1737547324.663
1673,-31.250,-38.574,-28.809,-26.367,-123.047,1737547324.667
1674,-30.762,-32.715,-30.273,-24.414,-177.246,1737547324.671
1675,-52.246,-32.227,-30.273,-30.762,-224.121,1737547324.675
1676,-44.434,-40.039,-31.250,-38.086,-213.867,1737547324.678
1677,-33.203,-41.016,-36.621,-30.273,-167.480,1737547324.682
1678,-32.715,-37.598,-36.621,-23.926,-230.957,1737547324.686
1679,-53.711,-37.598,-32.227,-44.922,-204.590,1737547324.690
1680,-49.316,-36.621,-30.273,-30.762,-177.734,1737547324.695
1681,-29.297,-38.086,-34.180,-27.832,-167.969,1737547324.699
1682,-39.062,-41.016,-38.574,-33.203,-57.129,1737547324.703
1683,-22.461,-37.598,-41.992,-16.602,-48.340,1737547324.707
1684,-41.992,-36.621,-41.016,-18.555,-84.473,1737547324.710
1685,-58.105,-40.039,-30.273,-28.809,-62.988,1737547324.714
1686,-42.969,-38.574,-30.273,-31.738,-155.762,1737547324.718
1687,-42.480,-41.016,-32.227,-25.391,-208.496,1737547324.722
1688,-31.250,-40.527,-31.250,-31.250,-143.555,1737547324.726
1689,-34.668,-42.969,-40.527,-28.809,-25.879,1737547324.730
1690,-57.129,-52.734,-41.016,-7.812,-59.082,1737547324.734
1691,-42.969,-44.922,-35.156,-11.230,-183.105,1737547324.737
1692,-27.832,-44.922,-33.203,-37.598,-129.883,1737547324.742
1693,-38.086,-44.434,-31.250,-37.598,-111.816,1737547324.746
1694,-47.852,-41.016,-33.691,-38.086,-128.906,1737547324.750
1695,-44.434,-41.504,-35.156,-47.363,15.625,1737547324.754
1696,-44.922,-35.645,-32.227,-38.086,96.680,1737547324.758
1697,-75.195,-40.039,-32.227,-37.109,83.984,1737547324.761
1698,-50.293,-45.898,-39.551,-45.410,53.711,1737547324.765
1699,-25.879,-42.969,-34.180,-52.246,21.973,1737547324.769
1700,-57.617,-42.969,-33.691,-49.316,2.441,1737547324.773
1701,-55.176,-44.434,-38.574,-38.574,-23.926,1737547324.777
1702,-41.016,-38.574,-40.039,-53.223,-56.641,1737547324.781
1703,-26.855,-29.785,-38.574,-44.922,-38.086,1737547324.784
1704,-44.922,-33.691,-30.762,-35.156,-5.371,1737547324.789
1705,-64.941,-40.527,-32.227,-44.922,64.453,1737547324.793
1706,-48.828,-40.039,-34.180,-32.227,5.859,1737547324.797
1707,-35.645,-36.133,-29.785,-37.598,-43.945,1737547324.801
1708,-33.203,-32.715,-30.273,-39.551,-29.785,1737547324.805
1709,-25.879,-30.273,-33.691,-13.672,-44.922,1737547324.808
1710,-24.902,-31.250,-35.156,-28.320,13.672,1737547324.812
1711,-63.965,-39.551,-34.180,-35.156,-96.680,1737547324.816
1712,-56.152,-46.875,-33.203,-35.156,-232.422,1737547324.820
1713,-17.090,-42.969,-34.668,-43.945,-83.496,1737547324.824
1714,-35.156,-40.527,-29.785,-47.363,4.883,1737547324.828
1715,-27.344,-38.086,-34.668,-57.617,-42.969,1737547324.831
1716,-25.391,-41.992,-41.504,-19.531,17.090,1737547324.836
1717,-36.133,-47.363,-37.598,-27.344,9.766,1737547324.840
1718,-36.621,-44.434,-37.598,-44.922,50.293,1737547324.844
1719,-28.320,-36.621,-38.086,-53.223,31.250,1737547324.847
1720,-54.688,-38.086,-41.992,-69.824,21.973,1737547324.851
1721,-61.523,-41.504,-36.133,-42.969,91.309,1737547324.855
1722,-37.598,-38.574,-33.691,-23.438,20.996,1737547324.859
1723,-44.922,-42.480,-40.527,-22.461,-30.273,1737547324.863
1724,-32.715,-49.805,-41.504,-15.137,-64.453,1737547324.867
1725,-37.109,-48.828,-41.016,-25.879,-110.352,1737547324.870
1726,-56.641,-41.016,-39.062,-38.574,-45.898,1737547324.874
1727,-68.848,-36.621,-37.598,-40.527,-112.305,1737547324.878
1728,-45.410,-38.086,-37.109,-49.316,-213.867,1737547324.883
1729,-18.555,-40.527,-36.133,-41.504,-112.305,1737547324.886
1730,-11.230,-40.039,-36.621,-35.156,-123.535,1737547324.890
1731,-36.133,-41.992,-37.109,-40.039,-91.309,1737547324.894
1732,-63.477,-45.410,-32.715,-35.156,-70.801,1737547324.898
1733,-38.574,-46.387,-35.156,-33.691,-90.820,1737547324.902
1734,-33.203,-42.969,-41.992,-39.062,-111.328,1737547324.906
1735,-49.805,-41.016,-30.273,-27.832,-226.562,1737547324.909
1736,-54.688,-46.875,-30.273,-47.852,-137.695,1737547324.913
1737,-47.852,-45.410,-31.250,-40.527,19.531,1737547324.917
1738,-47.363,-39.062,-32.715,-11.719,-44.922,1737547324.921
1739,-53.223,-38.574,-40.527,-39.062,-87.891,1737547324.925
1740,-34.668,-41.016,-33.203,-35.156,35.645,1737547324.930
1741,-46.387,-42.480,-32.227,-40.039,-32.227,1737547324.933
1742,-64.941,-40.527,-38.574,-34.668,-105.469,1737547324.937
1743,-14.160,-41.992,-39.062,-19.043,56.641,1737547324.941
1744,-35.156,-44.922,-34.180,-42.969,102.051,1737547324.945
1745,-67.383,-42.969,-34.668,-42.480,-11.230,1737547324.949
1746,-28.320,-40.039,-35.645,-24.902,-11.719,1737547324.953
1747,-26.855,-35.156,-35.156,-33.203,-34.180,1737547324.956
1748,-55.176,-41.016,-36.133,-70.801,-31.738,1737547324.960
1749,-51.758,-49.805,-32.715,-64.453,23.438,1737547324.964
1750,-31.250,-47.363,-36.621,-23.438,51.270,1737547324.968
1751,-35.645,-42.969,-33.691,-13.672,45.410,1737547324.972
1752,-38.574,-41.992,-25.879,-43.945,-15.137,1737547324.976
1753,-44.922,-46.875,-33.203,-59.082,-5.371,1737547324.980
1754,-38.574,-45.898,-37.598,-28.809,66.406,1737547324.984
1755,-25.879,-38.086,-35.645,-34.180,97.656,1737547324.988
1756,-37.598,-36.133,-37.109,-47.363,18.555,1737547324.992
1757,-67.871,-33.691,-35.645,-42.969,-10.742,1737547324.995
1758,-55.176,-37.109,-41.016,-37.598,78.125,1737547324.999
1759,-32.227,-46.387,-45.898,-21.973,25.879,1737547325.003
1760,-41.504,-49.805,-43.457,-29.785,-41.992,1737547325.007
1761,-39.062,-43.457,-33.203,-42.969,-42.969,1737547325.011
1762,-40.527,-40.527,-33.203,-27.832,-131.836,1737547325.015
1763,-71.289,-38.574,-38.574,-32.715,-189.941,1737547325.018
1764,-67.871,-36.133,-36.621,-35.645,-193.359,1737547325.023
1765,-24.414,-38.574,-31.738,-34.668,-214.844,1737547325.027
1766,-29.297,-35.645,-27.344,-31.738,-162.109,1737547325.031
1767,-42.969,-30.273,-30.762,-23.438,-67.383,1737547325.035
1768,-43.945,-35.645,-38.086,-20.508,-43.457,1737547325.039
1769,-49.805,-41.016,-42.480,-25.391,27.832,1737547325.043
1770,-33.203,-40.039,-41.016,-26.367,10.254,1737547325.046
1771,-19.531,-39.062,-36.133,-21.484,10.254,1737547325.050
1772,-34.668,-37.598,-33.203,-24.414,-24.414,1737547325.054
1773,-58.105,-35.645,-28.320,-68.848,-41.992,1737547325.058
1774,-34.180,-38.086,-36.621,-82.031,-70.312,1737547325.062
1775,-10.254,-39.062,-45.898,-18.066,-123.535,1737547325.066
1776,-26.855,-38.574,-42.480,-10.254,-66.406,1737547325.070
1777,-46.387,-46.875,-42.480,-19.531,-162.109,1737547325.074
1778,-65.430,-42.480,-44.434,-33.691,-116.699,1737547325.078
1779,-62.500,-36.133,-43.945,-43.457,-41.016,1737547325.082
1780,-58.594,-46.387,-34.668,-43.945,-129.395,1737547325.086
1781,-43.945,-43.945,-35.645,-44.922,-80.078,1737547325.089
1782,-53.223,-41.016,-40.039,-36.621,69.824,1737547325.093
1783,-62.500,-44.922,-32.227,-40.039,-18.066,1737547325.097
1784,-37.598,-44.922,-30.273,-35.156,-116.699,1737547325.101
1785,-50.293,-45.898,-42.969,-26.367,-48.340,1737547325.105
1786,-40.039,-45.898,-42.480,-34.668,25.879,1737547325.109
1787,-46.387,-42.969,-36.133,-41.016,-8.789,1737547325.112
1788,-55.664,-38.574,-47.363,-39.062,-55.176,1737547325.117
1789,-64.941,-40.039,-51.758,-54.688,-100.586,1737547325.121
1790,-49.805,-41.504,-56.152,-68.848,-167.969,1737547325.125
1791,-41.992,-43.945,-53.711,-76.172,-68.359,1737547325.129
1792,-64.941,-39.062,-49.805,-83.008,-44.434,1737547325.133
1793,-98.633,-25.391,-50.293,-86.914,-91.797,1737547325.136
1794,-96.191,-27.344,-54.199,-109.375,3.906,1737547325.140
1795,-54.199,-34.180,-60.059,-87.891,41.992,1737547325.144
1796,-56.641,-32.227,-64.453,-77.148,-47.363,1737547325.148
1797,-78.125,-32.227,-65.918,-90.332,-68.359,1737547325.152
1798,-85.449,-28.320,-59.082,-88.379,-17.090,1737547325.156
1799,-73.730,-21.973,-52.734,-90.332,-62.012,1737547325.159
1800,-66.895,-24.414,-58.594,-80.078,-93.750,1737547325.164
1801,-54.688,-30.762,-57.617,-73.730,-66.895,1737547325.168
1802,-61.523,-32.715,-52.734,-74.707,26.855,1737547325.172
1803,-66.406,-30.273,-46.387,-60.059,-63.477,1737547325.176
1804,-61.523,-28.320,-41.504,-55.664,-129.883,1737547325.180
1805,-80.078,-30.273,-45.410,-67.871,3.906,1737547325.183
1806,-45.898,-28.809,-48.828,-64.453,75.195,1737547325.187
1807,-56.641,-27.344,-42.969,-60.547,-36.621,1737547325.191
1808,-63.965,-25.391,-40.527,-76.172,-106.934,1737547325.195
1809,-42.969,-26.855,-47.852,-67.871,-36.133,1737547325.199
1810,-46.387,-31.738,-41.016,-37.109,-59.570,1737547325.203
1811,-50.293,-29.785,-38.574,-45.410,-58.105,1737547325.206
1812,-64.453,-32.227,-47.363,-63.477,-191.895,1737547325.211
1813,-54.688,-38.574,-46.875,-48.828,-254.395,1737547325.215
1814,-59.570,-36.133,-40.527,-45.410,-196.289,1737547325.219
1815,-48.828,-33.691,-40.039,-50.781,-203.125,1737547325.223
1816,-39.551,-35.645,-43.945,-66.406,-137.207,1737547325.227
1817,-39.062,-33.203,-46.875,-63.477,-181.152,1737547325.230
1818,-46.875,-34.180,-46.387,-46.875,-188.477,1737547325.234
1819,-64.453,-41.504,-46.387,-56.152,-130.371,1737547325.238
1820,-82.520,-44.434,-46.387,-51.758,-153.809,1737547325.242
1821,-46.875,-41.992,-54.688,-56.641,-235.352,1737547325.246
1822,-21.484,-39.062,-55.176,-38.574,-204.102,1737547325.250
1823,-45.410,-46.875,-42.480,-27.832,-125.977,1737547325.253
1824,-50.293,-47.363,-40.527,-34.180,-134.766,1737547325.258
1825,-62.012,-39.551,-46.387,-38.086,-96.680,1737547325.262
1826,-64.941,-39.551,-42.969,-50.293,-103.516,1737547325.266
1827,-62.500,-38.574,-41.992,-61.523,-74.219,1737547325.270
1828,-73.730,-32.715,-43.457,-50.781,-120.605,1737547325.274
1829,-60.547,-32.227,-43.945,-48.828,-118.164,1737547325.277
1830,-38.574,-30.762,-44.434,-45.898,3.418,1737547325.281
1831,-45.410,-33.691,-45.898,-45.898,-65.918,1737547325.285
1832,-50.781,-40.039,-46.875,-43.945,-191.895,1737547325.289
1833,-54.688,-35.156,-42.480,-37.598,-194.336,1737547325.293
1834,-47.363,-32.715,-34.668,-41.504,-161.133,1737547325.297
1835,-54.688,-37.598,-31.250,-52.734,-238.281,1737547325.300
1836,-65.918,-34.668,-36.133,-53.223,-246.582,1737547325.305
1837,-47.363,-32.715,-40.039,-25.879,-140.625,1737547325.309
1838,-33.203,-31.250,-38.574,-29.785,-12.207,1737547325.313
1839,-29.785,-36.621,-36.621,-41.504,4.883,1737547325.316
1840,-43.457,-42.480,-39.551,-34.668,47.852,1737547325.320
1841,-41.504,-38.086,-38.086,-54.199,152.344,1737547325.324
1842,-31.738,-37.109,-35.645,-55.176,158.691,1737547325.328
1843,-46.875,-41.504,-36.621,-32.227,137.207,1737547325.332
1844,-54.688,-45.410,-30.762,-35.645,114.746,1737547325.336
1845,-40.039,-43.945,-35.645,-36.133,126.465,1737547325.339
1846,-35.156,-45.898,-41.992,-33.691,81.055,1737547325.343
1847,-57.129,-46.387,-35.645,-39.062,2.441,1737547325.347
1848,-62.500,-45.898,-30.273,-41.504,35.156,1737547325.352
1849,-56.641,-43.457,-32.227,-37.598,72.754,1737547325.356
1850,-44.922,-40.039,-38.086,-33.203,8.301,1737547325.359
1851,-42.969,-38.086,-41.016,-40.527,-68.848,1737547325.363
1852,-63.965,-33.691,-38.574,-47.852,-77.148,1737547325.367
1853,-63.965,-32.227,-38.086,-33.203,-61.035,1737547325.371
1854,-41.504,-32.715,-42.480,-40.039,-78.613,1737547325.375
1855,-34.668,-35.156,-37.598,-59.082,-109.375,1737547325.379
1856,-37.109,-40.039,-34.668,-35.156,-79.590,1737547325.383
1857,-36.133,-42.480,-36.133,-22.949,7.812,1737547325.386
1858,-32.715,-40.527,-32.227,-32.227,95.703,1737547325.390
1859,-42.480,-39.551,-26.367,-40.527,8.301,1737547325.394
1860,-51.270,-37.598,-29.785,-31.250,-69.336,1737547325.398
1861,-35.645,-41.504,-31.250,-28.320,-112.793,1737547325.402
1862,-29.297,-38.574,-26.855,-35.645,-133.789,1737547325.406
1863,-38.574,-35.645,-26.855,-23.438,-148.438,1737547325.410
1864,-28.320,-41.016,-25.879,-31.250,-116.699,1737547325.414
1865,-33.691,-35.645,-23.926,-27.344,-20.996,1737547325.418
1866,-39.551,-41.992,-31.250,-10.254,-65.430,1737547325.421
1867,-38.086,-53.223,-42.969,-22.461,-96.191,1737547325.425
1868,-32.715,-46.387,-32.227,-32.227,-120.117,1737547325.429
1869,-29.785,-36.133,-25.391,-39.551,-189.941,1737547325.433
1870,-33.691,-32.715,-35.645,-37.598,-199.219,1737547325.437
1871,-30.762,-38.574,-37.109,-28.320,-166.016,1737547325.441
1872,-33.691,-37.598,-37.109,-32.715,-174.805,1737547325.445
1873,-66.895,-29.297,-40.039,-41.016,-196.289,1737547325.449
1874,-38.086,-40.527,-32.715,-41.992,-139.648,1737547325.453
1875,-11.719,-47.852,-29.785,-35.645,-36.133,1737547325.457
1876,-35.156,-43.457,-36.133,-28.809,-133.301,1737547325.461
1877,-41.016,-34.180,-37.109,-24.414,-45.898,1737547325.464
1878,-35.156,-25.879,-33.203,-32.227,117.676,1737547325.468
1879,-22.461,-29.297,-32.227,-33.203,22.949,1737547325.472
1880,-44.922,-25.391,-37.598,-33.203,-24.414,1737547325.476
1881,-53.711,-25.391,-41.016,-21.973,-27.344,1737547325.480
1882,-47.852,-37.598,-34.668,-31.738,119.629,1737547325.484
1883,-39.551,-34.668,-34.180,-42.969,109.863,1737547325.488
1884,-37.598,-31.250,-34.668,-37.109,18.066,1737547325.492
1885,-55.664,-36.621,-32.227,-38.574,47.363,1737547325.496
1886,-41.504,-31.738,-28.320,-31.250,-69.336,1737547325.500
1887,-61.035,-34.180,-27.344,-28.809,-58.105,1737547325.504
1888,-58.594,-39.062,-31.250,-41.016,-34.668,1737547325.507
1889,-12.207,-34.180,-34.668,-22.461,-35.645,1737547325.511
1890,-23.438,-38.086,-38.086,-16.113,18.066,1737547325.515
1891,-32.715,-41.016,-35.156,-22.949,43.945,1737547325.519
1892,-43.945,-40.039,-35.645,-19.531,11.230,1737547325.523
1893,-43.945,-41.504,-33.203,-24.902,2.441,1737547325.527
1894,-27.344,-42.969,-32.715,-24.902,-73.242,1737547325.531
1895,-40.527,-47.363,-33.691,-38.574,-149.414,1737547325.534
1896,-56.641,-45.898,-35.156,-36.133,-85.449,1737547325.539
1897,-42.480,-40.039,-37.109,-44.434,-49.805,1737547325.543
1898,-24.902,-41.504,-39.551,-42.480,-96.191,1737547325.547
1899,-40.527,-38.574,-38.574,-28.320,-39.551,1737547325.550
1900,-41.504,-32.715,-30.762,-26.367,-52.734,1737547325.554
1901,-24.902,-28.809,-25.391,-23.438,-80.566,1737547325.558
1902,-47.852,-31.738,-32.227,-38.574,-1.465,1737547325.562
1903,-85.449,-36.621,-40.527,-42.480,41.016,1737547325.566
1904,-58.105,-39.551,-41.016,-42.969,53.223,1737547325.570
1905,-10.742,-50.293,-41.016,-36.133,-97.168,1737547325.573
1906,-24.902,-46.875,-42.969,-20.508,-87.891,1737547325.577
1907,-39.062,-39.551,-42.480,-26.855,78.613,1737547325.581
1908,-41.016,-38.574,-37.109,-40.527,-68.359,1737547325.586
1909,-37.109,-38.574,-41.016,-43.457,-120.117,1737547325.589
1910,-35.645,-39.551,-41.016,-32.227,-110.840,1737547325.593
1911,-40.527,-40.527,-35.645,-31.738,-130.371,1737547325.597
1912,-41.992,-41.016,-42.969,-44.434,-77.148,1737547325.601
1913,-34.180,-35.645,-40.527,-39.062,-113.770,1737547325.605
1914,-44.922,-38.086,-37.598,-38.574,-116.211,1737547325.609
1915,-54.688,-47.852,-36.621,-39.551,-124.512,1737547325.613
1916,-58.594,-51.758,-35.156,-29.297,-177.246,1737547325.616
1917,-70.801,-43.457,-39.062,-29.785,-162.598,1737547325.620
1918,-60.059,-41.992,-33.691,-40.527,-115.234,1737547325.624
1919,-24.414,-50.293,-30.762,-41.504,-127.930,1737547325.628
1920,-31.250,-44.922,-36.133,-39.062,-167.969,1737547325.633
1921,-55.176,-35.156,-39.062,-42.969,-286.621,1737547325.636
1922,-41.992,-40.527,-39.062,-51.270,-289.062,1737547325.640
1923,-34.668,-41.992,-37.109,-50.293,-47.852,1737547325.644
1924,-37.598,-38.086,-40.039,-48.828,23.438,1737547325.648
1925,-63.965,-46.387,-39.551,-52.246,-20.508,1737547325.652
1926,-79.102,-41.992,-33.691,-51.758,-10.254,1737547325.656
1927,-55.176,-39.551,-41.992,-40.527,-11.230,1737547325.660
1928,-36.621,-48.828,-44.434,-39.062,34.668,1737547325.663
1929,-60.059,-41.016,-41.504,-44.434,-55.664,1737547325.667
1930,-75.684,-37.598,-41.504,-40.527,-86.914,1737547325.671
1931,-55.664,-47.852,-42.969,-41.016,-21.484,1737547325.675
1932,-65.430,-47.363,-37.598,-48.340,15.137,1737547325.679
1933,-59.082,-40.039,-37.598,-44.922,72.266,1737547325.683
1934,-24.902,-38.086,-43.457,-29.785,116.211,1737547325.687
1935,-38.574,-40.527,-40.527,-31.250,84.473,1737547325.691
1936,-50.293,-39.551,-36.621,-31.250,-8.301,1737547325.695
1937,-51.270,-34.180,-34.668,-33.691,-48.828,1737547325.699
1938,-73.242,-36.621,-38.574,-44.922,49.805,1737547325.702
1939,-57.617,-45.898,-43.945,-49.316,-18.066,1737547325.706
1940,-16.602,-46.875,-39.551,-57.617,-50.293,1737547325.710
1941,-41.016,-38.086,-38.086,-53.223,24.414,1737547325.714
1942,-60.059,-29.785,-37.109,-42.969,-44.434,1737547325.718
1943,-50.293,-33.691,-35.645,-39.062,-125.488,1737547325.722
1944,-47.363,-42.480,-30.762,-38.086,-79.590,1737547325.726
1945,-52.246,-40.527,-27.832,-32.227,-5.371,1737547325.730
1946,-60.059,-37.598,-34.668,-38.574,-7.812,1737547325.734
1947,-64.453,-35.156,-34.180,-42.969,-26.855,1737547325.738
1948,-45.410,-40.527,-36.133,-36.621,-105.469,1737547325.742
1949,-26.367,-38.086,-34.180,-36.133,-54.199,1737547325.746
1950,-49.316,-32.227,-29.785,-42.969,-64.941,1737547325.750
1951,-60.547,-27.344,-26.367,-43.945,-150.879,1737547325.753
1952,-36.133,-29.297,-26.367,-34.180,-86.914,1737547325.757
1953,-56.641,-41.504,-35.645,-34.180,-69.824,1737547325.761
1954,-34.180,-41.992,-38.086,-21.973,-106.445,1737547325.765
1955,-10.742,-36.621,-33.203,-19.531,-153.320,1737547325.769
1956,-44.922,-32.715,-29.785,-33.691,-141.602,1737547325.773
1957,-35.645,-35.156,-25.879,-39.062,-140.137,1737547325.777
1958,-29.785,-38.086,-29.785,-36.621,-65.918,1737547325.781
1959,-23.926,-33.203,-33.691,-41.504,22.949,1737547325.785
1960,-8.789,-27.344,-36.621,-25.879,-6.836,1737547325.789
1961,-24.414,-27.832,-31.250,-24.902,-104.004,1737547325.793
1962,-56.641,-35.156,-24.902,-26.367,-137.695,1737547325.796
1963,-51.758,-43.945,-29.297,-34.180,-94.238,1737547325.800
1964,-41.504,-40.527,-33.203,-32.227,-17.090,1737547325.804
1965,-31.250,-33.203,-33.203,-23.926,22.949,1737547325.808
1966,-39.062,-36.133,-25.879,-27.832,-69.336,1737547325.812
1967,-47.852,-36.621,-28.320,-44.434,-89.355,1737547325.816
1968,-55.176,-35.645,-31.738,-40.039,-26.855,1737547325.820
1969,-62.500,-34.180,-31.250,-17.090,7.324,1737547325.824
1970,-13.672,-34.668,-35.645,-28.809,-72.754,1737547325.828
1971,10.254,-43.945,-39.062,-45.898,-86.426,1737547325.832
1972,-25.879,-43.457,-40.039,-36.133,-22.461,1737547325.836
1973,-33.691,-49.316,-34.668,-25.879,-6.836,1737547325.840
1974,-24.902,-54.688,-33.691,-29.785,-29.297,1737547325.843
1975,-28.320,-52.734,-35.156,-28.809,-107.422,1737547325.847
1976,-35.156,-45.410,-37.109,-37.598,-156.738,1737547325.851
1977,-47.363,-41.992,-38.574,-44.922,-217.285,1737547325.855
1978,-60.547,-44.434,-38.086,-29.785,-294.922,1737547325.859
1979,-56.152,-44.922,-35.156,-37.598,-303.711,1737547325.863
1980,-42.969,-38.574,-29.785,-54.688,-308.105,1737547325.867
1981,-32.227,-36.133,-32.227,-45.898,-307.129,1737547325.871
1982,-55.176,-45.898,-29.785,-34.180,-234.375,1737547325.875
1983,-64.453,-43.457,-33.203,-15.137,-267.090,1737547325.879
1984,-33.203,-35.645,-36.133,-30.762,-271.973,1737547325.883
1985,-13.672,-44.922,-32.227,-38.574,-161.133,1737547325.886
1986,-32.715,-46.875,-34.180,-36.133,-139.160,1737547325.890
1987,-45.898,-44.434,-35.156,-32.715,-67.871,1737547325.894
1988,-46.875,-45.898,-32.715,-35.645,-103.516,1737547325.898
1989,-53.223,-47.852,-35.156,-33.203,-176.270,1737547325.902
1990,-90.820,-50.781,-32.715,-42.480,-135.742,1737547325.906
1991,-76.660,-46.387,-32.227,-60.547,-95.703,1737547325.910
1992,-13.672,-41.504,-29.297,-44.922,-56.152,1737547325.914
1993,-20.996,-36.133,-30.273,-41.016,-42.480,1737547325.918
1994,-45.410,-37.598,-39.062,-46.875,1.465,1737547325.922
1995,-35.156,-43.945,-34.668,-34.180,-0.977,1737547325.926
1996,-20.020,-39.551,-28.320,-8.301,-23.926,1737547325.930
1997,-24.414,-35.645,-29.785,-23.926,73.242,1737547325.934
1998,-34.180,-37.109,-34.668,-35.645,120.605,1737547325.938
1999,-41.992,-40.039,-35.156,-30.273,96.680,1737547325.941
2000,-31.250,-44.434,-39.551,-31.738,32.715,1737547325.945
2001,-24.902,-45.410,-41.016,-35.645,-44.434,1737547325.949
2002,-25.391,-40.039,-33.691,-30.762,20.508,1737547325.953
2003,-58.105,-39.062,-28.809,-31.738,41.992,1737547325.957
2004,-74.707,-46.387,-30.273,-36.621,95.703,1737547325.962
2005,-33.203,-50.781,-34.668,-35.645,148.438,1737547325.965
2006,-40.527,-50.293,-40.527,-38.574,83.496,1737547325.969
2007,-62.500,-43.945,-37.109,-47.363,-22.461,1737547325.973
2008,-50.781,-38.574,-34.668,-49.316,-10.742,1737547325.977
2009,-26.367,-40.527,-35.645,-37.598,-1.465,1737547325.981
2010,-35.156,-40.039,-35.645,-26.367,-7.812,1737547325.985
2011,-48.340,-35.156,-38.574,-26.855,107.910,1737547325.989
2012,-30.273,-35.645,-31.738,-41.992,106.934,1737547325.992
2013,-30.762,-36.621,-31.738,-22.949,38.086,1737547325.996
2014,-29.785,-37.109,-39.062,-9.766,29.785,1737547326.000
2015,-27.832,-39.551,-34.180,-42.969,46.387,1737547326.004
2016,-18.066,-39.551,-31.738,-60.547,31.738,1737547326.008
2017,-17.090,-37.598,-33.203,-38.574,-53.223,1737547326.012
2018,-44.922,-38.086,-33.691,-31.250,-125.488,1737547326.016
2019,-55.176,-41.016,-39.062,-31.738,-128.418,1737547326.020
2020,-58.105,-41.016,-40.527,-41.992,-75.684,1737547326.024
2021,-39.551,-28.809,-34.668,-44.434,-25.879,1737547326.028
2022,-33.691,-28.320,-25.391,-31.250,-12.695,1737547326.031
2023,-47.852,-28.809,-24.414,-32.227,49.805,1737547326.035
