,TP9,AF7,AF8,TP10,Right AUX,timestamps
0,-0.488,0.000,0.000,-0.488,0.000,1737549843.474
1,-0.488,0.000,-0.488,-1.465,0.000,1737549843.478
2,2.930,0.000,-0.977,25.391,0.000,1737549843.482
3,-7.812,-0.488,1.465,-57.129,0.000,1737549843.486
4,25.391,-0.488,-13.184,222.168,0.000,1737549843.490
5,72.266,-2.441,-31.250,726.074,0.000,1737549843.494
6,-38.086,-27.344,-36.621,-71.289,0.000,1737549843.498
7,-103.516,-46.387,-44.922,-1000.000,0.000,1737549843.501
8,-34.180,-20.996,-33.203,-780.273,0.000,1737549843.505
9,15.625,2.930,-11.230,166.504,0.000,1737549843.509
10,54.199,10.254,0.488,788.086,0.000,1737549843.513
11,13.672,4.883,-3.906,119.141,0.000,1737549843.517
12,-81.543,-17.578,-16.602,-960.449,0.000,1737549843.520
13,-82.031,-34.180,-26.855,-747.559,0.000,1737549843.524
14,2.441,-27.832,-35.156,317.871,0.000,1737549843.528
15,48.340,-18.555,-26.367,999.512,0.000,1737549843.531
16,-5.371,-20.020,-10.742,507.812,0.000,1737549843.535
17,-83.984,-17.578,-3.906,-741.211,0.000,1737549843.539
18,-67.871,-26.367,-16.113,-816.406,0.000,1737549843.543
19,-21.973,-29.297,-34.180,207.520,0.000,1737549843.547
20,12.695,-14.648,-31.738,802.734,0.000,1737549843.550
21,15.137,-5.371,-25.391,232.422,0.000,1737549843.554
22,-78.125,-17.090,-16.602,-815.430,0.000,1737549843.558
23,-103.027,-34.180,-6.348,-876.953,0.000,1737549843.562
24,-5.859,-28.809,-18.555,72.266,0.000,1737549843.563
25,37.109,-15.625,-20.020,783.691,0.000,1737549843.566
26,26.367,-15.625,-7.324,543.945,0.000,1737549843.570
27,-59.082,-33.691,0.977,-471.680,0.000,1737549843.574
28,-124.023,-36.133,-7.812,-1000.000,0.000,1737549843.577
29,-50.781,-3.418,-31.250,-329.102,0.000,1737549843.581
30,23.438,2.930,-36.621,596.191,0.000,1737549843.585
31,13.672,-16.113,-11.230,485.352,0.000,1737549843.588
32,-68.848,-29.297,9.277,-574.707,0.000,1737549843.592
33,-78.613,-24.902,3.906,-1000.000,0.000,1737549843.596
34,-31.250,-20.508,-15.625,-555.176,0.000,1737549843.600
35,39.551,-11.719,-15.625,342.285,0.000,1737549843.603
36,41.504,-11.230,-7.812,421.387,0.000,1737549843.604
37,-47.363,-9.277,-9.277,-501.953,0.000,1737549843.608
38,-109.375,-1.953,-15.625,-1000.000,0.000,1737549843.611
39,-49.316,-13.184,-21.973,-453.125,0.000,1737549843.615
40,37.109,-24.902,-35.645,618.164,0.000,1737549843.619
41,49.316,-25.391,-30.273,991.211,0.000,1737549843.622
42,7.324,-30.273,-11.230,183.594,0.000,1737549843.626
43,-81.543,-27.832,-2.441,-931.152,0.000,1737549843.630
44,-75.195,-8.301,3.906,-484.375,0.000,1737549843.633
45,19.531,0.977,0.977,687.988,0.000,1737549843.637
46,56.641,-2.930,-10.254,978.027,0.000,1737549843.640
47,3.906,-1.465,-16.602,100.586,0.000,1737549843.644
48,-67.383,-20.508,-22.461,-988.770,0.000,1737549843.643
49,-34.668,-31.250,-22.461,-682.129,0.000,1737549843.647
50,28.320,-35.156,-16.113,428.223,0.000,1737549843.650
51,43.457,-29.785,-20.020,772.461,0.000,1737549843.654
52,1.465,-8.789,-25.879,-136.230,0.000,1737549843.657
53,-88.379,-13.184,-22.461,-1000.000,0.000,1737549843.661
54,-125.488,-11.230,-13.672,-828.613,0.000,1737549843.664
55,-26.367,-10.254,-11.719,-10.742,0.000,1737549843.668
56,37.109,-10.742,-2.930,541.992,0.000,1737549843.671
57,-20.020,-26.855,-9.277,-166.992,0.000,1737549843.675
58,-88.867,-41.504,-33.203,-1000.000,0.000,1737549843.679
59,-72.754,-20.996,-31.738,-918.945,0.000,1737549843.682
60,-6.836,-6.348,-20.020,-290.039,0.000,1737549843.684
61,38.574,3.906,-14.648,310.059,0.000,1737549843.688
62,18.066,-9.277,-9.766,-85.449,0.000,1737549843.691
63,-66.406,-28.320,-23.438,-905.273,0.000,1737549843.695
64,-77.637,-14.648,-32.227,-958.496,0.000,1737549843.698
65,-6.836,-14.648,-21.973,-117.676,0.000,1737549843.702
66,60.059,-31.738,-15.137,772.461,0.000,1737549843.705
67,-0.488,-39.551,-23.438,335.449,0.000,1737549843.709
68,-75.195,-26.855,-26.367,-754.883,0.000,1737549843.712
69,-90.332,-16.602,-15.625,-1000.000,0.000,1737549843.716
70,-49.805,-22.461,-20.020,-291.504,0.000,1737549843.719
71,40.527,-21.484,-23.926,719.238,0.000,1737549843.723
72,29.785,-12.207,-21.973,692.871,0.000,1737549843.725
73,-69.336,-14.648,-21.484,-467.773,0.000,1737549843.729
74,-116.699,-19.043,-19.043,-1000.000,0.000,1737549843.732
75,-55.176,-27.832,-20.996,-221.680,0.000,1737549843.736
76,25.391,-28.809,-28.809,757.812,0.000,1737549843.739
77,32.715,-26.855,-18.555,846.191,0.000,1737549843.743
78,-40.039,-33.691,-16.602,-229.004,0.000,1737549843.746
79,-59.082,-15.625,-18.066,-1000.000,0.000,1737549843.749
80,-44.922,-4.395,-14.648,-357.910,0.000,1737549843.753
81,20.996,-8.301,-15.137,733.398,0.000,1737549843.756
82,72.754,-16.113,-16.113,829.590,0.000,1737549843.760
83,-50.293,-20.996,-13.184,-280.273,0.000,1737549843.763
84,-138.184,-14.648,-7.324,-1000.000,0.000,1737549843.767
85,-58.105,-21.484,-13.184,-630.859,0.000,1737549843.770
86,21.484,-23.926,-18.066,317.383,0.000,1737549843.774
87,24.414,-28.809,-24.902,624.023,0.000,1737549843.777
88,-37.598,-29.785,-26.367,-223.633,0.000,1737549843.781
89,-95.215,-18.066,-24.902,-1000.000,0.000,1737549843.784
90,-48.340,-20.996,-20.508,-473.145,0.000,1737549843.788
91,46.387,-21.484,-12.207,621.094,0.000,1737549843.791
92,61.523,-26.367,-5.371,999.512,0.000,1737549843.794
93,-32.227,-34.180,-10.742,381.348,0.000,1737549843.798
94,-120.605,-30.762,-10.742,-758.789,0.000,1737549843.801
95,-64.453,-23.926,-9.277,-414.551,0.000,1737549843.805
96,35.645,-16.113,-12.695,677.246,0.000,1737549843.809
97,46.387,-11.719,-25.879,999.512,0.000,1737549843.812
98,-17.578,-15.137,-31.738,532.227,0.000,1737549843.816
99,-120.605,-21.484,-13.184,-708.496,0.000,1737549843.819
100,-98.145,-20.996,-22.461,-755.859,0.000,1737549843.823
101,29.297,-6.348,-29.297,398.926,0.000,1737549843.826
102,53.223,-13.672,-4.395,999.512,0.000,1737549843.830
103,-1.465,-19.043,0.977,613.770,0.000,1737549843.833
104,-81.055,-12.207,-3.906,-628.418,0.000,1737549843.837
105,-92.285,-28.320,-13.672,-779.297,0.000,1737549843.840
106,-15.137,-41.016,-9.277,365.723,0.000,1737549843.844
107,44.922,-28.809,-6.348,999.512,0.000,1737549843.847
108,-2.930,-14.648,-14.160,646.484,0.000,1737549843.851
109,-77.637,-6.836,-17.090,-576.660,0.000,1737549843.855
110,-55.664,-13.184,-13.672,-829.102,0.000,1737549843.858
111,10.254,-13.184,-5.859,260.742,0.000,1737549843.862
112,35.645,-0.488,-22.949,975.586,0.000,1737549843.865
113,22.461,0.000,-24.414,814.941,0.000,1737549843.869
114,-20.020,-21.484,-5.371,-267.578,0.000,1737549843.872
115,-69.336,-34.668,-9.766,-957.031,0.000,1737549843.876
116,-24.414,-27.832,-17.578,-8.301,0.000,1737549843.879
117,43.945,-19.531,-18.555,974.121,0.000,1737549843.883
118,11.230,-4.883,-20.996,802.246,0.000,1737549843.886
119,-35.156,-4.883,-25.391,-390.137,0.000,1737549843.890
120,-81.055,-19.531,-16.113,-979.492,0.000,1737549843.894
121,-67.383,-21.484,-17.578,-54.199,0.000,1737549843.898
122,44.922,-20.020,-20.020,834.473,0.000,1737549843.901
123,88.379,-26.855,-22.949,935.059,0.000,1737549843.905
124,-23.438,-40.039,-30.273,-39.062,0.000,1737549843.908
125,-111.328,-31.250,-27.344,-840.332,0.000,1737549843.912
126,-58.594,-11.230,-14.160,-18.066,0.000,1737549843.915
127,20.020,-18.555,-4.883,847.168,0.000,1737549843.919
128,59.570,-20.508,-13.672,999.512,0.000,1737549843.922
129,0.977,-11.230,-17.578,285.156,0.000,1737549843.926
130,-65.430,-18.066,-23.926,-681.152,0.000,1737549843.929
131,-60.059,-24.414,-20.508,-110.352,0.000,1737549843.933
132,-7.324,-10.742,-5.859,830.566,0.000,1737549843.937
133,11.719,-16.602,-13.184,999.512,0.000,1737549843.941
134,-63.965,-28.809,-20.996,395.020,0.000,1737549843.944
135,-99.121,-21.973,-23.438,-613.281,0.000,1737549843.948
136,-46.875,-16.602,-23.438,-108.887,0.000,1737549843.951
137,36.621,-0.488,-17.090,863.281,0.000,1737549843.955
138,77.637,-12.207,-23.926,999.512,0.000,1737549843.958
139,16.602,-45.410,-41.504,634.766,0.000,1737549843.962
140,-79.590,-39.551,-23.926,-338.867,0.000,1737549843.965
141,-84.473,-16.113,-3.418,25.391,0.000,1737549843.969
142,-12.207,-12.207,-10.254,938.477,0.000,1737549843.972
143,52.734,-10.742,-7.812,998.535,0.000,1737549843.976
144,11.719,-4.883,3.906,839.355,0.000,1737549843.980
145,-75.195,-16.113,1.953,61.035,0.000,1737549843.984
146,-73.242,-36.133,-22.949,138.672,0.000,1737549843.987
147,28.320,-46.387,-48.340,921.875,0.000,1737549843.991
148,59.082,-33.203,-28.809,991.211,0.000,1737549843.994
149,-10.742,-5.859,-2.930,881.836,0.000,1737549843.998
150,-82.031,0.000,-6.836,91.797,0.000,1737549844.001
151,-90.820,-7.324,-9.277,-304.199,0.000,1737549844.005
152,-37.109,3.906,-13.672,406.250,0.000,1737549844.008
153,50.293,7.324,-21.973,952.637,0.000,1737549844.012
154,21.973,-25.391,-21.973,361.816,0.000,1737549844.016
155,-98.145,-48.340,-15.137,-787.598,0.000,1737549844.019
156,-95.703,-20.996,-7.812,-1000.000,0.000,1737549844.024
157,-41.992,-8.789,-6.348,-467.285,0.000,1737549844.027
158,16.602,-8.301,-9.766,312.500,0.000,1737549844.031
159,13.184,-16.113,-20.996,57.617,0.000,1737549844.035
160,-54.199,-36.133,-30.273,-831.055,0.000,1737549844.038
161,-94.238,-29.785,-29.785,-1000.000,0.000,1737549844.042
162,-51.270,-8.789,-31.250,-545.898,0.000,1737549844.045
163,36.133,-9.277,-18.066,158.691,0.000,1737549844.049
164,13.672,-27.832,-15.137,-74.707,0.000,1737549844.052
165,-102.539,-36.621,-28.320,-835.449,0.000,1737549844.056
166,-116.211,-22.461,-23.438,-1000.000,0.000,1737549844.059
167,-50.293,-25.391,-20.996,-762.207,0.000,1737549844.063
168,6.348,-21.973,-24.414,41.504,0.000,1737549844.069
169,15.625,-7.812,-26.855,353.516,0.000,1737549844.073
170,-61.035,-10.254,-13.672,-484.863,0.000,1737549844.077
171,-98.633,-25.879,-4.883,-1000.000,0.000,1737549844.080
172,-42.480,-39.062,-11.230,-516.602,0.000,1737549844.084
173,16.113,-16.602,-15.625,458.008,0.000,1737549844.087
174,18.066,-11.719,-14.648,463.867,0.000,1737549844.091
175,-47.852,-25.879,-12.207,-532.227,0.000,1737549844.094
176,-95.215,-20.508,-20.996,-1000.000,0.000,1737549844.098
177,-62.012,-11.230,-28.320,-821.777,0.000,1737549844.101
178,-4.883,-9.277,-20.020,-120.605,0.000,1737549844.105
179,22.949,-20.508,-9.277,344.727,0.000,1737549844.108
180,-21.973,-19.531,-8.789,-363.770,0.000,1737549844.115
181,-77.637,-17.578,-15.625,-1000.000,0.000,1737549844.119
182,-60.059,-23.926,-19.043,-848.145,0.000,1737549844.122
183,-21.484,-21.484,-28.809,-135.742,0.000,1737549844.126
184,-11.230,-20.020,-24.902,330.078,0.000,1737549844.129
185,-34.668,-15.625,-13.672,-314.453,0.000,1737549844.133
186,-70.312,-22.461,-11.230,-1000.000,0.000,1737549844.136
187,-72.754,-37.109,-11.230,-882.324,0.000,1737549844.140
188,9.277,-21.973,-26.367,-248.047,0.000,1737549844.143
189,47.852,-2.930,-29.785,114.746,0.000,1737549844.147
190,1.465,-2.441,-9.766,-458.984,0.000,1737549844.151
191,-74.707,-20.996,-2.441,-1000.000,0.000,1737549844.154
192,-83.496,-33.203,-17.090,-982.422,0.000,1737549844.160
193,-19.043,-10.254,-23.926,-584.473,0.000,1737549844.164
194,-7.324,-4.883,-16.602,-0.488,0.000,1737549844.168
195,18.555,-16.602,-8.789,-256.348,0.000,1737549844.171
196,-21.484,-21.484,-25.391,-954.590,0.000,1737549844.175
197,-78.613,-23.926,-28.809,-967.285,0.000,1737549844.178
198,-13.672,-17.578,-9.277,-394.531,0.000,1737549844.182
199,32.227,-16.602,0.488,249.023,0.000,1737549844.185
200,17.090,-17.090,-8.301,207.520,0.000,1737549844.189
201,-29.785,-14.648,-17.090,-644.043,0.000,1737549844.193
202,-52.246,-29.785,-9.766,-942.871,0.000,1737549844.196
203,11.230,-29.785,-17.578,-65.918,0.000,1737549844.200
204,61.035,-9.277,-27.344,753.906,0.000,1737549844.206
205,30.273,1.465,-22.461,573.730,0.000,1737549844.209
206,-68.848,-13.184,-24.414,-479.980,0.000,1737549844.213
207,-111.328,-31.738,-13.184,-1000.000,0.000,1737549844.217
208,-30.273,-22.949,-3.418,-353.516,0.000,1737549844.220
209,37.598,-9.277,-12.207,575.195,0.000,1737549844.224
210,20.508,-12.695,-23.438,469.238,0.000,1737549844.227
211,-48.340,-25.391,-18.066,-553.223,0.000,1737549844.231
212,-79.102,-24.902,-14.160,-1000.000,0.000,1737549844.234
213,-57.129,-22.461,-12.207,-661.133,0.000,1737549844.238
214,2.441,-23.438,-18.555,105.469,0.000,1737549844.242
215,22.949,-16.602,-31.250,223.145,0.000,1737549844.245
216,-24.414,-18.066,-33.203,-562.500,0.000,1737549844.251
217,-94.238,-20.020,-5.859,-1000.000,0.000,1737549844.255
218,-56.641,-16.113,3.418,-791.016,0.000,1737549844.258
219,48.828,-30.273,-3.418,-77.637,0.000,1737549844.262
220,45.410,-29.785,-8.301,235.840,0.000,1737549844.266
221,-22.949,-17.578,-28.320,-452.148,0.000,1737549844.269
222,-71.289,-23.438,-36.621,-1000.000,0.000,1737549844.273
223,-41.504,-26.855,-25.879,-798.828,0.000,1737549844.276
224,12.207,-21.484,-16.113,-2.930,0.000,1737549844.280
225,34.668,-19.531,-18.066,471.680,0.000,1737549844.284
226,-4.395,-13.184,-9.277,-108.887,0.000,1737549844.287
227,-66.895,-14.160,1.465,-952.148,0.000,1737549844.291
228,-57.617,-26.855,-6.836,-664.551,0.000,1737549844.297
229,21.973,-22.461,-20.020,319.336,0.000,1737549844.300
230,53.223,-22.949,-15.625,834.473,0.000,1737549844.304
231,-27.832,-23.926,6.348,291.992,0.000,1737549844.308
232,-82.031,-18.555,-2.930,-714.355,0.000,1737549844.311
233,-48.828,-24.414,-32.715,-415.527,0.000,1737549844.315
234,53.223,-14.160,-35.156,657.227,0.000,1737549844.318
235,73.242,-6.348,-30.762,999.512,0.000,1737549844.322
236,-0.977,-16.113,-33.203,540.039,0.000,1737549844.326
237,-87.402,-25.879,-33.203,-587.891,0.000,1737549844.329
238,-84.961,-36.621,-14.160,-662.109,0.000,1737549844.333
239,-7.324,-28.320,9.766,358.887,0.000,1737549844.336
240,60.547,-21.973,-1.953,992.676,0.000,1737549844.342
241,26.855,-35.156,-31.250,665.527,0.000,1737549844.346
242,-81.543,-31.738,-28.320,-514.160,0.000,1737549844.349
243,-112.305,-20.508,-18.555,-842.285,0.000,1737549844.353
244,-50.781,-15.625,-34.668,128.906,0.000,1737549844.357
245,43.457,-6.348,-23.926,934.082,0.000,1737549844.360
246,47.852,-7.812,5.371,642.090,0.000,1737549844.364
247,-70.801,-25.391,-7.324,-597.656,0.000,1737549844.367
248,-84.961,-28.809,-18.066,-966.797,0.000,1737549844.371
249,-10.742,-20.996,-18.555,-131.836,0.000,1737549844.375
250,30.273,-16.602,-20.996,635.742,0.000,1737549844.378
251,-12.207,-30.273,-27.832,493.652,0.000,1737549844.382
252,-91.797,-40.039,-21.973,-401.855,0.000,1737549844.388
253,-85.938,-25.879,-8.301,-825.195,0.000,1737549844.391
254,-60.547,-19.531,-10.254,-45.410,0.000,1737549844.395
255,-31.738,-12.207,12.695,835.938,0.000,1737549844.398
256,-58.105,-19.531,28.320,986.816,0.000,1737549844.402
257,-133.789,-33.691,28.320,428.223,0.000,1737549844.406
258,-213.379,-40.039,21.973,-99.121,0.000,1737549844.409
259,-186.035,-43.945,10.254,382.324,0.000,1737549844.413
260,-117.188,-26.367,23.926,912.598,0.000,1737549844.417
261,-125.488,-16.113,40.527,999.512,0.000,1737549844.420
262,-130.859,-35.645,31.738,506.836,0.000,1737549844.424
263,-168.945,-42.480,-1.465,-397.461,0.000,1737549844.427
264,-146.973,-29.785,1.465,38.086,0.000,1737549844.435
265,-46.875,-32.227,13.672,893.066,0.000,1737549844.439
266,-31.738,-29.297,13.184,904.297,0.000,1737549844.443
267,-65.918,-33.691,2.441,-17.578,0.000,1737549844.446
268,-137.207,-42.480,-9.766,-997.559,0.000,1737549844.450
269,-118.164,-28.809,3.906,-647.461,0.000,1737549844.453
270,-16.602,-14.160,15.625,269.531,0.000,1737549844.457
271,20.508,-24.414,15.137,511.230,0.000,1737549844.461
272,-42.969,-43.945,0.488,-275.391,0.000,1737549844.464
273,-104.492,-33.203,-18.555,-1000.000,0.000,1737549844.468
274,-35.156,-12.207,-17.090,-753.418,0.000,1737549844.472
275,30.273,-12.695,-9.766,101.074,0.000,1737549844.475
276,21.973,-21.484,-12.695,565.430,0.000,1737549844.482
277,-16.602,-25.879,-23.926,118.652,0.000,1737549844.485
278,-78.125,-27.832,-20.508,-779.297,0.000,1737549844.489
279,-89.844,-31.250,-3.418,-603.516,0.000,1737549844.493
280,-5.859,-29.297,-4.395,481.934,0.000,1737549844.496
281,106.934,-1.953,-8.789,999.512,0.000,1737549844.500
282,44.922,-12.207,-23.926,740.723,0.000,1737549844.504
283,-67.383,-37.109,-39.062,-305.176,0.000,1737549844.507
284,-24.414,-25.879,-30.273,-516.113,0.000,1737549844.511
285,16.113,-24.414,-16.113,513.672,0.000,1737549844.515
286,32.715,-22.949,-6.836,999.512,0.000,1737549844.518
287,20.508,-18.066,6.348,892.578,0.000,1737549844.522
288,-47.363,-14.160,5.371,103.516,0.000,1737549844.528
289,-60.059,-25.391,-5.859,-324.219,0.000,1737549844.532
290,-15.137,-28.809,-17.578,498.047,0.000,1737549844.536
291,32.227,-13.184,-20.508,999.512,0.000,1737549844.539
292,64.941,-11.719,-9.277,876.465,0.000,1737549844.543
293,-16.113,-10.254,-6.836,3.418,0.000,1737549844.547
294,-94.238,-7.324,-15.625,-543.945,0.000,1737549844.550
295,-53.711,-17.578,-14.648,154.297,0.000,1737549844.554
296,35.156,-17.090,0.488,849.609,0.000,1737549844.558
297,42.969,-5.371,7.324,794.922,0.000,1737549844.561
298,-73.242,-26.367,-0.977,-244.141,0.000,1737549844.565
299,-90.332,-43.945,-6.348,-926.270,0.000,1737549844.569
300,17.090,-29.297,-20.508,-239.258,0.000,1737549844.575
301,57.129,-3.906,-37.109,680.176,0.000,1737549844.579
302,40.527,8.301,-17.090,802.246,0.000,1737549844.582
303,-24.902,-10.254,-3.906,-205.078,0.000,1737549844.586
304,-114.746,-37.598,-13.672,-1000.000,0.000,1737549844.590
305,-86.914,-29.297,-20.020,-521.484,0.000,1737549844.593
306,31.738,-10.254,-13.184,488.281,0.000,1737549844.597
307,49.316,-20.020,-2.441,726.074,0.000,1737549844.601
308,-32.715,-23.926,-15.625,-90.332,0.000,1737549844.604
309,-80.566,-34.668,-31.738,-1000.000,0.000,1737549844.608
310,-41.992,-38.574,-21.973,-607.422,0.000,1737549844.612
311,27.344,-11.230,-13.184,511.230,0.000,1737549844.615
312,57.617,-0.977,-14.648,882.324,0.000,1737549844.621
313,-12.695,-21.484,-31.738,-35.645,0.000,1737549844.625
314,-89.355,-33.203,-33.203,-1000.000,0.000,1737549844.629
315,-76.660,-24.902,-16.602,-685.547,0.000,1737549844.632
316,-13.184,-21.484,-12.207,353.516,0.000,1737549844.636
317,53.711,-3.906,-8.301,999.512,0.000,1737549844.640
318,-17.578,-3.418,-11.230,498.047,0.000,1737549844.643
319,-99.121,-24.414,-11.230,-728.516,0.000,1737549844.647
320,-53.223,-20.508,-16.113,-759.277,0.000,1737549844.651
321,9.766,-1.953,-31.738,184.082,0.000,1737549844.654
322,40.527,-0.488,-28.320,731.445,0.000,1737549844.658
323,10.742,-15.137,-9.766,360.352,0.000,1737549844.662
324,-66.406,-23.438,-16.113,-717.773,0.000,1737549844.667
325,-58.105,-25.391,-22.461,-763.672,0.000,1737549844.671
326,11.719,-28.809,-15.137,257.812,0.000,1737549844.675
327,8.789,-21.484,-12.695,760.742,0.000,1737549844.678
328,-19.531,-13.672,-15.137,374.512,0.000,1737549844.682
329,-53.711,-10.254,-24.414,-580.078,0.000,1737549844.686
330,-80.566,-14.648,-35.645,-715.820,0.000,1737549844.689
331,-25.879,-17.090,-18.555,240.723,0.000,1737549844.693
332,35.156,-8.301,-1.465,914.551,0.000,1737549844.697
333,34.180,-5.371,-13.672,471.191,0.000,1737549844.701
334,-20.996,-13.672,-11.230,-678.711,0.000,1737549844.704
335,-60.547,-21.973,-8.789,-962.891,0.000,1737549844.708
336,-26.855,-13.672,-19.043,-202.637,0.000,1737549844.714
337,32.227,-11.719,-20.020,610.352,0.000,1737549844.717
338,26.367,-10.254,-18.066,659.180,0.000,1737549844.721
339,-32.227,-14.648,-25.879,-367.188,0.000,1737549844.725
340,-53.223,-42.969,-29.785,-964.844,0.000,1737549844.728
341,-10.254,-24.414,-10.254,-87.402,0.000,1737549844.732
342,56.152,10.254,10.254,822.266,0.000,1737549844.736
343,64.941,4.883,9.766,949.219,0.000,1737549844.739
344,-13.184,-12.695,-3.906,151.855,0.000,1737549844.743
345,-67.871,-15.137,-29.785,-711.426,0.000,1737549844.747
346,-41.992,-10.254,-31.738,-224.609,0.000,1737549844.751
347,3.418,-29.785,-26.367,720.703,0.000,1737549844.754
348,35.645,-50.293,-32.715,999.512,0.000,1737549844.760
349,-2.930,-29.785,-28.809,269.043,0.000,1737549844.763
350,-84.961,-4.395,-28.320,-660.156,0.000,1737549844.767
351,-56.152,-2.441,-21.973,-141.113,0.000,1737549844.771
352,-0.977,-6.836,-4.395,780.762,0.000,1737549844.774
353,20.020,-8.301,-5.859,999.512,0.000,1737549844.778
354,27.344,-15.625,-15.137,350.098,0.000,1737549844.782
355,-62.500,-27.832,-21.973,-753.906,0.000,1737549844.786
356,-61.523,-28.809,-22.461,-430.176,0.000,1737549844.789
357,17.578,-23.438,-18.555,652.832,0.000,1737549844.793
358,14.160,-14.648,-25.391,999.512,0.000,1737549844.797
359,-35.645,-19.043,-29.785,533.691,0.000,1737549844.800
360,-54.199,-27.832,-26.367,-296.387,0.000,1737549844.807
361,-50.293,-24.414,-17.090,-55.176,0.000,1737549844.810
362,2.930,-1.465,-12.695,728.027,0.000,1737549844.814
363,53.223,-1.953,-13.184,999.512,0.000,1737549844.818
364,0.000,-21.484,-17.090,536.133,0.000,1737549844.822
365,-69.336,-35.156,-22.461,-614.746,0.000,1737549844.825
366,-55.176,-28.809,-30.762,-683.105,0.000,1737549844.829
367,22.461,-13.184,-29.785,263.672,0.000,1737549844.833
368,31.738,-13.184,-11.230,821.289,0.000,1737549844.836
369,-33.691,-9.277,-1.953,447.754,0.000,1737549844.840
370,-55.176,-10.742,-10.742,-497.559,0.000,1737549844.844
371,-57.617,-16.113,-17.578,-555.176,0.000,1737549844.847
372,-23.926,-17.090,-11.719,342.285,0.000,1737549844.854
373,26.855,-17.578,-16.113,973.633,0.000,1737549844.857
374,35.156,-17.090,-34.668,693.848,0.000,1737549844.861
375,-57.129,-34.180,-39.062,-535.645,0.000,1737549844.865
376,-94.238,-37.598,-28.320,-860.352,0.000,1737549844.869
377,-14.648,-20.996,-5.859,332.520,0.000,1737549844.872
378,34.180,-28.320,-1.465,999.512,0.000,1737549844.876
379,21.484,-28.320,-22.461,683.594,0.000,1737549844.880
380,-64.453,0.488,-23.438,-469.727,0.000,1737549844.883
381,-110.840,-5.859,-13.672,-1000.000,0.000,1737549844.887
382,-30.762,-28.809,-28.320,-263.184,0.000,1737549844.891
383,53.223,-20.020,-31.250,543.457,0.000,1737549844.895
384,41.504,-28.809,-14.648,512.207,0.000,1737549844.901
385,-63.965,-34.668,-0.977,-429.199,0.000,1737549844.904
386,-102.051,-13.184,-12.695,-1000.000,0.000,1737549844.908
387,-20.020,-11.719,-29.297,-479.492,0.000,1737549844.912
388,34.180,-12.695,-21.484,370.605,0.000,1737549844.915
389,26.855,-8.789,-3.906,505.371,0.000,1737549844.919
390,-20.020,-18.555,4.395,-242.676,0.000,1737549844.923
391,-87.402,-29.785,0.488,-1000.000,0.000,1737549844.927
392,-60.547,-39.062,0.977,-686.523,0.000,1737549844.930
393,26.367,-23.926,-16.113,109.375,0.000,1737549844.934
394,55.664,-5.371,-33.203,399.414,0.000,1737549844.938
395,4.883,-10.742,-28.809,-322.266,0.000,1737549844.941
396,-59.082,-14.648,-24.902,-1000.000,0.000,1737549844.947
397,-38.086,-20.996,-25.391,-545.410,0.000,1737549844.951
398,24.414,-30.273,-18.066,449.707,0.000,1737549844.955
399,59.570,-23.926,-8.789,787.109,0.000,1737549844.958
400,-16.113,-9.766,-2.930,19.043,0.000,1737549844.962
401,-96.680,-25.879,-10.742,-954.102,0.000,1737549844.966
402,-57.129,-29.785,-20.996,-678.223,0.000,1737549844.970
403,12.207,-3.418,-29.785,187.012,0.000,1737549844.973
404,35.156,-2.930,-22.949,523.926,0.000,1737549844.977
405,-18.066,-17.090,-20.508,-23.438,0.000,1737549844.981
406,-94.238,-40.039,-39.062,-893.066,0.000,1737549844.985
407,-70.312,-40.527,-33.203,-839.355,0.000,1737549844.988
408,-7.324,-16.113,-3.418,-1.953,0.000,1737549844.994
409,24.414,-12.207,6.348,496.582,0.000,1737549844.998
410,-15.137,-17.578,-9.766,-117.676,0.000,1737549845.001
411,-100.098,-6.836,-29.785,-939.453,0.000,1737549845.005
412,-72.754,-4.395,-37.109,-937.500,0.000,1737549845.009
413,-5.859,-11.719,-41.016,-309.082,0.000,1737549845.012
414,36.133,-15.625,-34.668,384.766,0.000,1737549845.016
415,24.902,-22.949,-17.090,23.926,0.000,1737549845.020
416,-52.734,-34.180,-12.207,-888.184,0.000,1737549845.024
417,-65.430,-28.809,-18.066,-949.707,0.000,1737549845.027
418,-19.043,-6.836,-35.156,-163.574,0.000,1737549845.031
419,44.434,-6.836,-32.715,702.148,0.000,1737549845.035
420,23.926,-12.695,-3.418,390.625,0.000,1737549845.040
421,-69.336,-22.949,-5.371,-708.008,0.000,1737549845.044
422,-112.793,-32.715,-18.066,-991.211,0.000,1737549845.048
423,-82.520,-25.879,-18.555,-220.703,0.000,1737549845.051
424,34.180,-32.227,-35.645,582.520,0.000,1737549845.055
425,44.434,-39.551,-35.645,490.234,0.000,1737549845.059
426,-30.273,-22.461,-14.160,-371.094,0.000,1737549845.063
427,-66.406,-24.902,-22.949,-855.469,0.000,1737549845.066
428,-42.480,-35.156,-41.016,-297.852,0.000,1737549845.070
429,16.602,-15.137,-20.020,486.328,0.000,1737549845.074
430,13.184,-12.695,7.812,523.926,0.000,1737549845.078
431,-53.711,-17.578,2.441,-421.875,0.000,1737549845.081
432,-88.379,-16.113,-19.043,-1000.000,0.000,1737549845.087
433,-47.363,-7.324,-32.715,-625.488,0.000,1737549845.090
434,13.184,-4.395,-25.879,214.844,0.000,1737549845.094
435,34.180,-10.254,-16.113,287.109,0.000,1737549845.098
436,-43.457,-27.832,-26.855,-562.988,0.000,1737549845.102
437,-124.512,-50.293,-13.184,-1000.000,0.000,1737549845.105
438,-54.199,-40.527,-3.906,-742.188,0.000,1737549845.109
439,32.715,-20.996,-14.648,-44.922,0.000,1737549845.113
440,22.949,-5.859,-11.719,202.148,0.000,1737549845.117
441,-22.949,1.953,-16.602,-489.746,0.000,1737549845.120
442,-54.688,-11.230,-27.344,-1000.000,0.000,1737549845.124
443,-44.434,-20.508,-20.020,-844.238,0.000,1737549845.128
444,9.766,-8.789,-31.738,-208.984,0.000,1737549845.133
445,48.340,-11.719,-49.805,191.895,0.000,1737549845.137
446,-11.719,-24.414,-27.344,-407.227,0.000,1737549845.141
447,-65.918,-37.598,-6.836,-1000.000,0.000,1737549845.144
448,-59.082,-30.273,-14.160,-822.754,0.000,1737549845.148
449,-33.203,-6.348,-20.508,-38.574,0.000,1737549845.152
450,36.621,-0.977,-7.324,456.055,0.000,1737549845.155
451,-20.020,-3.906,1.465,-246.582,0.000,1737549845.159
452,-105.957,-15.137,-1.465,-1000.000,0.000,1737549845.163
453,-55.176,-24.414,-18.066,-896.973,0.000,1737549845.167
454,12.695,-14.648,-30.273,-299.316,0.000,1737549845.170
455,29.785,-18.555,-29.785,215.332,0.000,1737549845.174
456,-5.371,-27.832,-29.297,-327.148,0.000,1737549845.180
457,-83.496,-15.625,-15.137,-1000.000,0.000,1737549845.184
458,-140.137,-8.789,-3.906,-1000.000,0.000,1737549845.188
459,-53.223,-1.953,-16.113,-759.766,0.000,1737549845.191
460,32.227,-1.953,-29.297,-257.324,0.000,1737549845.195
461,16.113,-12.207,-41.504,-566.895,0.000,1737549845.199
462,-18.555,-21.484,-55.664,-1000.000,0.000,1737549845.203
463,-41.992,-16.113,-50.781,-1000.000,0.000,1737549845.206
464,-6.348,0.977,-46.387,-885.254,0.000,1737549845.210
465,57.617,5.859,-57.617,-423.828,0.000,1737549845.214
466,39.551,5.859,-66.895,-517.578,0.000,1737549845.218
467,-16.113,-13.672,-62.500,-981.445,0.000,1737549845.221
468,-0.977,-33.203,-72.754,-1000.000,0.000,1737549845.227
469,58.594,-4.883,-86.914,-606.445,0.000,1737549845.231
470,97.656,20.508,-71.289,90.332,0.000,1737549845.235
471,38.574,10.742,-59.082,-109.863,0.000,1737549845.238
472,-10.254,10.742,-58.105,-843.750,0.000,1737549845.242
473,-15.137,0.000,-65.430,-1000.000,0.000,1737549845.246
474,23.926,-16.113,-55.664,-476.562,0.000,1737549845.250
475,101.562,-15.625,-38.086,230.957,0.000,1737549845.253
476,135.254,-11.230,-43.945,320.801,0.000,1737549845.257
477,41.504,-12.207,-34.668,-454.102,0.000,1737549845.261
478,-66.406,-18.555,-33.691,-1000.000,0.000,1737549845.265
479,-11.719,-16.602,-46.875,-628.418,0.000,1737549845.268
480,74.219,-2.930,-30.273,242.676,0.000,1737549845.274
481,76.660,6.348,-27.832,408.691,0.000,1737549845.278
482,-12.207,-3.906,-34.180,-460.938,0.000,1737549845.282
483,-61.523,-16.113,-36.621,-1000.000,0.000,1737549845.285
484,-20.996,-22.461,-42.480,-783.203,0.000,1737549845.289
485,64.453,-25.879,-19.531,20.996,0.000,1737549845.293
486,102.051,-8.301,-12.207,457.031,0.000,1737549845.297
487,15.137,10.742,-15.137,-340.332,0.000,1737549845.300
488,-76.660,-12.207,-18.066,-1000.000,0.000,1737549845.304
489,-52.734,-20.508,-18.555,-757.324,0.000,1737549845.308
490,46.387,2.930,-15.625,46.387,0.000,1737549845.312
491,71.289,4.395,-21.973,492.188,0.000,1737549845.315
492,-2.441,-15.625,-24.902,-83.008,0.000,1737549845.321
493,-53.711,-13.672,-24.414,-963.379,0.000,1737549845.325
494,-27.832,-12.207,-20.996,-710.938,0.000,1737549845.328
495,46.387,-11.719,-26.855,309.570,0.000,1737549845.332
496,95.215,-7.324,-28.809,877.930,0.000,1737549845.336
497,47.363,-14.160,-24.902,471.191,0.000,1737549845.340
498,-39.062,-17.578,-26.855,-571.289,0.000,1737549845.343
499,-62.012,-20.508,-31.250,-598.633,0.000,1737549845.347
500,20.508,-22.949,-24.414,415.527,0.000,1737549845.351
501,72.266,-23.438,-13.184,999.512,0.000,1737549845.355
502,60.059,-10.254,-14.648,675.293,0.000,1737549845.358
503,-31.738,-1.465,-17.090,-419.434,0.000,1737549845.362
504,-81.055,-7.812,-19.531,-591.309,0.000,1737549845.368
505,0.488,-12.695,-22.461,339.355,0.000,1737549845.371
506,52.734,-9.766,-31.250,948.730,0.000,1737549845.375
507,50.293,-18.066,-30.273,729.980,0.000,1737549845.379
508,-50.293,-35.156,-23.438,-409.668,0.000,1737549845.383
509,-107.910,-22.949,-25.879,-719.238,0.000,1737549845.386
510,6.348,-20.508,-32.227,397.461,0.000,1737549845.390
511,78.125,-28.320,-42.480,999.512,0.000,1737549845.394
512,57.129,-31.250,-39.062,777.832,0.000,1737549845.398
513,-39.551,-22.949,-18.066,-83.496,0.000,1737549845.401
514,-87.402,-3.906,-12.207,-513.184,0.000,1737549845.405
515,-40.527,-2.930,-18.066,70.801,0.000,1737549845.409
516,28.320,-9.277,-3.418,737.793,0.000,1737549845.414
517,42.969,-14.160,0.488,860.840,0.000,1737549845.418
518,-71.777,-26.855,-11.230,-47.852,0.000,1737549845.422
519,-103.027,-39.551,-20.508,-645.020,0.000,1737549845.425
520,7.812,-28.809,-29.785,252.930,0.000,1737549845.429
521,50.293,-21.484,-28.809,974.121,0.000,1737549845.433
522,41.016,-38.086,-20.996,995.117,0.000,1737549845.437
523,-10.254,-19.531,-27.344,354.980,0.000,1737549845.440
524,-69.824,5.371,-23.438,-391.602,0.000,1737549845.444
525,-4.395,3.418,-19.531,317.383,0.000,1737549845.448
526,22.461,-3.418,-20.508,978.027,0.000,1737549845.452
527,6.348,-8.789,-7.324,999.512,0.000,1737549845.455
528,10.254,-14.648,-7.324,674.316,0.000,1737549845.461
529,-45.898,-28.320,-7.812,-128.906,0.000,1737549845.464
530,-33.691,-51.270,-10.254,124.512,0.000,1737549845.468
531,20.996,-40.039,-23.438,836.426,0.000,1737549845.472
532,41.992,-4.883,-15.625,999.512,0.000,1737549845.476
533,-25.879,6.348,-5.859,692.871,0.000,1737549845.480
534,-95.215,-1.465,-15.137,-184.082,0.000,1737549845.483
535,-34.668,-5.859,-18.555,-92.773,0.000,1737549845.487
536,24.414,-13.184,-5.371,737.305,0.000,1737549845.491
537,38.086,-17.578,-10.742,999.512,0.000,1737549845.495
538,-19.043,-21.973,-33.203,379.883,0.000,1737549845.498
539,-101.562,-29.785,-33.691,-784.668,0.000,1737549845.502
540,-87.402,-27.832,-28.320,-575.684,0.000,1737549845.507
541,-14.648,-21.484,-29.785,567.871,0.000,1737549845.511
542,63.477,-19.531,-24.414,999.512,0.000,1737549845.515
543,17.578,-20.508,-19.043,782.227,0.000,1737549845.519
544,-89.355,-11.230,-29.297,-139.160,0.000,1737549845.522
545,-66.895,-7.812,-30.273,-245.605,0.000,1737549845.526
546,6.836,-21.973,-25.391,677.734,0.000,1737549845.530
547,44.922,-22.461,-24.902,999.512,0.000,1737549845.534
548,-24.414,-14.648,-38.574,767.578,0.000,1737549845.537
549,-79.590,-31.738,-39.551,-88.379,0.000,1737549845.541
550,-51.270,-26.855,-17.578,-289.551,0.000,1737549845.545
551,-6.836,-7.324,-1.953,547.852,0.000,1737549845.549
552,39.551,-14.160,-2.930,999.512,0.000,1737549845.554
553,35.645,-12.695,-6.836,904.297,0.000,1737549845.558
554,-21.973,-10.742,-14.648,77.148,0.000,1737549845.562
555,-66.895,-8.301,-15.137,-409.668,0.000,1737549845.566
556,-8.301,1.465,-15.625,409.180,0.000,1737549845.570
557,45.898,-6.836,-23.438,980.957,0.000,1737549845.573
558,14.160,-21.973,-14.648,896.484,0.000,1737549845.577
559,-27.832,-23.926,-26.367,-27.832,0.000,1737549845.581
560,-54.688,-20.020,-37.109,-769.531,0.000,1737549845.585
561,-36.133,-26.367,-8.789,47.363,0.000,1737549845.588
562,10.742,-32.715,5.859,900.879,0.000,1737549845.592
563,53.223,-22.949,-7.812,972.168,0.000,1737549845.596
564,-18.066,-16.113,-12.207,195.801,0.000,1737549845.602
565,-108.398,-21.484,-9.277,-665.527,0.000,1737549845.605
566,-64.453,-5.859,-11.719,-156.250,0.000,1737549845.609
567,20.020,-2.441,-24.414,722.168,0.000,1737549845.613
568,37.109,-19.043,-34.668,843.750,0.000,1737549845.617
569,-16.602,-22.949,-28.809,110.352,0.000,1737549845.620
570,-68.359,-26.855,-18.555,-630.859,0.000,1737549845.624
571,-39.062,-26.855,-9.766,-208.008,0.000,1737549845.628
572,-1.465,-39.551,-24.414,712.891,0.000,1737549845.632
573,19.043,-42.969,-19.043,999.512,0.000,1737549845.635
574,-16.602,-23.926,7.324,348.145,0.000,1737549845.639
575,-80.566,-12.695,-12.207,-677.246,0.000,1737549845.643
576,-61.523,2.930,-20.508,-350.586,0.000,1737549845.649
577,-24.414,-4.883,-9.277,625.977,0.000,1737549845.652
578,38.086,-14.648,-17.090,970.215,0.000,1737549845.656
579,-7.324,-26.367,-17.090,335.449,0.000,1737549845.660
580,-137.695,-53.223,-14.160,-829.102,0.000,1737549845.664
581,-92.773,-45.898,-2.441,-547.363,0.000,1737549845.667
582,37.109,-24.414,1.953,643.066,0.000,1737549845.671
583,47.363,-21.484,-9.277,971.680,0.000,1737549845.675
584,-10.742,-16.602,-13.672,322.266,0.000,1737549845.679
585,-98.633,-14.160,-23.438,-754.883,0.000,1737549845.682
586,-83.496,-15.137,-27.344,-662.598,0.000,1737549845.686
587,13.184,-24.414,-18.555,420.410,0.000,1737549845.690
588,69.336,-21.973,-13.184,961.914,0.000,1737549845.695
589,29.785,-22.949,-18.066,514.160,0.000,1737549845.699
590,-60.059,-40.039,-13.184,-599.609,0.000,1737549845.703
591,-68.848,-22.949,7.324,-761.230,0.000,1737549845.707
592,-17.090,3.418,8.789,247.559,0.000,1737549845.711
593,31.250,6.348,-7.324,966.309,0.000,1737549845.714
594,13.184,-1.953,-17.090,730.957,0.000,1737549845.718
595,-70.801,-18.555,-22.461,-382.324,0.000,1737549845.722
596,-95.703,-26.855,-20.020,-773.438,0.000,1737549845.726
597,-28.809,-37.598,-23.926,131.836,0.000,1737549845.729
598,47.852,-43.945,-23.438,908.203,0.000,1737549845.733
599,37.598,-29.297,-14.648,801.758,0.000,1737549845.737
600,-38.086,-13.672,-20.020,-107.910,0.000,1737549845.742
601,-60.547,-10.254,-19.531,-453.125,0.000,1737549845.746
602,7.324,-16.602,-16.113,292.969,0.000,1737549845.750
603,49.316,-20.508,-20.996,822.266,0.000,1737549845.754
604,8.789,-29.785,-17.090,676.270,0.000,1737549845.757
605,-62.012,-17.578,-11.230,-176.270,0.000,1737549845.761
606,-72.754,-2.441,-21.973,-715.820,0.000,1737549845.765
607,-53.223,-23.438,-21.484,-135.742,0.000,1737549845.769
608,6.836,-33.691,-11.719,586.426,0.000,1737549845.773
609,61.523,-9.766,-15.137,722.168,0.000,1737549845.776
610,-9.766,-12.207,-18.555,-86.426,0.000,1737549845.780
611,-94.238,-30.762,-16.113,-843.750,0.000,1737549845.784
612,-21.973,-20.020,-32.715,-229.492,0.000,1737549845.789
613,92.285,-5.371,-40.039,717.773,0.000,1737549845.793
614,63.965,-11.230,-18.066,927.734,0.000,1737549845.797
615,-23.926,-13.184,-21.484,62.012,0.000,1737549845.800
616,-94.727,-20.020,-28.320,-952.637,0.000,1737549845.804
617,-72.754,-32.227,-14.648,-491.211,0.000,1737549845.808
618,9.277,-14.160,-24.902,545.898,0.000,1737549845.812
619,52.246,-12.695,-18.066,860.840,0.000,1737549845.816
620,1.465,-27.832,0.488,183.105,0.000,1737549845.819
621,-102.051,-13.672,-21.484,-786.621,0.000,1737549845.823
622,-77.637,5.859,-36.133,-518.066,0.000,1737549845.827
623,28.320,6.836,-25.391,497.559,0.000,1737549845.831
624,45.410,-24.902,-18.066,998.047,0.000,1737549845.836
625,-4.395,-30.762,-9.766,487.305,0.000,1737549845.840
626,-45.410,-7.812,-9.277,-616.699,0.000,1737549845.843
627,-44.434,-4.395,-19.043,-519.531,0.000,1737549845.847
628,-1.465,-8.789,-20.508,539.062,0.000,1737549845.851
629,60.059,-3.906,-14.160,999.512,0.000,1737549845.855
630,37.598,-0.488,-9.766,623.047,0.000,1737549845.859
631,-67.383,1.953,-15.625,-579.102,0.000,1737549845.862
632,-89.844,-10.254,-18.066,-851.074,0.000,1737549845.866
633,-31.250,-29.297,-16.113,-9.277,0.000,1737549845.870
634,35.645,-19.043,-22.461,694.824,0.000,1737549845.874
635,5.371,-18.066,-31.250,488.281,0.000,1737549845.877
636,-103.516,-38.086,-24.902,-598.633,0.000,1737549845.882
637,-106.445,-28.320,-23.438,-871.094,0.000,1737549845.886
638,-29.785,-7.324,-8.789,12.207,0.000,1737549845.890
639,20.996,-1.953,-2.441,686.035,0.000,1737549845.894
640,22.461,0.977,-10.742,512.207,0.000,1737549845.898
641,-50.781,2.930,-13.184,-437.988,0.000,1737549845.901
642,-103.027,-3.418,-19.043,-806.641,0.000,1737549845.905
643,-38.574,-27.832,-29.297,-47.852,0.000,1737549845.909
644,78.613,-43.457,-25.879,735.352,0.000,1737549845.913
645,53.711,-32.227,-22.461,690.918,0.000,1737549845.916
646,-50.781,-14.648,-38.086,-370.605,0.000,1737549845.920
647,-79.590,-12.695,-29.297,-966.797,0.000,1737549845.924
648,-48.340,0.000,-13.184,-125.000,0.000,1737549845.930
649,11.230,8.789,-19.531,805.176,0.000,1737549845.933
650,13.184,-6.348,-9.277,886.719,0.000,1737549845.937
651,-62.500,-18.555,-0.977,-107.910,0.000,1737549845.941
652,-90.332,-34.180,-25.879,-900.879,0.000,1737549845.945
653,-36.621,-48.340,-32.715,-105.469,0.000,1737549845.948
654,15.625,-33.203,-17.090,858.398,0.000,1737549845.952
655,34.668,-25.879,-13.672,883.301,0.000,1737549845.956
656,-51.758,-24.414,-18.555,-73.730,0.000,1737549845.960
657,-148.926,-9.766,-6.836,-944.824,0.000,1737549845.964
658,-62.012,-3.418,3.418,-299.316,0.000,1737549845.967
659,33.691,-4.395,-4.883,727.539,0.000,1737549845.971
660,45.410,-17.578,-16.602,960.449,0.000,1737549845.977
661,-21.484,-33.203,-26.855,92.285,0.000,1737549845.980
662,-104.492,-48.340,-34.180,-975.098,0.000,1737549845.984
663,-111.328,-33.691,-30.273,-688.477,0.000,1737549845.988
664,-21.973,-5.371,-23.926,252.441,0.000,1737549845.992
665,59.570,-5.859,-18.066,742.676,0.000,1737549845.996
666,17.090,-13.184,-2.441,189.453,0.000,1737549845.999
667,-95.215,-27.344,-3.418,-864.258,0.000,1737549846.003
668,-95.215,-40.527,-13.184,-694.824,0.000,1737549846.007
669,-2.441,-30.762,-14.648,274.414,0.000,1737549846.011
670,41.504,-20.996,-16.602,779.785,0.000,1737549846.015
671,1.953,-15.137,-13.672,302.246,0.000,1737549846.018
672,-77.637,-7.812,-21.973,-767.090,0.000,1737549846.024
673,-84.961,-7.812,-30.762,-714.844,0.000,1737549846.028
674,-9.766,-20.020,-40.527,338.379,0.000,1737549846.031
675,41.016,-22.461,-41.992,999.512,0.000,1737549846.035
676,26.367,-15.137,-14.648,665.039,0.000,1737549846.039
677,-42.969,-21.484,2.441,-382.812,0.000,1737549846.043
678,-73.242,-40.527,-5.371,-666.504,0.000,1737549846.047
679,4.395,-44.434,-7.324,272.461,0.000,1737549846.050
680,58.594,-13.184,-4.883,999.512,0.000,1737549846.054
681,7.812,1.953,-17.090,683.594,0.000,1737549846.058
682,-92.773,-6.348,-21.973,-456.543,0.000,1737549846.062
683,-116.699,-8.789,-24.902,-739.746,0.000,1737549846.065
684,-40.527,-12.207,-22.461,281.738,0.000,1737549846.071
685,26.855,-20.020,-25.879,975.586,0.000,1737549846.075
686,41.992,-23.926,-28.809,831.543,0.000,1737549846.078
687,-43.945,-22.461,-13.672,-137.695,0.000,1737549846.082
688,-82.520,-37.109,-12.207,-736.816,0.000,1737549846.086
689,-31.250,-60.547,-30.273,-34.180,0.000,1737549846.090
690,9.277,-25.879,-23.438,739.258,0.000,1737549846.094
691,-1.953,2.930,-9.766,542.480,0.000,1737549846.097
692,-82.031,-23.926,-2.441,-507.812,0.000,1737549846.101
693,-107.422,-22.949,-12.695,-1000.000,0.000,1737549846.105
694,-41.504,-10.254,-32.227,-528.809,0.000,1737549846.109
695,37.598,-23.926,-31.738,272.461,0.000,1737549846.113
696,30.273,-33.203,-23.926,403.809,0.000,1737549846.118
697,-81.543,-34.668,-11.230,-477.539,0.000,1737549846.121
698,-117.188,-18.066,-8.301,-1000.000,0.000,1737549846.125
699,-49.805,-2.930,-11.719,-605.957,0.000,1737549846.129
700,4.883,-12.207,-14.648,161.133,0.000,1737549846.133
701,19.043,-0.977,-35.645,491.699,0.000,1737549846.137
702,-24.414,-2.441,-31.250,-172.363,0.000,1737549846.140
703,-86.426,-30.273,-10.742,-1000.000,0.000,1737549846.144
704,-55.176,-25.391,-10.742,-640.137,0.000,1737549846.148
705,46.875,-13.672,-2.441,343.262,0.000,1737549846.152
706,76.172,-17.090,0.488,726.074,0.000,1737549846.156
707,4.883,-12.695,-11.719,12.207,0.000,1737549846.159
708,-71.289,-5.859,-25.879,-963.867,0.000,1737549846.164
709,-61.523,-17.578,-32.715,-666.016,0.000,1737549846.168
710,4.883,-21.484,-25.391,378.906,0.000,1737549846.172
711,51.270,-19.531,-15.625,966.797,0.000,1737549846.176
712,26.367,-23.438,-16.602,426.758,0.000,1737549846.180
713,-79.102,-10.742,-9.277,-665.527,0.000,1737549846.183
714,-89.844,-16.113,-22.461,-600.098,0.000,1737549846.187
715,3.906,-35.645,-34.180,284.180,0.000,1737549846.191
716,52.246,-28.320,-11.719,816.406,0.000,1737549846.195
717,-9.766,-20.508,-14.648,323.730,0.000,1737549846.199
718,-109.863,-24.902,-31.250,-785.156,0.000,1737549846.202
719,-73.730,-10.742,-25.391,-729.004,0.000,1737549846.206
720,20.020,7.812,-14.648,265.137,0.000,1737549846.211
721,37.598,-4.395,-9.277,692.871,0.000,1737549846.215
722,8.301,-7.324,-10.254,197.266,0.000,1737549846.219
723,-66.895,-11.719,-18.555,-770.996,0.000,1737549846.222
724,-99.609,-26.367,-25.391,-911.133,0.000,1737549846.226
725,-8.301,-13.672,-28.809,-11.719,0.000,1737549846.230
726,51.270,-10.742,-45.898,790.039,0.000,1737549846.234
727,32.227,-26.855,-35.645,538.086,0.000,1737549846.238
728,-32.715,-15.137,-18.555,-490.234,0.000,1737549846.241
729,-88.379,-1.465,-19.043,-747.559,0.000,1737549846.245
730,-20.508,-6.836,-1.953,51.758,0.000,1737549846.249
731,70.312,-8.301,2.441,745.605,0.000,1737549846.253
732,41.992,-7.324,-11.719,619.141,0.000,1737549846.258
733,-79.590,-20.020,-9.766,-450.684,0.000,1737549846.261
734,-99.609,-40.527,-16.113,-1000.000,0.000,1737549846.265
735,-0.977,-30.762,-22.949,-250.488,0.000,1737549846.269
736,59.082,-8.789,-16.602,735.840,0.000,1737549846.273
737,55.664,-10.742,-10.742,780.762,0.000,1737549846.277
738,-30.762,-17.090,-20.508,-178.711,0.000,1737549846.280
739,-94.238,-10.254,-43.945,-916.504,0.000,1737549846.284
740,-43.457,0.000,-28.809,-299.316,0.000,1737549846.288
741,39.551,-6.836,7.812,588.379,0.000,1737549846.292
742,41.016,-16.113,21.484,774.902,0.000,1737549846.296
743,-42.480,-30.762,2.441,-8.789,0.000,1737549846.299
744,-101.562,-35.156,-6.836,-754.395,0.000,1737549846.305
745,-41.504,-18.066,-4.883,-308.105,0.000,1737549846.309
746,37.598,-2.930,-13.184,463.379,0.000,1737549846.312
747,14.160,0.488,-15.137,523.438,0.000,1737549846.316
748,-43.945,2.441,-20.020,-333.984,0.000,1737549846.320
749,-89.355,-11.230,-40.527,-1000.000,0.000,1737549846.324
750,-52.246,-28.320,-41.992,-755.371,0.000,1737549846.328
751,21.973,-8.789,-28.809,30.762,0.000,1737549846.331
752,41.504,-3.906,-22.949,436.523,0.000,1737549846.335
753,-21.973,-9.277,-20.020,-182.617,0.000,1737549846.339
754,-109.863,1.953,-25.879,-1000.000,0.000,1737549846.343
755,-69.336,1.953,-21.484,-798.828,0.000,1737549846.347
756,26.367,-2.441,-16.113,82.520,0.000,1737549846.352
757,53.223,-1.953,-24.902,604.004,0.000,1737549846.356
758,-0.977,-22.461,-21.973,97.656,0.000,1737549846.360
759,-80.566,-34.180,-22.461,-848.145,0.000,1737549846.363
760,-93.262,-19.043,-28.809,-843.262,0.000,1737549846.367
761,15.137,-15.625,-15.137,225.098,0.000,1737549846.371
762,74.707,-10.742,-10.742,962.402,0.000,1737549846.375
763,-19.043,0.488,-24.414,375.488,0.000,1737549846.379
764,-82.520,-10.254,-25.391,-750.488,0.000,1737549846.382
765,-67.871,-19.531,-33.691,-918.457,0.000,1737549846.386
766,-16.602,-26.855,-40.527,-59.082,0.000,1737549846.390
767,28.320,-27.344,-19.043,734.863,0.000,1737549846.394
768,7.324,-11.230,-3.906,504.883,0.000,1737549846.399
769,-43.945,-1.465,-11.230,-603.516,0.000,1737549846.403
770,-44.922,-5.859,-2.441,-845.215,0.000,1737549846.407
771,-7.812,-8.301,-0.488,173.340,0.000,1737549846.410
772,49.805,-2.441,-10.254,940.430,0.000,1737549846.414
773,51.270,-19.043,-18.066,827.148,0.000,1737549846.418
774,-69.824,-22.949,-15.137,-266.602,0.000,1737549846.422
775,-111.816,-0.977,-24.902,-899.414,0.000,1737549846.426
776,-12.695,-1.465,-37.598,-80.566,0.000,1737549846.429
777,50.293,-19.043,-24.414,825.195,0.000,1737549846.433
778,-6.348,-16.113,-9.766,779.785,0.000,1737549846.437
779,-60.547,-9.277,2.930,-340.820,0.000,1737549846.441
780,-60.547,-19.531,-1.953,-1000.000,0.000,1737549846.446
781,-21.484,-18.555,-7.812,-303.223,0.000,1737549846.450
782,14.648,-4.883,-21.973,594.238,0.000,1737549846.453
783,35.156,-12.207,-23.438,650.879,0.000,1737549846.457
784,-26.855,-22.949,-14.160,-314.941,0.000,1737549846.461
785,-108.887,-18.066,-31.250,-1000.000,0.000,1737549846.465
786,-66.895,-4.395,-23.438,-515.625,0.000,1737549846.469
787,19.531,-9.766,-3.906,277.832,0.000,1737549846.473
788,42.969,-11.719,-0.488,468.750,0.000,1737549846.476
789,-20.020,0.488,-7.324,-307.129,0.000,1737549846.480
790,-75.195,-7.812,-23.926,-1000.000,0.000,1737549846.484
791,-33.691,-19.531,-24.902,-665.039,0.000,1737549846.488
792,33.691,-23.438,-19.531,236.816,0.000,1737549846.493
793,49.805,-29.297,-19.043,648.926,0.000,1737549846.497
794,-8.789,-16.113,-15.625,-71.777,0.000,1737549846.500
795,-76.172,-1.953,-2.441,-998.047,0.000,1737549846.504
796,-37.598,-3.418,-1.465,-622.070,0.000,1737549846.508
797,26.855,0.488,-15.137,445.312,0.000,1737549846.512
798,48.340,-3.418,-19.043,903.809,0.000,1737549846.516
799,-20.020,-14.160,-12.695,237.793,0.000,1737549846.519
800,-142.578,-16.602,-23.926,-845.703,0.000,1737549846.523
801,-118.164,-22.949,-30.762,-654.297,0.000,1737549846.527
802,32.227,-29.297,-7.324,421.875,0.000,1737549846.531
803,100.586,-22.461,-3.906,926.758,0.000,1737549846.535
804,38.574,-12.207,-14.648,406.738,0.000,1737549846.539
805,-62.988,-17.090,-13.672,-716.309,0.000,1737549846.543
806,-69.336,-21.973,-21.973,-837.402,0.000,1737549846.547
807,-10.254,-11.230,-26.367,62.988,0.000,1737549846.551
808,33.691,-8.789,-25.391,618.652,0.000,1737549846.555
809,27.344,-8.301,-33.203,248.535,0.000,1737549846.559
810,-54.199,-9.277,-26.367,-717.285,0.000,1737549846.562
811,-83.008,-12.695,-17.090,-924.316,0.000,1737549846.566
812,-28.809,-12.695,-8.789,-178.711,0.000,1737549846.570
813,-2.930,-7.812,-5.859,417.969,0.000,1737549846.574
814,-67.383,-11.719,-16.602,-76.660,0.000,1737549846.578
815,-80.078,-25.879,-30.762,-923.340,0.000,1737549846.581
816,-62.988,-33.691,-34.180,-975.586,0.000,1737549846.586
817,-37.109,-25.879,-38.574,-426.758,0.000,1737549846.590
818,47.852,-10.254,-32.227,231.934,0.000,1737549846.594
819,33.203,-19.531,-13.184,170.898,0.000,1737549846.598
820,-45.898,-26.855,-17.090,-671.387,0.000,1737549846.601
821,-79.590,-20.020,-19.531,-1000.000,0.000,1737549846.605
822,-23.926,-8.301,-17.090,-319.336,0.000,1737549846.609
823,43.457,-5.859,-10.742,458.984,0.000,1737549846.613
824,37.109,-13.184,-6.836,440.430,0.000,1737549846.617
825,-35.645,-15.137,-13.184,-448.730,0.000,1737549846.620
826,-77.637,-25.879,-23.438,-1000.000,0.000,1737549846.624
827,-32.227,-31.250,-24.902,-393.555,0.000,1737549846.628
828,21.973,-14.648,-20.020,588.379,0.000,1737549846.633
829,26.855,0.000,-18.066,809.082,0.000,1737549846.637
830,-43.945,-9.766,-16.113,38.574,0.000,1737549846.640
831,-130.371,-16.602,-3.906,-739.746,0.000,1737549846.644
832,-65.430,-6.836,1.953,-342.773,0.000,1737549846.648
833,59.570,-5.371,-5.371,570.312,0.000,1737549846.652
834,48.340,-25.879,-11.230,853.516,0.000,1737549846.656
835,-62.988,-38.574,-12.695,-47.852,0.000,1737549846.660
836,-95.215,-32.227,-27.832,-993.164,0.000,1737549846.663
837,-28.320,-20.508,-32.715,-546.875,0.000,1737549846.667
838,24.414,-8.789,-22.461,289.062,0.000,1737549846.671
839,34.668,-4.395,-11.230,494.629,0.000,1737549846.675
840,-23.926,-12.695,-13.672,-166.016,0.000,1737549846.680
841,-79.102,-13.672,-22.949,-1000.000,0.000,1737549846.684
842,-69.336,-7.812,-7.324,-793.457,0.000,1737549846.688
843,-5.371,-16.113,-6.348,115.234,0.000,1737549846.691
844,69.336,-23.926,-25.879,562.012,0.000,1737549846.695
845,22.949,-17.090,-20.996,33.691,0.000,1737549846.699
846,-70.312,-17.578,-18.066,-825.195,0.000,1737549846.703
847,-67.871,-32.715,-19.043,-881.348,0.000,1737549846.707
848,15.137,-17.578,-11.230,-177.246,0.000,1737549846.711
849,48.828,0.000,-13.184,350.098,0.000,1737549846.714
850,-12.207,-8.789,-21.484,47.852,0.000,1737549846.718
851,-84.961,-15.137,-20.508,-819.824,0.000,1737549846.722
852,-77.637,-13.672,-15.137,-830.566,0.000,1737549846.727
853,-17.578,-9.277,-19.531,-91.309,0.000,1737549846.731
854,23.926,-13.672,-23.438,446.777,0.000,1737549846.735
855,-11.719,-43.945,-13.184,118.652,0.000,1737549846.739
856,-79.590,-62.988,-32.227,-827.637,0.000,1737549846.742
857,-74.219,-27.344,-40.039,-945.312,0.000,1737549846.746
858,-27.832,-1.953,-11.719,-243.652,0.000,1737549846.750
859,-0.488,-1.465,-7.324,378.906,0.000,1737549846.754
860,-0.488,-8.789,-8.789,82.031,0.000,1737549846.758
861,-42.480,-18.066,-1.465,-771.484,0.000,1737549846.761
862,-80.078,-16.602,-10.742,-1000.000,0.000,1737549846.765
863,-56.152,-23.926,-25.879,-571.289,0.000,1737549846.769
864,18.555,-21.484,-41.504,141.113,0.000,1737549846.774
865,21.484,-4.395,-38.086,316.406,0.000,1737549846.778
866,-30.762,-27.344,-20.996,-487.305,0.000,1737549846.782
867,-64.453,-36.621,-24.414,-1000.000,0.000,1737549846.786
868,-40.039,-5.859,-31.250,-626.953,0.000,1737549846.789
869,42.480,0.488,-9.766,267.578,0.000,1737549846.793
870,65.430,-9.277,-4.395,482.910,0.000,1737549846.797
871,-31.250,-16.113,-26.367,-462.402,0.000,1737549846.801
872,-77.637,-15.137,-24.902,-1000.000,0.000,1737549846.805
873,-58.594,-12.207,-16.602,-479.492,0.000,1737549846.808
874,-12.207,-15.137,-28.320,281.250,0.000,1737549846.812
875,28.809,-20.996,-26.367,455.078,0.000,1737549846.816
876,-17.090,-27.344,-19.531,-279.785,0.000,1737549846.821
877,-71.777,-18.555,-28.809,-1000.000,0.000,1737549846.825
878,-71.777,-12.695,-28.320,-586.426,0.000,1737549846.829
879,29.785,-11.719,-16.113,368.652,0.000,1737549846.832
880,99.609,-11.230,-6.348,771.973,0.000,1737549846.836
881,7.812,-17.578,-3.418,120.605,0.000,1737549846.840
882,-94.727,-17.578,-10.742,-906.250,0.000,1737549846.844
883,-82.520,-13.184,-22.949,-701.172,0.000,1737549846.848
884,-14.160,-15.137,-17.578,191.895,0.000,1737549846.852
885,7.812,-25.879,-3.906,625.000,0.000,1737549846.855
886,3.418,-19.531,-14.160,80.078,0.000,1737549846.859
887,-35.156,-9.766,-24.414,-896.484,0.000,1737549846.863
888,-55.664,3.418,-20.996,-749.023,0.000,1737549846.868
889,7.812,1.953,-11.230,220.215,0.000,1737549846.872
890,67.383,-5.371,-6.348,733.398,0.000,1737549846.875
891,31.738,-16.113,-9.766,251.953,0.000,1737549846.879
892,-59.570,-27.832,-12.207,-788.574,0.000,1737549846.883
893,-79.102,-30.273,-11.230,-727.051,0.000,1737549846.887
894,0.488,-27.344,-4.395,328.613,0.000,1737549846.891
895,56.641,-8.789,-10.742,900.879,0.000,1737549846.895
896,12.207,-8.789,-21.484,519.043,0.000,1737549846.898
897,-66.895,-22.949,-23.926,-523.926,0.000,1737549846.902
898,-83.496,-18.066,-28.809,-644.043,0.000,1737549846.906
899,-32.715,-17.578,-27.832,356.934,0.000,1737549846.910
900,48.828,-20.508,-29.297,989.746,0.000,1737549846.915
901,18.555,-26.855,-22.461,824.219,0.000,1737549846.918
902,-69.336,-31.738,-5.859,-5.371,0.000,1737549846.922
903,-76.660,-14.648,-8.789,-270.508,0.000,1737549846.926
904,-27.832,-6.836,-11.719,513.184,0.000,1737549846.930
905,36.133,-17.090,-30.762,999.512,0.000,1737549846.934
906,35.645,-33.691,-37.598,843.262,0.000,1737549846.937
907,-42.969,-40.039,-20.996,-104.492,0.000,1737549846.941
908,-84.961,-32.715,-26.367,-674.316,0.000,1737549846.945
909,-27.832,-20.996,-18.555,62.988,0.000,1737549846.949
910,38.574,-13.672,-9.277,859.863,0.000,1737549846.953
911,6.836,-5.859,-18.555,806.641,0.000,1737549846.957
912,-49.805,3.418,-24.902,-183.594,0.000,1737549846.961
913,-81.543,-3.418,-19.043,-831.543,0.000,1737549846.965
914,-70.312,-12.695,-23.438,-158.691,0.000,1737549846.969
915,-18.066,-20.996,-37.109,730.469,0.000,1737549846.973
916,42.480,-19.043,-28.809,903.809,0.000,1737549846.977
917,6.836,-24.902,-10.254,121.094,0.000,1737549846.980
918,-81.543,-41.992,-15.137,-636.230,0.000,1737549846.984
919,-56.152,-31.250,-41.992,-134.766,0.000,1737549846.988
920,16.113,-12.695,-29.297,704.590,0.000,1737549846.992
921,44.434,-7.812,-3.906,977.051,0.000,1737549846.996
922,-9.766,-5.859,-17.578,271.973,0.000,1737549847.000
923,-90.820,-6.348,-29.297,-698.730,0.000,1737549847.003
924,-74.707,-12.207,-19.043,-225.586,0.000,1737549847.008
925,18.066,-23.926,-19.043,763.672,0.000,1737549847.012
926,79.590,-23.438,-13.672,999.512,0.000,1737549847.016
927,13.672,-13.672,8.789,392.090,0.000,1737549847.020
928,-101.074,-8.789,0.000,-585.938,0.000,1737549847.023
929,-83.008,-10.742,-18.555,-304.688,0.000,1737549847.027
930,8.301,-23.438,-11.230,628.418,0.000,1737549847.031
931,27.832,-10.254,-16.602,931.152,0.000,1737549847.035
932,-13.672,-1.465,-22.461,286.621,0.000,1737549847.039
933,-58.594,-22.461,-23.438,-754.883,0.000,1737549847.042
934,-44.922,-26.855,-30.273,-534.668,0.000,1737549847.046
935,-1.953,-12.695,-16.602,440.918,0.000,1737549847.050
936,31.738,0.977,-0.977,854.492,0.000,1737549847.055
937,-0.977,0.000,-4.883,426.758,0.000,1737549847.059
938,-76.172,-11.230,-9.766,-530.762,0.000,1737549847.063
939,-82.031,-17.090,-13.672,-540.527,0.000,1737549847.067
940,-25.391,-22.949,-20.020,174.316,0.000,1737549847.070
941,37.598,-25.879,-31.250,660.645,0.000,1737549847.074
942,49.316,-22.461,-27.832,473.633,0.000,1737549847.078
943,-51.270,-16.113,-19.531,-606.445,0.000,1737549847.082
944,-99.609,-13.672,-14.648,-886.230,0.000,1737549847.086
945,0.488,-14.648,-1.953,37.109,0.000,1737549847.090
946,61.523,-3.418,1.953,747.070,0.000,1737549847.093
947,30.762,12.695,0.488,593.750,0.000,1737549847.097
948,-56.641,4.883,-23.438,-450.684,0.000,1737549847.102
949,-92.285,-16.113,-27.344,-942.383,0.000,1737549847.106
950,-32.715,-23.926,-12.207,-58.105,0.000,1737549847.110
951,45.410,-20.508,-14.160,770.996,0.000,1737549847.114
952,65.430,-21.973,-17.090,669.434,0.000,1737549847.117
953,-17.578,-18.066,-18.555,-206.055,0.000,1737549847.121
954,-68.848,-5.859,-13.184,-741.699,0.000,1737549847.125
955,-33.203,-19.043,8.789,-120.605,0.000,1737549847.129
956,8.789,-17.090,6.836,641.113,0.000,1737549847.133
957,1.465,-11.230,-7.812,663.574,0.000,1737549847.137
958,-77.148,-32.715,-9.277,-242.676,0.000,1737549847.140
959,-104.004,-42.480,-27.344,-1000.000,0.000,1737549847.144
960,-36.621,-32.715,-30.273,-442.383,0.000,1737549847.149
961,18.066,-26.367,-34.180,507.812,0.000,1737549847.153
962,38.574,-26.855,-38.086,710.449,0.000,1737549847.157
963,-0.488,-20.508,-14.648,-1.465,0.000,1737549847.161
964,-79.102,-2.441,-0.977,-756.348,0.000,1737549847.164
965,-33.203,-4.395,2.930,-228.027,0.000,1737549847.168
966,35.645,-15.625,-11.719,668.945,0.000,1737549847.172
967,26.367,-14.648,-23.926,753.418,0.000,1737549847.176
968,-17.578,-11.719,-14.160,18.066,0.000,1737549847.180
969,-78.613,-29.785,-14.160,-907.715,0.000,1737549847.184
970,-71.289,-38.574,-22.461,-628.906,0.000,1737549847.187
971,-16.113,-22.461,-28.809,355.469,0.000,1737549847.191
972,28.320,0.977,-17.090,793.945,0.000,1737549847.196
973,22.461,6.836,-3.906,219.238,0.000,1737549847.200
974,-59.570,-17.090,-15.625,-838.379,0.000,1737549847.204
975,-96.191,-31.738,-18.555,-737.305,0.000,1737549847.207
976,-9.766,-25.391,-13.672,268.066,0.000,1737549847.211
977,54.688,-25.879,-18.555,833.984,0.000,1737549847.215
978,16.602,-20.996,-25.391,318.848,0.000,1737549847.219
979,-75.684,-20.508,-17.090,-785.156,0.000,1737549847.223
980,-111.816,-15.137,-12.695,-754.395,0.000,1737549847.227
981,-7.324,-1.465,-16.113,262.695,0.000,1737549847.230
982,65.430,-14.648,-13.672,879.883,0.000,1737549847.234
983,41.992,-14.648,-6.836,580.566,0.000,1737549847.238
984,-33.691,6.836,5.859,-404.297,0.000,1737549847.243
985,-78.125,1.953,-2.930,-652.832,0.000,1737549847.247
986,-32.715,-2.441,-14.648,168.945,0.000,1737549847.251
987,24.902,3.418,-28.320,750.488,0.000,1737549847.254
988,31.250,-7.324,-24.902,481.934,0.000,1737549847.258
989,-21.973,-15.137,-7.324,-375.000,0.000,1737549847.262
990,-56.152,-13.184,-15.137,-616.699,0.000,1737549847.266
991,-27.344,-25.879,-16.113,146.484,0.000,1737549847.270
992,28.809,-35.645,0.977,848.633,0.000,1737549847.274
993,28.809,-20.508,15.625,751.465,0.000,1737549847.277
994,-56.152,-13.184,4.883,-248.047,0.000,1737549847.281
995,-112.793,-12.207,-10.742,-740.234,0.000,1737549847.285
996,-63.965,-4.395,-10.254,63.965,0.000,1737549847.290
997,57.617,1.465,-12.695,871.094,0.000,1737549847.294
998,83.008,-2.930,-33.203,787.109,0.000,1737549847.297
999,-39.551,-16.602,-50.293,-252.441,0.000,1737549847.301
1000,-100.098,-27.344,-25.879,-928.223,0.000,1737549847.305
1001,-23.438,-20.996,10.742,-106.445,0.000,1737549847.309
1002,44.922,-12.695,17.578,878.418,0.000,1737549847.313
1003,45.898,-4.883,1.953,847.168,0.000,1737549847.317
1004,-26.367,4.395,-11.230,-168.945,0.000,1737549847.320
1005,-105.469,1.465,-11.719,-892.090,0.000,1737549847.324
1006,-66.406,-10.254,-15.625,-222.656,0.000,1737549847.328
1007,24.414,-24.902,-36.133,726.562,0.000,1737549847.332
1008,46.875,-38.086,-50.781,980.957,0.000,1737549847.336
1009,-9.277,-47.363,-46.387,160.156,0.000,1737549847.340
1010,-134.766,-34.668,-15.625,-806.152,0.000,1737549847.344
1011,-115.234,-12.207,6.348,-305.664,0.000,1737549847.348
1012,19.531,6.348,-1.465,671.875,0.000,1737549847.352
1013,48.340,5.859,-12.207,999.512,0.000,1737549847.356
1014,4.395,-8.789,-25.391,334.473,0.000,1737549847.359
1015,-69.824,-15.137,-29.785,-790.527,0.000,1737549847.363
1016,-63.477,-19.531,-18.066,-629.395,0.000,1737549847.367
1017,3.418,-31.738,-29.785,435.547,0.000,1737549847.371
1018,28.320,-32.227,-18.066,988.281,0.000,1737549847.375
1019,-15.137,-26.855,-1.953,375.000,0.000,1737549847.379
1020,-75.195,-24.414,-11.719,-701.660,0.000,1737549847.383
1021,-84.473,-21.484,-14.160,-659.668,0.000,1737549847.387
1022,-10.254,-11.230,-18.066,164.551,0.000,1737549847.391
1023,44.434,-19.043,-10.742,672.363,0.000,1737549847.395
1024,1.465,-21.484,-3.418,239.746,0.000,1737549847.398
1025,-84.961,-19.531,-13.672,-758.301,0.000,1737549847.402
1026,-82.031,-36.133,-25.879,-859.375,0.000,1737549847.406
1027,-7.324,-41.504,-14.160,-34.668,0.000,1737549847.410
1028,38.574,-16.113,0.488,629.395,0.000,1737549847.414
1029,14.160,-14.648,4.395,284.668,0.000,1737549847.418
1030,-60.059,-33.203,-3.906,-724.121,0.000,1737549847.421
1031,-104.980,-19.043,-23.926,-921.387,0.000,1737549847.425
1032,-29.297,-7.812,-40.039,7.324,0.000,1737549847.430
1033,77.148,-22.949,-21.484,914.551,0.000,1737549847.434
1034,38.086,-30.273,-5.371,715.332,0.000,1737549847.438
1035,-69.824,-19.531,-15.137,-437.500,0.000,1737549847.442
1036,-61.523,-20.996,-11.719,-832.031,0.000,1737549847.446
1037,20.508,-15.625,-3.906,160.156,0.000,1737549847.449
1038,62.988,-6.836,-5.371,965.820,0.000,1737549847.453
1039,42.480,-20.996,-15.625,836.914,0.000,1737549847.457
1040,-58.594,-35.156,-18.066,-126.465,0.000,1737549847.461
1041,-110.352,-21.484,-22.461,-772.461,0.000,1737549847.465
1042,-26.367,-0.488,-32.715,-64.941,0.000,1737549847.469
1043,-12.207,-0.488,-13.672,777.832,0.000,1737549847.472
1044,-14.648,-14.160,-0.977,802.246,0.000,1737549847.477
1045,-12.695,-20.508,-11.230,-62.988,0.000,1737549847.481
1046,-97.168,-21.484,-14.160,-780.273,0.000,1737549847.485
1047,-60.059,-35.645,-14.160,-250.977,0.000,1737549847.489
1048,24.414,-35.156,-25.879,618.164,0.000,1737549847.493
1049,58.594,-25.391,-20.020,843.750,0.000,1737549847.496
1050,5.859,-17.578,-13.672,-26.855,0.000,1737549847.500
1051,-82.520,-8.301,-27.832,-1000.000,0.000,1737549847.504
1052,-78.613,-9.766,-29.785,-713.379,0.000,1737549847.508
1053,6.348,-13.672,-9.766,226.074,0.000,1737549847.512
1054,43.457,-16.113,-11.719,634.277,0.000,1737549847.516
1055,-13.184,-15.625,-25.391,-160.156,0.000,1737549847.519
1056,-67.383,-15.137,-29.785,-1000.000,0.000,1737549847.524
1057,-46.387,-33.691,-31.250,-803.223,0.000,1737549847.528
1058,17.578,-42.969,-13.184,-79.590,0.000,1737549847.532
1059,33.691,-21.484,0.977,393.555,0.000,1737549847.536
1060,-37.598,-4.883,-15.625,-256.836,0.000,1737549847.540
1061,-98.145,-4.395,-27.832,-1000.000,0.000,1737549847.543
1062,-58.594,-8.789,-14.648,-708.496,0.000,1737549847.547
1063,20.020,-26.855,-15.625,80.566,0.000,1737549847.551
1064,30.273,-29.785,-39.551,520.996,0.000,1737549847.555
1065,8.301,-12.695,-40.039,131.348,0.000,1737549847.559
1066,-58.105,-13.184,-38.086,-814.453,0.000,1737549847.563
1067,-79.590,-28.809,-31.738,-661.621,0.000,1737549847.566
1068,24.414,-29.785,-16.602,474.121,0.000,1737549847.571
1069,58.594,-17.090,-13.184,999.512,0.000,1737549847.575
1070,7.812,-15.137,-2.930,687.988,0.000,1737549847.579
1071,-63.965,-18.066,2.441,-345.703,0.000,1737549847.583
1072,-85.449,-20.996,-12.207,-531.738,0.000,1737549847.586
1073,5.859,-24.414,-27.832,437.988,0.000,1737549847.590
1074,81.543,-22.949,-37.109,999.512,0.000,1737549847.594
1075,20.508,-20.996,-32.227,706.055,0.000,1737549847.598
1076,-112.793,-30.762,-30.273,-468.262,0.000,1737549847.602
1077,-122.559,-27.344,-23.926,-898.926,0.000,1737549847.606
1078,-5.859,-12.207,-8.789,112.305,0.000,1737549847.609
1079,62.012,-13.672,-9.277,849.121,0.000,1737549847.613
1080,46.387,-11.719,-14.160,526.367,0.000,1737549847.618
1081,-56.641,-20.020,-28.320,-511.719,0.000,1737549847.622
1082,-125.977,-20.996,-33.203,-1000.000,0.000,1737549847.626
1083,-39.551,-13.672,-13.672,-371.094,0.000,1737549847.629
1084,32.227,-18.066,-12.695,419.434,0.000,1737549847.633
1085,-48.340,-23.926,-17.578,248.535,0.000,1737549847.637
1086,-108.887,-23.438,-20.020,-614.258,0.000,1737549847.641
1087,-98.145,-37.598,-22.949,-1000.000,0.000,1737549847.645
1088,-80.078,-42.969,-13.672,-611.328,0.000,1737549847.649
1089,-33.691,-35.156,-7.812,150.391,0.000,1737549847.652
1090,-19.531,-30.273,8.789,376.465,0.000,1737549847.656
1091,-59.082,-31.738,19.043,-359.863,0.000,1737549847.660
1092,-99.609,-42.480,10.742,-1000.000,0.000,1737549847.665
1093,-52.734,-43.457,-7.324,-447.754,0.000,1737549847.669
1094,19.531,-38.086,-13.672,656.250,0.000,1737549847.672
1095,27.344,-41.504,-7.324,965.332,0.000,1737549847.676
1096,-59.570,-46.875,-22.461,75.195,0.000,1737549847.680
1097,-137.695,-36.133,-20.508,-809.082,0.000,1737549847.684
1098,-97.656,-27.344,-5.371,-333.496,0.000,1737549847.688
1099,-25.879,-22.949,-1.953,501.465,0.000,1737549847.692
1100,19.043,-17.578,0.000,829.590,0.000,1737549847.695
1101,-36.133,-36.133,-7.812,130.859,0.000,1737549847.699
1102,-104.004,-44.922,-7.812,-940.430,0.000,1737549847.703
1103,-63.965,-29.297,-4.395,-714.355,0.000,1737549847.707
1104,0.488,-19.531,-21.973,178.711,0.000,1737549847.711
1105,-24.902,-19.531,-25.879,463.867,0.000,1737549847.715
1106,-58.594,-20.020,-6.348,-232.910,0.000,1737549847.719
1107,-36.133,-24.902,9.766,-1000.000,0.000,1737549847.723
1108,-39.551,-34.668,9.277,-863.281,0.000,1737549847.727
1109,6.348,-12.695,-5.371,-165.039,0.000,1737549847.731
1110,62.988,-10.254,-17.578,487.305,0.000,1737549847.735
1111,30.762,-30.273,-24.414,122.559,0.000,1737549847.738
1112,-42.969,-27.344,-15.137,-878.906,0.000,1737549847.742
1113,-56.152,-19.043,-1.465,-870.117,0.000,1737549847.746
1114,-6.348,-32.715,-7.324,-6.836,0.000,1737549847.750
1115,36.133,-39.062,-13.672,625.977,0.000,1737549847.754
1116,-6.836,-22.949,-11.719,308.105,0.000,1737549847.758
1117,-83.984,-18.555,-13.184,-705.078,0.000,1737549847.762
1118,-85.938,-16.602,-16.113,-836.426,0.000,1737549847.766
1119,-22.949,-12.207,-10.254,62.012,0.000,1737549847.770
1120,61.035,-8.789,-14.160,769.043,0.000,1737549847.774
1121,43.945,-15.137,-21.484,668.945,0.000,1737549847.777
1122,-58.105,-26.855,-9.277,-389.160,0.000,1737549847.781
1123,-71.289,-20.996,-6.836,-942.383,0.000,1737549847.785
1124,-9.766,-19.043,-10.742,-166.504,0.000,1737549847.789
1125,21.973,-25.391,-14.648,626.953,0.000,1737549847.793
1126,2.441,-19.531,-18.555,501.465,0.000,1737549847.797
1127,-44.434,-18.555,-13.672,-477.051,0.000,1737549847.800
1128,-99.609,-18.555,-5.371,-961.426,0.000,1737549847.805
1129,-44.922,-15.625,-1.465,-194.336,0.000,1737549847.809
1130,61.523,-8.789,-15.625,618.164,0.000,1737549847.813
1131,56.641,-6.348,-22.949,618.652,0.000,1737549847.817
1132,-27.832,-18.066,-2.930,-283.691,0.000,1737549847.821
1133,-89.844,-18.066,-10.742,-993.652,0.000,1737549847.824
1134,-43.945,-26.855,-14.648,-296.387,0.000,1737549847.828
1135,33.203,-25.391,-4.395,565.918,0.000,1737549847.832
1136,15.625,-11.719,-17.578,513.672,0.000,1737549847.836
1137,-56.641,-12.207,-37.598,-347.656,0.000,1737549847.840
1138,-83.984,-22.949,-30.762,-1000.000,0.000,1737549847.844
1139,-54.199,-29.297,-17.090,-610.840,0.000,1737549847.848
1140,19.043,-14.648,-20.508,282.227,0.000,1737549847.852
1141,47.363,-8.301,-17.578,513.672,0.000,1737549847.856
1142,-15.625,-24.902,-20.996,-251.953,0.000,1737549847.860
1143,-83.496,-29.297,-16.113,-1000.000,0.000,1737549847.864
1144,-83.984,-33.203,-7.324,-732.910,0.000,1737549847.868
1145,-3.906,-39.551,-17.578,248.047,0.000,1737549847.872
1146,57.129,-25.879,-22.461,573.730,0.000,1737549847.875
1147,-7.324,-15.137,-5.859,-265.625,0.000,1737549847.879
1148,-102.539,-18.555,-5.859,-1000.000,0.000,1737549847.883
1149,-89.844,-25.391,-18.555,-810.059,0.000,1737549847.887
1150,-2.441,-20.996,-18.555,28.320,0.000,1737549847.891
1151,43.457,-23.438,-22.949,557.129,0.000,1737549847.895
1152,-9.766,-19.531,-13.184,10.254,0.000,1737549847.899
1153,-89.355,-11.719,-8.301,-888.672,0.000,1737549847.903
1154,-76.172,-24.902,-12.207,-832.520,0.000,1737549847.907
1155,-18.066,-11.719,1.953,39.062,0.000,1737549847.911
1156,24.414,-13.672,1.953,581.543,0.000,1737549847.915
1157,17.578,-29.297,-5.859,120.605,0.000,1737549847.919
1158,-48.828,-23.926,-15.137,-806.641,0.000,1737549847.922
1159,-75.684,-21.973,-33.691,-985.840,0.000,1737549847.926
1160,-34.180,-9.766,-35.156,-405.273,0.000,1737549847.930
1161,21.484,11.230,-26.367,248.047,0.000,1737549847.934
1162,13.184,7.812,-25.391,125.000,0.000,1737549847.938
1163,-83.984,6.836,-41.992,-727.051,0.000,1737549847.942
1164,-89.844,1.465,-50.293,-905.273,0.000,1737549847.946
1165,11.719,-13.672,-43.457,28.320,0.000,1737549847.950
1166,68.848,-4.883,-46.875,765.137,0.000,1737549847.954
1167,24.414,4.883,-47.852,443.848,0.000,1737549847.958
1168,-86.914,7.324,-42.969,-595.703,0.000,1737549847.962
1169,-125.488,4.395,-41.504,-909.180,0.000,1737549847.966
1170,-40.039,-1.465,-44.922,-78.613,0.000,1737549847.969
1171,32.227,-3.906,-35.645,596.680,0.000,1737549847.973
1172,7.812,-10.254,-32.227,401.367,0.000,1737549847.977
1173,-40.039,-12.695,-46.875,-528.320,0.000,1737549847.981
1174,-79.590,-11.230,-53.223,-1000.000,0.000,1737549847.985
1175,-47.363,-2.441,-42.480,-509.277,0.000,1737549847.989
1176,21.973,-3.906,-32.227,372.070,0.000,1737549847.993
1177,19.531,-2.930,-16.602,433.105,0.000,1737549847.997
1178,-66.406,-2.441,-20.508,-439.453,0.000,1737549848.001
1179,-92.285,-7.324,-39.062,-1000.000,0.000,1737549848.005
1180,-38.574,-21.484,-33.691,-751.465,0.000,1737549848.009
1181,32.227,-26.855,-24.902,62.500,0.000,1737549848.012
1182,47.852,-10.254,-29.785,395.508,0.000,1737549848.016
1183,-20.508,-4.883,-28.320,-409.180,0.000,1737549848.020
1184,-77.637,-10.742,-31.738,-1000.000,0.000,1737549848.024
1185,-36.133,-12.207,-37.598,-770.996,0.000,1737549848.028
1186,35.156,0.000,-36.621,4.395,0.000,1737549848.032
1187,61.035,-2.930,-20.020,456.543,0.000,1737549848.035
1188,26.367,-5.371,-20.996,-151.367,0.000,1737549848.040
1189,-33.691,-0.977,-18.555,-974.609,0.000,1737549848.044
1190,-27.832,-7.324,-1.465,-628.418,0.000,1737549848.048
1191,30.762,-6.836,-9.277,328.613,0.000,1737549848.052
1192,70.801,-13.184,-14.648,734.375,0.000,1737549848.055
1193,43.457,-7.812,-17.578,288.086,0.000,1737549848.059
1194,-25.391,-11.230,-17.090,-573.730,0.000,1737549848.063
1195,-45.410,-36.133,-9.277,-632.324,0.000,1737549848.067
1196,15.137,-24.414,-26.855,200.195,0.000,1737549848.071
1197,66.406,7.324,-22.461,877.930,0.000,1737549848.075
1198,28.809,7.812,-6.836,400.879,0.000,1737549848.078
1199,-42.480,-2.930,-13.184,-791.504,0.000,1737549848.082
1200,-64.941,-7.812,-13.184,-854.492,0.000,1737549848.087
1201,4.395,-0.488,-17.090,17.578,0.000,1737549848.091
1202,59.570,-3.418,-22.461,621.094,0.000,1737549848.094
1203,45.898,-26.367,-20.020,450.195,0.000,1737549848.098
1204,-33.203,-21.484,-33.691,-577.637,0.000,1737549848.102
1205,-67.383,-20.996,-32.715,-807.129,0.000,1737549848.106
1206,19.531,-29.785,-18.066,165.039,0.000,1737549848.110
1207,71.289,-20.508,-15.625,774.902,0.000,1737549848.114
1208,10.742,-18.066,-12.695,429.688,0.000,1737549848.118
1209,-87.891,-20.020,-2.441,-668.945,0.000,1737549848.121
1210,-89.355,-16.113,2.930,-884.766,0.000,1737549848.125
1211,-30.762,-14.648,-22.461,69.336,0.000,1737549848.129
1212,35.156,-19.531,-44.922,845.215,0.000,1737549848.133
1213,53.711,-35.645,-23.926,886.230,0.000,1737549848.137
1214,-33.691,-27.344,5.859,21.973,0.000,1737549848.141
1215,-83.008,-13.672,7.812,-523.438,0.000,1737549848.145
1216,-14.648,-21.484,1.465,230.957,0.000,1737549848.149
1217,52.734,-14.648,-1.465,901.855,0.000,1737549848.153
1218,-9.277,2.930,-14.160,960.449,0.000,1737549848.157
1219,-68.848,-17.090,-29.297,-35.156,0.000,1737549848.160
1220,-60.547,-40.039,-41.992,-1000.000,0.000,1737549848.164
1221,-19.531,-28.320,-30.273,-375.977,0.000,1737549848.168
1222,33.203,-17.578,-12.695,676.758,0.000,1737549848.172
1223,45.410,-14.648,-4.395,854.980,0.000,1737549848.176
1224,-19.043,-12.207,0.977,-136.230,0.000,1737549848.181
1225,-103.027,-11.719,-0.977,-1000.000,0.000,1737549848.184
1226,-63.477,-19.531,-5.371,-556.641,0.000,1737549848.188
1227,28.809,-13.184,-20.996,375.488,0.000,1737549848.192
1228,50.293,-26.855,-43.457,554.688,0.000,1737549848.196
1229,-26.855,-34.668,-26.367,-267.578,0.000,1737549848.200
1230,-88.867,-10.254,-13.672,-1000.000,0.000,1737549848.204
1231,-51.270,-5.859,-9.766,-669.434,0.000,1737549848.207
1232,7.812,-6.836,-3.418,233.398,0.000,1737549848.211
1233,43.945,-10.254,-2.441,608.887,0.000,1737549848.215
1234,-10.254,-28.320,-3.906,-47.852,0.000,1737549848.219
1235,-74.219,-32.227,-12.207,-963.379,0.000,1737549848.223
1236,-52.246,-22.949,-18.555,-706.055,0.000,1737549848.228
1237,11.719,-12.207,-34.180,314.453,0.000,1737549848.231
1238,49.805,-20.020,-43.945,812.012,0.000,1737549848.235
1239,0.000,-20.508,-13.184,342.285,0.000,1737549848.239
1240,-88.867,-7.324,11.719,-602.051,0.000,1737549848.243
1241,-70.801,-19.043,-16.113,-578.613,0.000,1737549848.247
1242,-4.395,-21.973,-29.785,305.176,0.000,1737549848.251
1243,41.992,-17.090,-10.254,920.898,0.000,1737549848.255
1244,1.465,-20.020,-7.324,554.688,0.000,1737549848.258
1245,-120.117,-20.508,-18.066,-628.906,0.000,1737549848.262
1246,-133.301,-31.250,-20.508,-772.461,0.000,1737549848.266
1247,-12.695,-16.602,-10.742,347.656,0.000,1737549848.270
1248,77.148,0.000,-8.789,999.512,0.000,1737549848.275
1249,47.363,-22.461,-9.766,587.402,0.000,1737549848.278
1250,-57.129,-37.109,-23.926,-637.695,0.000,1737549848.282
1251,-70.801,-9.277,-37.598,-939.941,0.000,1737549848.286
1252,-24.414,4.395,-27.832,-105.469,0.000,1737549848.290
1253,1.465,-3.418,-19.531,712.891,0.000,1737549848.294
1254,11.719,-8.301,-24.902,738.770,0.000,1737549848.298
1255,-47.363,-34.180,-11.230,-352.539,0.000,1737549848.301
1256,-87.891,-44.922,-15.625,-1000.000,0.000,1737549848.305
1257,-33.691,-17.578,-34.180,-143.066,0.000,1737549848.309
1258,51.758,-7.324,-28.320,851.562,0.000,1737549848.313
1259,47.363,-20.508,-10.254,788.086,0.000,1737549848.317
1260,-54.688,-32.227,-9.766,-314.453,0.000,1737549848.321
1261,-95.703,-22.461,-41.016,-925.781,0.000,1737549848.325
1262,-33.203,-13.184,-33.691,-91.309,0.000,1737549848.329
1263,-1.465,-16.602,-5.371,816.895,0.000,1737549848.333
1264,22.461,-1.465,-9.277,858.887,0.000,1737549848.337
1265,-2.930,-2.441,-9.277,57.617,0.000,1737549848.341
1266,-76.172,-17.578,-2.930,-567.383,0.000,1737549848.345
1267,-14.160,-11.719,-15.137,-107.422,0.000,1737549848.348
1268,62.500,-15.625,-24.902,636.230,0.000,1737549848.352
1269,48.340,-30.762,-30.762,773.438,0.000,1737549848.356
1270,-33.691,-36.133,-36.133,-75.195,0.000,1737549848.360
1271,-97.168,-26.367,-23.438,-937.500,0.000,1737549848.364
1272,-53.223,-7.812,-26.367,-164.551,0.000,1737549848.368
1273,44.434,1.465,-14.648,885.254,0.000,1737549848.372
1274,62.988,9.277,-1.465,999.512,0.000,1737549848.376
1275,4.395,-1.465,-12.695,503.418,0.000,1737549848.380
1276,-41.504,-9.277,-19.531,-397.949,0.000,1737549848.384
1277,-25.879,-2.441,-15.625,47.363,0.000,1737549848.388
1278,12.695,-20.508,-7.812,913.086,0.000,1737549848.391
1279,47.363,-32.715,-17.090,999.512,0.000,1737549848.395
1280,20.508,-22.949,-17.090,344.727,0.000,1737549848.399
1281,-78.125,-13.184,-11.230,-786.621,0.000,1737549848.403
1282,-60.547,-6.836,-19.531,-625.977,0.000,1737549848.407
1283,26.855,-10.742,-22.461,412.109,0.000,1737549848.411
1284,68.359,-1.953,-15.137,934.082,0.000,1737549848.415
1285,8.789,0.000,-16.113,398.438,0.000,1737549848.419
1286,-101.562,-14.160,-21.973,-777.832,0.000,1737549848.423
1287,-83.008,-39.551,-29.297,-730.469,0.000,1737549848.427
1288,8.789,-50.293,-32.715,317.871,0.000,1737549848.431
1289,51.270,-18.555,-18.555,937.500,0.000,1737549848.434
1290,-0.488,-3.906,0.977,666.016,0.000,1737549848.438
1291,-79.590,-20.020,-7.812,-470.215,0.000,1737549848.442
1292,-82.520,-16.113,-32.715,-780.762,0.000,1737549848.446
1293,-4.883,-1.953,-35.645,115.723,0.000,1737549848.450
1294,25.391,-18.066,-24.902,820.801,0.000,1737549848.454
1295,-7.812,-40.527,-4.395,629.395,0.000,1737549848.457
1296,-64.453,-33.691,-1.465,-472.168,0.000,1737549848.462
1297,-91.797,-17.090,-7.812,-788.574,0.000,1737549848.466
1298,-12.695,-5.371,-8.301,137.695,0.000,1737549848.470
1299,47.852,-9.277,-24.902,817.871,0.000,1737549848.473
1300,26.855,-16.113,-26.367,622.559,0.000,1737549848.477
1301,-35.645,-3.418,-23.438,-352.051,0.000,1737549848.481
1302,-97.656,-8.301,-20.020,-841.797,0.000,1737549848.485
1303,-54.199,-29.785,-9.277,-77.148,0.000,1737549848.489
1304,29.785,-22.461,-17.090,794.922,0.000,1737549848.493
1305,41.504,-11.719,-14.648,904.297,0.000,1737549848.497
1306,-46.387,-14.648,-11.719,-0.488,0.000,1737549848.500
1307,-76.172,-7.324,-16.113,-644.043,0.000,1737549848.504
1308,-18.066,-11.719,-29.297,189.941,0.000,1737549848.509
1309,19.531,-10.742,-32.227,926.758,0.000,1737549848.513
1310,26.367,-6.836,-23.926,999.512,0.000,1737549848.516
1311,-24.902,-16.113,-15.137,430.176,0.000,1737549848.520
1312,-78.125,-22.461,-0.488,-395.996,0.000,1737549848.524
1313,-54.688,-20.996,-7.812,204.590,0.000,1737549848.528
1314,12.207,-16.113,-23.438,971.191,0.000,1737549848.532
1315,36.621,-5.859,-16.113,967.285,0.000,1737549848.536
1316,-13.184,-3.906,-2.441,358.887,0.000,1737549848.539
1317,-98.145,-20.020,-18.066,-549.316,0.000,1737549848.543
1318,-91.309,-20.508,-23.926,-256.348,0.000,1737549848.547
1319,3.906,-21.973,-26.367,669.922,0.000,1737549848.551
1320,43.945,-18.066,-25.879,999.512,0.000,1737549848.556
1321,-4.395,-10.254,-6.348,494.141,0.000,1737549848.560
1322,-88.379,-16.602,-6.836,-633.789,0.000,1737549848.563
1323,-125.977,-35.645,-10.742,-544.922,0.000,1737549848.567
1324,-9.766,-46.387,-17.090,512.207,0.000,1737549848.571
1325,85.938,-15.137,-13.672,999.512,0.000,1737549848.575
1326,38.086,-15.625,3.906,502.441,0.000,1737549848.579
1327,-57.129,-30.273,-12.695,-720.215,0.000,1737549848.583
1328,-106.934,-22.461,-32.715,-801.758,0.000,1737549848.586
1329,-36.133,-5.371,-3.906,209.961,0.000,1737549848.590
1330,20.020,-4.883,9.277,813.965,0.000,1737549848.594
1331,7.812,-13.672,2.930,471.191,0.000,1737549848.598
1332,-67.871,-9.766,-10.254,-582.031,0.000,1737549848.603
1333,-118.652,-23.926,-22.461,-723.145,0.000,1737549848.607
1334,-17.578,-61.035,-24.414,303.223,0.000,1737549848.610
1335,63.477,-56.641,-22.461,989.746,0.000,1737549848.614
1336,13.672,-13.184,-22.949,727.539,0.000,1737549848.618
1337,-67.871,-5.859,-16.113,-241.699,0.000,1737549848.622
1338,-98.633,-11.719,-21.973,-474.121,0.000,1737549848.626
1339,-38.086,-6.836,-33.691,435.547,0.000,1737549848.630
1340,10.742,-14.160,-18.555,988.770,0.000,1737549848.634
1341,5.859,-24.902,-20.020,958.496,0.000,1737549848.637
1342,-46.387,-39.551,-23.438,106.445,0.000,1737549848.641
1343,-87.891,-36.133,-19.531,-405.762,0.000,1737549848.645
1344,-22.949,-9.766,-5.859,559.570,0.000,1737549848.650
1345,33.203,4.883,-14.648,999.512,0.000,1737549848.654
1346,7.812,-5.371,-18.066,946.289,0.000,1737549848.657
1347,-57.617,-11.719,0.488,271.973,0.000,1737549848.661
1348,-83.496,-13.184,0.488,-265.625,0.000,1737549848.665
1349,-27.832,-27.832,-14.160,541.504,0.000,1737549848.669
1350,59.570,-45.898,-20.508,999.512,0.000,1737549848.673
1351,62.012,-25.391,-22.949,995.605,0.000,1737549848.677
1352,-29.297,-3.418,-24.414,457.520,0.000,1737549848.680
1353,-95.703,-20.508,-4.883,-333.008,0.000,1737549848.684
1354,-31.250,-19.043,9.766,272.949,0.000,1737549848.688
1355,52.734,-3.906,2.441,961.426,0.000,1737549848.692
1356,48.828,-19.043,-23.438,999.512,0.000,1737549848.697
1357,-3.418,-34.180,-21.973,535.156,0.000,1737549848.700
1358,-59.082,-24.902,-7.812,-247.559,0.000,1737549848.704
1359,-30.762,-20.508,-21.484,192.383,0.000,1737549848.708
1360,6.348,-24.902,-22.949,906.250,0.000,1737549848.712
1361,39.062,-7.812,-18.066,999.512,0.000,1737549848.716
1362,25.879,-8.789,-5.371,589.844,0.000,1737549848.720
1363,-112.793,-19.531,4.883,-358.398,0.000,1737549848.724
1364,-92.773,-2.441,-15.137,-46.875,0.000,1737549848.727
1365,49.316,-4.395,-19.043,825.195,0.000,1737549848.731
1366,70.801,-18.555,-8.301,999.512,0.000,1737549848.735
1367,18.066,-31.738,-20.508,659.668,0.000,1737549848.739
1368,-83.008,-24.902,-29.785,-314.453,0.000,1737549848.743
1369,-77.148,-16.113,-10.742,-98.145,0.000,1737549848.747
1370,-2.930,-18.066,-1.953,813.477,0.000,1737549848.751
1371,15.625,-4.395,-1.953,999.512,0.000,1737549848.755
1372,-0.488,0.000,-6.836,832.031,0.000,1737549848.759
1373,-60.547,-4.883,-11.719,137.207,0.000,1737549848.763
1374,-65.918,-8.789,-19.531,224.609,0.000,1737549848.767
1375,8.789,-14.160,-34.180,906.738,0.000,1737549848.770
1376,62.500,-20.020,-20.996,992.188,0.000,1737549848.774
1377,27.344,-27.832,-16.113,924.805,0.000,1737549848.778
1378,-64.941,-37.109,-32.227,389.648,0.000,1737549848.782
1379,-54.199,-35.156,-30.762,431.152,0.000,1737549848.786
1380,-14.648,-22.949,-22.461,980.469,0.000,1737549848.790
1381,0.488,-24.902,-22.949,956.055,0.000,1737549848.794
1382,24.414,-24.902,-13.184,999.512,0.000,1737549848.798
1383,-30.762,-7.812,-13.672,490.723,0.000,1737549848.802
1384,-62.988,-14.160,-11.230,144.531,0.000,1737549848.806
1385,-4.883,-25.879,-11.230,763.184,0.000,1737549848.810
1386,34.180,-18.066,-17.578,999.512,0.000,1737549848.813
1387,-5.371,-10.254,-24.414,914.551,0.000,1737549848.817
1388,-60.059,-8.789,-31.738,103.516,0.000,1737549848.821
1389,-80.566,-33.203,-22.461,-451.172,0.000,1737549848.825
1390,-42.480,-28.809,-10.254,382.324,0.000,1737549848.829
1391,10.254,-1.953,-4.883,977.539,0.000,1737549848.833
1392,21.484,-9.766,0.977,950.195,0.000,1737549848.837
1393,-47.852,-17.578,-5.859,130.371,0.000,1737549848.841
1394,-107.910,-9.277,-4.883,-648.438,0.000,1737549848.845
1395,-45.898,-14.648,-5.859,-20.996,0.000,1737549848.849
1396,9.277,-30.273,-38.574,755.371,0.000,1737549848.853
1397,17.578,-17.090,-32.715,830.566,0.000,1737549848.856
1398,-54.688,-8.301,-0.488,-73.730,0.000,1737549848.860
1399,-112.305,-30.762,-3.418,-1000.000,0.000,1737549848.864
1400,-46.387,-28.320,-2.441,-607.910,0.000,1737549848.868
1401,19.043,-15.625,-14.648,340.820,0.000,1737549848.872
1402,32.715,-19.043,-28.809,616.699,0.000,1737549848.876
1403,-25.879,-13.672,-24.902,-173.340,0.000,1737549848.880
1404,-82.520,-15.625,-17.578,-1000.000,0.000,1737549848.884
1405,-44.922,-13.672,-13.184,-668.945,0.000,1737549848.888
1406,10.742,-7.324,-17.090,241.211,0.000,1737549848.892
1407,50.781,-17.578,-18.066,601.562,0.000,1737549848.895
1408,-12.695,-19.043,-27.832,31.738,0.000,1737549848.899
1409,-83.984,-23.926,-18.066,-693.359,0.000,1737549848.903
1410,-39.062,-33.203,-18.555,-442.383,0.000,1737549848.907
1411,-17.578,-23.438,-15.137,276.855,0.000,1737549848.911
1412,14.160,-1.953,2.441,621.094,0.000,1737549848.915
1413,20.996,1.465,-7.812,-28.320,0.000,1737549848.919
1414,-77.148,-7.324,-24.414,-981.934,0.000,1737549848.922
1415,-71.289,-5.859,-31.250,-788.574,0.000,1737549848.926
1416,10.254,-14.160,-19.531,36.621,0.000,1737549848.931
1417,41.504,-17.578,-2.441,469.727,0.000,1737549848.935
1418,36.133,-20.508,-5.371,178.711,0.000,1737549848.939
1419,-42.969,-41.016,-18.555,-730.469,0.000,1737549848.943
1420,-87.891,-37.109,-31.250,-902.832,0.000,1737549848.946
1421,-7.324,-4.395,-26.367,36.133,0.000,1737549848.950
1422,62.012,7.812,-15.625,791.016,0.000,1737549848.954
1423,20.020,-12.695,-30.273,309.082,0.000,1737549848.958
1424,-68.848,-30.273,-29.785,-787.598,0.000,1737549848.962
1425,-99.121,-25.879,-5.371,-982.422,0.000,1737549848.966
1426,-47.363,-9.277,-4.883,-325.195,0.000,1737549848.969
1427,14.160,-32.227,-20.996,302.246,0.000,1737549848.973
1428,14.648,-48.340,-28.320,43.457,0.000,1737549848.978
1429,-45.898,-27.832,-24.414,-774.902,0.000,1737549848.982
1430,-87.402,-19.531,-20.508,-1000.000,0.000,1737549848.986
1431,-40.039,-20.508,-23.926,-512.207,0.000,1737549848.990
1432,17.578,-23.926,-20.508,170.898,0.000,1737549848.993
1433,33.203,-3.906,-10.742,250.488,0.000,1737549848.997
1434,-27.832,-4.883,-13.672,-504.883,0.000,1737549849.001
1435,-93.750,-28.320,-25.879,-1000.000,0.000,1737549849.005
1436,-83.496,-28.809,-14.160,-658.691,0.000,1737549849.009
1437,15.625,-19.531,-1.953,145.020,0.000,1737549849.013
1438,86.426,-20.508,-12.207,396.484,0.000,1737549849.016
1439,12.695,-23.926,-20.996,-447.266,0.000,1737549849.020
1440,-51.270,-13.672,-17.090,-1000.000,0.000,1737549849.025
1441,-35.156,-16.113,-20.508,-583.496,0.000,1737549849.029
1442,39.551,-21.484,-24.414,225.098,0.000,1737549849.033
1443,64.941,-6.348,-16.113,448.730,0.000,1737549849.036
1444,-16.602,-14.648,-15.137,-304.199,0.000,1737549849.040
1445,-66.895,-16.602,-26.367,-1000.000,0.000,1737549849.044
1446,-69.336,-23.438,-20.508,-528.320,0.000,1737549849.048
1447,13.672,-22.461,-4.883,327.148,0.000,1737549849.052
1448,61.523,-5.371,-6.836,658.691,0.000,1737549849.056
1449,-10.742,-6.348,-12.207,-64.453,0.000,1737549849.060
1450,-102.539,-17.090,-13.184,-1000.000,0.000,1737549849.063
1451,-68.359,-29.297,-23.438,-665.527,0.000,1737549849.067
1452,42.480,-25.879,-27.832,346.680,0.000,1737549849.072
1453,62.500,-26.855,-12.695,824.219,0.000,1737549849.076
1454,3.906,-25.879,-2.930,290.039,0.000,1737549849.080
1455,-70.801,-21.484,-8.789,-684.082,0.000,1737549849.083
1456,-75.195,-9.766,-10.742,-518.066,0.000,1737549849.087
1457,-12.695,-2.441,-20.020,486.816,0.000,1737549849.091
1458,47.852,0.488,-16.602,999.512,0.000,1737549849.095
1459,-5.859,-11.230,-21.973,496.094,0.000,1737549849.099
1460,-90.332,-36.621,-22.461,-748.047,0.000,1737549849.103
1461,-62.500,-30.273,-23.926,-747.559,0.000,1737549849.107
1462,12.695,-20.996,-27.832,289.062,0.000,1737549849.110
1463,43.457,-27.832,-3.906,828.613,0.000,1737549849.114
1464,5.371,-28.320,-3.906,356.934,0.000,1737549849.119
1465,-66.406,-18.555,-19.043,-718.262,0.000,1737549849.123
1466,-86.914,-19.043,-15.137,-916.992,0.000,1737549849.126
1467,-32.715,-15.137,-3.418,-125.000,0.000,1737549849.130
1468,19.531,-11.719,-4.395,549.805,0.000,1737549849.134
1469,22.461,-8.789,-16.113,331.055,0.000,1737549849.138
1470,-81.055,-14.160,-22.461,-639.648,0.000,1737549849.142
1471,-122.559,-32.715,-27.832,-1000.000,0.000,1737549849.146
1472,-52.734,-31.250,-29.297,-968.262,0.000,1737549849.150
1473,-13.184,-28.320,-16.113,-756.348,0.000,1737549849.153
1474,15.625,-19.531,-10.742,-741.211,0.000,1737549849.157
1475,-25.879,-8.789,-12.207,-992.188,0.000,1737549849.161
1476,-64.453,-26.367,-6.836,-1000.000,0.000,1737549849.166
1477,-57.617,-27.832,-13.672,-937.500,0.000,1737549849.169
1478,-19.043,-9.766,-32.227,-544.434,0.000,1737549849.173
1479,19.043,-2.930,-27.344,-329.102,0.000,1737549849.177
1480,-10.742,-17.578,-22.461,-752.930,0.000,1737549849.181
1481,-44.922,-21.973,-34.180,-1000.000,0.000,1737549849.185
1482,-40.527,-16.113,-10.254,-541.992,0.000,1737549849.189
1483,19.043,-31.250,2.441,258.301,0.000,1737549849.193
1484,69.824,-51.270,-13.184,352.539,0.000,1737549849.196
1485,-37.598,-35.645,-10.742,-458.496,0.000,1737549849.200
1486,-128.418,-1.953,-8.301,-1000.000,0.000,1737549849.204
1487,-59.570,-0.977,-26.367,-627.930,0.000,1737549849.208
1488,20.020,-19.531,-50.293,79.102,0.000,1737549849.212
1489,34.668,-19.043,-32.227,365.723,0.000,1737549849.216
1490,-5.371,-17.578,-16.113,-153.809,0.000,1737549849.220
1491,-67.383,-34.180,-26.855,-969.238,0.000,1737549849.224
1492,-74.707,-24.902,-14.648,-804.688,0.000,1737549849.228
1493,0.000,0.000,-0.977,83.008,0.000,1737549849.232
1494,27.344,-5.859,-13.184,479.492,0.000,1737549849.236
1495,9.766,-20.508,-26.367,-306.152,0.000,1737549849.239
1496,-54.199,-10.254,-31.250,-1000.000,0.000,1737549849.243
1497,-69.336,-5.371,-24.902,-618.164,0.000,1737549849.247
1498,0.488,-10.742,-7.324,367.676,0.000,1737549849.251
1499,21.973,-27.344,6.348,860.352,0.000,1737549849.255
1500,-36.133,-43.457,-2.930,329.590,0.000,1737549849.259
1501,-128.418,-36.621,-14.160,-650.879,0.000,1737549849.263
1502,-129.395,-29.785,-21.484,-303.223,0.000,1737549849.267
1503,-45.898,-22.461,-12.207,756.836,0.000,1737549849.271
1504,-46.387,-28.809,14.160,992.188,0.000,1737549849.275
1505,-73.242,-25.391,32.715,953.125,0.000,1737549849.278
1506,-132.324,-20.508,17.090,905.273,0.000,1737549849.282
1507,-160.156,-36.621,4.395,900.391,0.000,1737549849.286
1508,-137.695,-40.527,3.418,981.934,0.000,1737549849.290
1509,-89.844,-28.809,-7.812,968.262,0.000,1737549849.294
1510,-72.266,-27.832,14.648,969.727,0.000,1737549849.298
1511,-125.000,-33.691,28.809,970.703,0.000,1737549849.302
1512,-144.531,-26.367,29.785,970.703,0.000,1737549849.306
1513,-122.559,-7.324,14.160,971.680,0.000,1737549849.310
1514,-82.031,-24.414,7.812,957.520,0.000,1737549849.314
1515,-75.684,-56.152,-6.836,999.512,0.000,1737549849.318
1516,-104.004,-54.199,-13.184,846.680,0.000,1737549849.322
1517,-107.910,-14.160,16.113,716.797,0.000,1737549849.326
1518,-65.430,5.371,-2.930,912.598,0.000,1737549849.329
1519,-75.195,-33.691,-19.531,999.512,0.000,1737549849.333
1520,-75.195,-40.527,-1.465,775.391,0.000,1737549849.337
1521,-90.332,-20.508,-6.348,-283.691,0.000,1737549849.341
1522,-150.879,-34.668,-13.672,-1000.000,0.000,1737549849.345
1523,-81.543,-33.691,-15.625,-656.250,0.000,1737549849.349
1524,-18.555,-11.230,-13.184,-20.020,0.000,1737549849.353
1525,-17.578,4.395,-8.789,-52.734,0.000,1737549849.357
1526,-40.039,0.488,-19.531,-694.824,0.000,1737549849.361
1527,-64.453,-21.484,-26.367,-1000.000,0.000,1737549849.365
1528,-30.273,-37.598,-27.344,-896.484,0.000,1737549849.369
1529,41.016,-26.855,-9.766,-206.543,0.000,1737549849.373
1530,49.316,3.906,-12.207,302.246,0.000,1737549849.376
1531,-30.762,4.883,-28.809,-397.461,0.000,1737549849.380
1532,-80.078,-17.090,-15.137,-1000.000,0.000,1737549849.384
1533,-27.344,-30.762,-11.719,-531.738,0.000,1737549849.388
1534,47.363,-19.043,-9.277,500.000,0.000,1737549849.392
1535,82.520,0.000,3.906,975.098,0.000,1737549849.396
1536,46.387,-2.441,-41.504,343.262,0.000,1737549849.400
1537,-30.762,-12.207,-46.387,-640.137,0.000,1737549849.404
1538,-42.480,-4.883,13.672,-342.285,0.000,1737549849.408
1539,-8.789,-3.906,12.207,571.777,0.000,1737549849.412
1540,59.082,-7.324,-17.090,999.512,0.000,1737549849.416
1541,45.898,-26.855,-19.043,577.148,0.000,1737549849.420
1542,-56.152,-31.738,-10.254,-611.816,0.000,1737549849.423
1543,-57.617,-20.996,-5.859,-809.082,0.000,1737549849.427
1544,32.715,-20.508,-16.113,39.551,0.000,1737549849.431
1545,64.941,-7.812,-26.855,644.043,0.000,1737549849.435
1546,7.812,-10.742,-35.645,104.492,0.000,1737549849.439
1547,-64.453,-17.090,-36.133,-902.832,0.000,1737549849.443
1548,-79.102,-13.672,-9.766,-930.664,0.000,1737549849.447
1549,-55.664,-8.789,2.441,-334.473,0.000,1737549849.451
1550,-16.602,-13.672,3.906,187.500,0.000,1737549849.455
1551,2.441,-12.695,-20.508,-112.793,0.000,1737549849.459
1552,-46.387,-21.484,-34.668,-885.742,0.000,1737549849.463
1553,-41.992,-23.926,-32.227,-1000.000,0.000,1737549849.466
1554,-5.859,-8.301,-38.086,-613.281,0.000,1737549849.470
1555,18.555,-24.414,-21.484,-13.672,0.000,1737549849.474
1556,51.758,-34.668,8.789,-27.832,0.000,1737549849.478
1557,-18.555,-10.742,5.371,-767.090,0.000,1737549849.482
1558,-75.684,10.742,-17.578,-998.047,0.000,1737549849.486
1559,-8.789,12.695,-54.199,-293.945,0.000,1737549849.490
1560,55.664,-18.066,-72.266,470.215,0.000,1737549849.494
1561,43.945,-41.992,-22.461,376.953,0.000,1737549849.498
1562,-31.250,-36.621,11.719,-550.293,0.000,1737549849.502
1563,-63.965,-20.996,1.953,-1000.000,0.000,1737549849.506
1564,-5.371,7.812,-18.555,-460.449,0.000,1737549849.509
1565,58.105,17.090,-29.785,439.453,0.000,1737549849.513
1566,58.594,5.371,-24.902,650.391,0.000,1737549849.517
1567,-25.391,-14.160,-25.391,-352.539,0.000,1737549849.521
1568,-78.613,-30.762,-22.949,-1000.000,0.000,1737549849.525
1569,-19.043,-47.852,0.488,-496.094,0.000,1737549849.529
1570,60.059,-24.902,-18.555,477.539,0.000,1737549849.533
1571,59.570,6.348,-28.809,640.625,0.000,1737549849.536
1572,-25.391,-5.371,-13.672,-333.984,0.000,1737549849.541
1573,-84.473,-8.789,-35.645,-1000.000,0.000,1737549849.545
1574,-64.941,-20.020,-33.691,-562.500,0.000,1737549849.549
1575,23.438,-26.367,6.836,491.211,0.000,1737549849.552
1576,54.688,-8.301,21.973,887.695,0.000,1737549849.556
1577,-21.973,-7.324,10.742,15.625,0.000,1737549849.560
1578,-92.285,-16.602,-23.438,-977.539,0.000,1737549849.564
1579,-62.988,-17.090,-50.781,-657.715,0.000,1737549849.568
1580,25.879,-32.227,-40.527,306.152,0.000,1737549849.572
1581,67.871,-36.621,-48.340,812.988,0.000,1737549849.576
1582,20.996,-5.371,-43.945,239.258,0.000,1737549849.579
1583,-80.566,-22.461,-4.395,-786.133,0.000,1737549849.583
1584,-47.852,-39.551,0.977,-423.340,0.000,1737549849.588
1585,48.828,-14.160,-19.531,657.227,0.000,1737549849.591
1586,63.965,-9.766,-18.555,999.512,0.000,1737549849.595
1587,23.438,-5.859,-14.160,589.844,0.000,1737549849.599
1588,-52.246,-13.184,-31.250,-530.762,0.000,1737549849.603
1589,-48.340,-23.926,-50.781,-612.793,0.000,1737549849.607
1590,28.809,-50.293,-45.410,348.633,0.000,1737549849.611
1591,61.035,-63.477,-10.254,909.668,0.000,1737549849.615
1592,22.949,-22.949,13.672,412.598,0.000,1737549849.618
1593,-64.453,17.090,-2.930,-726.562,0.000,1737549849.622
1594,-79.102,16.113,-51.270,-895.996,0.000,1737549849.626
1595,9.277,-1.953,-36.621,-83.496,0.000,1737549849.630
1596,79.102,-33.203,-8.301,709.961,0.000,1737549849.634
1597,56.152,-44.922,-17.090,566.406,0.000,1737549849.638
1598,-44.922,-12.695,-6.348,-575.195,0.000,1737549849.642
1599,-71.289,-4.883,2.441,-970.215,0.000,1737549849.646
1600,-4.395,-21.484,-12.695,-258.301,0.000,1737549849.650
1601,43.945,-22.461,-29.297,509.277,0.000,1737549849.654
1602,24.902,-8.301,-41.992,363.770,0.000,1737549849.658
1603,-47.363,-34.180,-48.828,-670.410,0.000,1737549849.661
1604,-64.941,-71.777,-15.137,-1000.000,0.000,1737549849.665
1605,-28.809,-36.133,9.277,-299.316,0.000,1737549849.669
1606,24.902,13.672,3.906,663.574,0.000,1737549849.673
1607,28.320,6.836,-6.836,795.898,0.000,1737549849.677
1608,-32.715,-15.137,-34.668,-175.781,0.000,1737549849.681
1609,-68.359,-14.160,-62.012,-849.609,0.000,1737549849.685
1610,-9.766,-25.391,-34.668,-7.812,0.000,1737549849.689
1611,63.965,-45.898,23.438,889.648,0.000,1737549849.693
1612,73.730,-11.719,31.738,999.512,0.000,1737549849.697
1613,4.395,0.488,15.625,356.445,0.000,1737549849.701
1614,-60.547,-17.578,-10.742,-414.551,0.000,1737549849.705
1615,-11.230,-4.395,-35.156,106.934,0.000,1737549849.708
1616,48.340,-12.695,-20.508,840.332,0.000,1737549849.712
1617,55.176,-24.414,-36.133,999.512,0.000,1737549849.716
1618,2.441,-27.344,-46.387,558.105,0.000,1737549849.720
1619,-67.383,-31.250,-9.277,-479.004,0.000,1737549849.724
1620,-58.594,-8.301,3.418,-243.164,0.000,1737549849.728
1621,-7.812,10.742,-13.184,744.629,0.000,1737549849.732
1622,4.883,0.488,-25.879,999.512,0.000,1737549849.736
1623,-6.348,-2.930,-31.738,405.273,0.000,1737549849.740
1624,-53.223,-23.926,-68.359,-727.539,0.000,1737549849.744
1625,-56.152,-47.852,-30.762,-442.383,0.000,1737549849.748
1626,28.320,-12.207,16.113,612.793,0.000,1737549849.752
1627,55.176,9.277,10.254,889.648,0.000,1737549849.755
1628,-33.203,-22.949,-4.883,96.680,0.000,1737549849.759
1629,-112.305,-36.133,-23.438,-936.523,0.000,1737549849.763
1630,-75.684,-20.020,-22.949,-768.066,0.000,1737549849.767
1631,-19.043,-6.836,-52.246,65.918,0.000,1737549849.771
1632,16.113,-12.207,-42.480,589.355,0.000,1737549849.775
1633,0.488,-27.344,-2.441,247.070,0.000,1737549849.779
1634,-56.152,-33.203,-17.090,-790.527,0.000,1737549849.783
1635,-68.359,-39.551,-33.203,-799.805,0.000,1737549849.787
1636,-28.320,-18.555,-22.461,341.797,0.000,1737549849.791
1637,41.992,4.883,-6.836,999.512,0.000,1737549849.795
1638,47.852,0.488,-21.484,796.387,0.000,1737549849.798
1639,-39.551,-28.809,-40.039,-246.094,0.000,1737549849.802
1640,-98.145,-34.668,-22.949,-583.496,0.000,1737549849.806
1641,-17.090,-20.020,-2.930,361.328,0.000,1737549849.810
1642,60.059,-10.742,-8.301,964.355,0.000,1737549849.814
1643,39.551,5.859,-35.645,907.227,0.000,1737549849.818
1644,-31.738,2.441,-53.223,47.363,0.000,1737549849.822
1645,-66.406,-13.184,-26.367,-417.969,0.000,1737549849.826
1646,-1.465,-24.414,9.766,412.109,0.000,1737549849.830
1647,54.688,-10.742,10.742,972.168,0.000,1737549849.834
1648,33.691,-0.488,0.000,955.566,0.000,1737549849.838
1649,-47.852,-17.578,-15.137,223.145,0.000,1737549849.842
1650,-85.938,-34.668,-32.715,-483.887,0.000,1737549849.845
1651,-40.039,-33.691,-24.414,172.852,0.000,1737549849.849
1652,20.508,-22.461,-28.809,923.340,0.000,1737549849.853
1653,17.090,-10.742,-36.133,939.941,0.000,1737549849.857
1654,-52.246,-15.625,-10.254,110.840,0.000,1737549849.861
1655,-104.492,-15.625,7.324,-666.992,0.000,1737549849.865
1656,-48.828,-13.184,6.836,104.980,0.000,1737549849.869
1657,-1.465,-19.043,0.000,944.824,0.000,1737549849.873
1658,-1.465,-15.625,-14.648,999.512,0.000,1737549849.877
1659,-12.695,-19.043,-43.945,273.926,0.000,1737549849.881
1660,-85.938,-24.414,-34.180,-714.355,0.000,1737549849.885
1661,-80.566,-6.836,-21.973,-143.066,0.000,1737549849.888
1662,9.277,-35.645,-18.555,831.055,0.000,1737549849.892
1663,48.340,-48.340,-13.184,998.535,0.000,1737549849.896
1664,-41.016,2.930,-18.066,266.602,0.000,1737549849.900
1665,-126.953,13.672,-9.766,-746.582,0.000,1737549849.904
1666,-86.426,-10.742,-11.230,-278.320,0.000,1737549849.908
1667,19.043,-20.508,-23.926,736.328,0.000,1737549849.912
1668,63.477,-21.484,-41.504,999.512,0.000,1737549849.916
1669,-12.695,-35.645,-53.223,568.848,0.000,1737549849.920
1670,-88.379,-52.734,-18.066,-457.031,0.000,1737549849.924
1671,-59.570,-25.879,-3.906,-404.297,0.000,1737549849.928
1672,5.859,10.254,-43.457,556.152,0.000,1737549849.931
1673,30.762,5.859,-28.809,999.512,0.000,1737549849.935
1674,-6.836,-6.348,-0.488,684.570,0.000,1737549849.939
1675,-83.496,-17.090,-7.812,-355.469,0.000,1737549849.943
1676,-81.543,-28.809,-13.184,-435.547,0.000,1737549849.947
1677,4.395,-46.875,-17.578,535.645,0.000,1737549849.951
1678,43.457,-45.898,-16.602,999.512,0.000,1737549849.955
1679,-0.977,-15.625,-20.996,686.523,0.000,1737549849.958
1680,-71.777,-7.812,-20.020,-484.863,0.000,1737549849.963
1681,-115.723,-10.254,-8.789,-856.445,0.000,1737549849.967
1682,-60.547,-13.672,-20.020,42.969,0.000,1737549849.971
1683,33.203,-13.184,-23.438,800.781,0.000,1737549849.974
1684,29.297,-30.273,-24.414,400.879,0.000,1737549849.978
1685,-53.711,-51.758,-28.320,-715.332,0.000,1737549849.982
1686,-94.727,-35.645,-27.832,-938.965,0.000,1737549849.986
1687,-33.691,-15.137,-30.762,-132.812,0.000,1737549849.990
1688,48.340,-0.488,-11.230,615.723,0.000,1737549849.994
1689,49.316,-6.836,-3.418,466.797,0.000,1737549849.998
1690,-35.645,-25.391,-7.812,-553.711,0.000,1737549850.001
1691,-85.449,-24.902,-10.742,-972.656,0.000,1737549850.005
1692,-26.367,-27.832,-29.297,-37.598,0.000,1737549850.010
1693,51.758,-29.785,-33.203,868.164,0.000,1737549850.013
1694,63.477,-10.742,-16.113,999.512,0.000,1737549850.017
1695,-19.531,-1.465,-7.324,142.578,0.000,1737549850.021
1696,-83.496,-11.719,-0.977,-575.195,0.000,1737549850.025
1697,-22.461,-10.254,-18.066,297.363,0.000,1737549850.029
1698,20.508,-11.719,-36.621,999.512,0.000,1737549850.033
1699,16.602,-31.250,-2.930,865.234,0.000,1737549850.037
1700,-68.359,-41.016,6.836,-200.684,0.000,1737549850.040
1701,-140.625,-18.555,-40.039,-1000.000,0.000,1737549850.044
1702,-66.895,-8.789,-38.086,-732.910,0.000,1737549850.048
1703,2.930,-20.020,-10.254,33.691,0.000,1737549850.052
1704,15.625,-13.184,-21.484,318.359,0.000,1737549850.057
1705,-5.859,-15.625,-43.457,-395.996,0.000,1737549850.060
1706,-61.035,-19.531,-43.457,-1000.000,0.000,1737549850.064
1707,-59.570,-9.766,-25.391,-688.965,0.000,1737549850.068
1708,13.672,-19.043,-15.625,101.562,0.000,1737549850.072
1709,32.715,-28.320,-11.230,402.344,0.000,1737549850.076
1710,-14.648,-13.672,-17.578,-249.512,0.000,1737549850.080
1711,-72.754,-7.324,-43.457,-1000.000,0.000,1737549850.084
1712,-42.969,-18.066,-45.898,-681.152,0.000,1737549850.088
1713,47.363,-21.973,-12.207,401.367,0.000,1737549850.091
1714,85.449,-20.020,0.488,999.023,0.000,1737549850.095
1715,7.812,-35.645,-15.625,379.883,0.000,1737549850.099
1716,-89.355,-32.715,-26.855,-623.535,0.000,1737549850.104
1717,-72.266,-35.645,-17.578,-336.914,0.000,1737549850.107
1718,5.859,-29.297,-7.812,655.762,0.000,1737549850.111
1719,58.594,-15.137,-13.184,999.512,0.000,1737549850.115
1720,26.855,-25.879,-25.879,762.695,0.000,1737549850.119
1721,-38.086,-22.461,-7.812,0.977,0.000,1737549850.123
1722,-41.504,-24.414,8.301,4.395,0.000,1737549850.127
1723,10.742,-27.344,-20.020,744.141,0.000,1737549850.131
1724,41.504,-8.301,-33.691,999.512,0.000,1737549850.134
1725,17.578,-8.301,-18.555,863.770,0.000,1737549850.138
1726,-43.457,-20.020,-20.508,0.977,0.000,1737549850.142
1727,-74.219,-23.926,-16.113,-380.859,0.000,1737549850.146
1728,-47.852,-12.207,3.906,412.109,0.000,1737549850.151
1729,5.859,-13.184,4.883,987.793,0.000,1737549850.154
1730,23.926,-35.156,-13.184,771.973,0.000,1737549850.158
1731,-45.898,-32.715,-16.602,-341.797,0.000,1737549850.162
1732,-93.262,-4.395,-3.906,-856.934,0.000,1737549850.166
1733,-44.434,0.000,5.371,-98.145,0.000,1737549850.170
1734,35.156,-7.324,-12.207,515.625,0.000,1737549850.174
1735,12.695,-15.137,-20.508,145.996,0.000,1737549850.178
1736,-99.121,-35.156,-7.324,-765.625,0.000,1737549850.181
1737,-113.770,-35.645,-11.719,-1000.000,0.000,1737549850.185
1738,-19.043,-18.555,-22.461,-517.578,0.000,1737549850.189
1739,37.109,-24.902,-28.320,270.020,0.000,1737549850.193
1740,22.461,-24.902,-24.902,475.098,0.000,1737549850.197
1741,-34.668,-21.973,-17.578,-341.797,0.000,1737549850.201
1742,-93.262,-20.996,-4.883,-981.934,0.000,1737549850.205
1743,-34.180,-11.230,1.465,-237.305,0.000,1737549850.209
1744,32.227,-28.809,-22.461,727.539,0.000,1737549850.213
1745,52.246,-28.320,-21.484,978.516,0.000,1737549850.217
1746,6.836,-4.395,0.000,264.648,0.000,1737549850.221
1747,-86.914,-4.395,-11.719,-738.770,0.000,1737549850.224
1748,-25.391,-11.719,-16.602,-423.340,0.000,1737549850.228
1749,61.523,4.883,-9.766,618.164,0.000,1737549850.232
1750,46.387,4.883,-10.254,968.750,0.000,1737549850.236
1751,-20.508,-23.926,-9.277,216.797,0.000,1737549850.240
1752,-76.660,-31.738,-12.207,-835.449,0.000,1737549850.244
1753,-37.598,-28.320,-15.625,-446.777,0.000,1737549850.248
1754,43.457,-10.254,-5.371,673.828,0.000,1737549850.252
1755,65.430,1.953,-24.902,999.512,0.000,1737549850.256
1756,6.348,1.953,-29.297,371.094,0.000,1737549850.260
1757,-49.805,0.488,-12.207,-663.086,0.000,1737549850.264
1758,-32.715,-27.832,0.000,-442.871,0.000,1737549850.268
1759,16.113,-45.898,17.578,477.051,0.000,1737549850.271
1760,59.082,-19.531,1.465,922.852,0.000,1737549850.275
1761,15.625,0.977,-17.090,479.980,0.000,1737549850.279
1762,-77.637,-0.488,-26.855,-624.023,0.000,1737549850.283
1763,-75.195,-10.254,-51.758,-564.941,0.000,1737549850.287
1764,5.859,-13.672,-41.016,514.160,0.000,1737549850.291
1765,41.504,-18.066,-13.672,999.512,0.000,1737549850.295
1766,0.000,-31.250,-4.395,790.527,0.000,1737549850.299
1767,-75.684,-20.508,-1.465,-275.879,0.000,1737549850.303
1768,-89.355,-12.207,-7.812,-576.172,0.000,1737549850.307
1769,-27.344,-12.695,-29.785,435.059,0.000,1737549850.311
1770,38.574,-13.672,-48.340,999.512,0.000,1737549850.314
1771,27.832,-18.555,-25.391,732.910,0.000,1737549850.318
1772,-73.242,-23.926,-10.742,-351.074,0.000,1737549850.322
1773,-91.309,-36.621,-12.207,-608.887,0.000,1737549850.326
1774,-7.812,-34.180,5.371,316.406,0.000,1737549850.330
1775,30.273,-9.277,-0.977,941.895,0.000,1737549850.334
1776,35.645,-4.395,-17.090,837.402,0.000,1737549850.338
1777,-33.691,-24.414,-30.273,-194.336,0.000,1737549850.342
1778,-99.609,-17.090,-20.996,-650.879,0.000,1737549850.346
1779,-38.086,-6.348,-7.324,330.078,0.000,1737549850.350
1780,20.996,-33.691,-20.508,966.309,0.000,1737549850.353
1781,30.273,-53.223,-36.621,988.281,0.000,1737549850.357
1782,-26.855,-20.996,-26.367,389.160,0.000,1737549850.361
1783,-80.078,-1.465,-11.230,-243.652,0.000,1737549850.365
1784,-34.180,-10.742,-5.371,414.551,0.000,1737549850.369
1785,13.672,-14.160,-2.441,971.191,0.000,1737549850.373
1786,4.395,-6.836,-13.184,999.512,0.000,1737549850.377
1787,-8.301,-13.184,-12.207,599.609,0.000,1737549850.380
1788,-57.129,-31.738,-25.879,-154.297,0.000,1737549850.385
1789,-19.043,-28.320,-32.715,350.586,0.000,1737549850.389
1790,53.711,-42.480,-20.020,979.980,0.000,1737549850.392
1791,35.645,-43.945,-13.184,999.512,0.000,1737549850.396
1792,-21.484,-2.441,-14.648,495.605,0.000,1737549850.400
1793,-110.840,-2.441,-21.973,-344.238,0.000,1737549850.404
1794,-82.520,-16.602,-14.648,89.844,0.000,1737549850.408
1795,-6.836,-8.789,-17.578,849.609,0.000,1737549850.412
1796,9.277,-28.320,-25.879,999.512,0.000,1737549850.416
1797,-37.109,-60.547,-19.531,497.070,0.000,1737549850.420
1798,-101.074,-38.086,-8.789,-562.012,0.000,1737549850.423
1799,-77.148,4.883,-13.672,-334.961,0.000,1737549850.427
1800,5.371,0.488,-30.762,651.367,0.000,1737549850.432
1801,42.969,-14.160,-26.367,963.867,0.000,1737549850.436
1802,-27.832,-17.090,-18.555,334.961,0.000,1737549850.439
1803,-152.344,-24.902,-26.855,-789.062,0.000,1737549850.443
1804,-93.750,-33.691,-11.230,-769.043,0.000,1737549850.447
1805,35.156,-30.273,1.465,196.289,0.000,1737549850.451
1806,17.578,-7.812,-7.324,482.422,0.000,1737549850.455
1807,-26.855,-13.672,-18.066,-263.672,0.000,1737549850.459
1808,-88.379,-22.949,-34.180,-1000.000,0.000,1737549850.463
1809,-83.984,-14.160,-31.738,-937.012,0.000,1737549850.467
1810,-14.160,-8.301,-32.227,-290.527,0.000,1737549850.470
1811,32.715,-16.113,-30.273,408.691,0.000,1737549850.474
1812,16.113,-32.227,-13.672,175.293,0.000,1737549850.479
1813,-60.059,-29.297,-9.766,-739.746,0.000,1737549850.483
1814,-90.820,-24.902,-19.043,-908.691,0.000,1737549850.486
1815,-24.414,-31.738,-14.648,-14.648,0.000,1737549850.490
1816,60.547,-20.508,-9.766,841.797,0.000,1737549850.494
1817,42.480,-5.859,-28.809,862.793,0.000,1737549850.498
1818,-53.223,-15.625,-21.973,-131.348,0.000,1737549850.502
1819,-91.309,-16.113,-16.113,-636.230,0.000,1737549850.506
1820,-12.695,-3.418,-24.902,175.781,0.000,1737549850.510
1821,65.918,-22.461,-20.996,879.883,0.000,1737549850.514
1822,25.879,-39.062,-14.160,925.293,0.000,1737549850.517
1823,-49.805,-26.367,-10.742,21.484,0.000,1737549850.521
1824,-84.473,-15.625,-18.066,-570.312,0.000,1737549850.526
1825,-24.902,-2.930,-21.484,215.332,0.000,1737549850.530
1826,32.715,-10.742,-18.555,909.180,0.000,1737549850.533
1827,19.043,-34.668,-23.438,934.570,0.000,1737549850.537
1828,-21.484,-49.805,-31.738,31.250,0.000,1737549850.541
1829,-65.918,-36.133,-34.180,-686.523,0.000,1737549850.545
1830,-28.320,-12.695,-23.438,5.859,0.000,1737549850.549
1831,37.109,-2.930,6.348,761.719,0.000,1737549850.553
1832,28.320,-7.812,11.719,791.992,0.000,1737549850.557
1833,-48.828,-14.648,-19.531,-109.375,0.000,1737549850.560
1834,-115.234,-12.207,-32.715,-1000.000,0.000,1737549850.564
1835,-71.777,-22.949,-11.230,-743.652,0.000,1737549850.568
1836,-6.348,-30.273,-34.668,59.570,0.000,1737549850.573
1837,9.277,-3.906,-54.688,267.090,0.000,1737549850.576
1838,-42.969,3.906,-14.648,-489.746,0.000,1737549850.580
1839,-72.754,-8.301,10.254,-1000.000,0.000,1737549850.584
1840,-33.691,-2.441,-3.418,-885.742,0.000,1737549850.588
1841,6.836,-3.418,-21.484,-341.797,0.000,1737549850.592
1842,32.715,-16.602,-13.184,-36.621,0.000,1737549850.596
1843,-11.230,-40.527,-22.461,-627.441,0.000,1737549850.600
1844,-67.383,-37.598,-41.504,-1000.000,0.000,1737549850.604
1845,-53.223,-16.602,-23.438,-887.695,0.000,1737549850.607
1846,-8.301,1.465,0.977,-355.469,0.000,1737549850.611
1847,18.555,-2.441,1.465,199.707,0.000,1737549850.615
1848,1.953,-21.973,-19.531,-189.453,0.000,1737549850.620
1849,-50.293,-30.273,-18.066,-978.027,0.000,1737549850.623
1850,-58.105,-36.133,-16.113,-863.281,0.000,1737549850.627
1851,-7.812,-29.297,-35.645,-125.488,0.000,1737549850.631
1852,41.992,-17.090,-29.297,408.203,0.000,1737549850.635
1853,21.484,1.953,-19.531,62.012,0.000,1737549850.639
1854,-38.574,6.836,-18.555,-820.801,0.000,1737549850.643
1855,-65.430,-9.277,-20.996,-869.629,0.000,1737549850.647
1856,-30.273,-23.926,-27.832,-35.645,0.000,1737549850.650
1857,29.297,-33.691,-13.672,728.516,0.000,1737549850.654
1858,20.508,-24.414,-17.578,635.254,0.000,1737549850.658
1859,-70.312,-19.043,-23.926,-403.320,0.000,1737549850.662
1860,-68.848,-25.391,2.930,-604.980,0.000,1737549850.666
1861,41.016,-9.277,-13.184,381.836,0.000,1737549850.670
1862,84.473,-0.977,-46.387,973.633,0.000,1737549850.674
1863,65.430,-17.090,-26.855,905.762,0.000,1737549850.678
1864,-45.898,-11.230,-9.277,-1.953,0.000,1737549850.682
1865,-108.398,-2.930,-8.789,-522.461,0.000,1737549850.686
1866,10.742,-0.488,-14.648,421.387,0.000,1737549850.690
1867,63.477,-11.719,-15.137,989.746,0.000,1737549850.693
1868,27.344,-18.555,-10.254,995.117,0.000,1737549850.697
1869,-25.879,-27.344,-24.414,567.383,0.000,1737549850.701
1870,-73.730,-31.738,-41.992,-32.227,0.000,1737549850.705
1871,-34.668,-21.973,-19.531,438.477,0.000,1737549850.709
1872,38.574,-20.020,2.441,943.848,0.000,1737549850.713
1873,31.738,-8.301,-3.418,999.512,0.000,1737549850.717
1874,-31.738,2.441,-11.230,389.160,0.000,1737549850.721
1875,-64.941,-13.672,-21.484,-508.301,0.000,1737549850.725
1876,-27.832,-37.598,-8.789,16.113,0.000,1737549850.729
1877,4.883,-23.926,1.465,833.496,0.000,1737549850.732
1878,0.977,-20.996,-31.250,992.188,0.000,1737549850.736
1879,-48.340,-38.086,-35.645,85.449,0.000,1737549850.740
1880,-89.355,-48.828,-16.602,-1000.000,0.000,1737549850.744
1881,-48.340,-29.785,-41.504,-687.988,0.000,1737549850.748
1882,21.973,9.766,-43.457,161.133,0.000,1737549850.752
1883,40.527,1.465,8.789,489.258,0.000,1737549850.756
1884,-18.066,-28.320,22.461,-228.027,0.000,1737549850.760
1885,-71.777,-30.762,-5.371,-1000.000,0.000,1737549850.764
1886,-56.641,-20.020,-24.902,-738.770,0.000,1737549850.768
1887,1.953,-7.812,-28.809,122.070,0.000,1737549850.771
1888,17.090,-11.230,-38.086,405.273,0.000,1737549850.775
1889,-31.250,-14.160,-37.598,-230.957,0.000,1737549850.779
1890,-97.656,-24.902,-35.645,-959.961,0.000,1737549850.783
1891,-90.820,-43.945,-13.672,-956.055,0.000,1737549850.787
1892,-18.066,-24.902,8.789,-370.117,0.000,1737549850.791
1893,19.043,-4.883,-12.207,81.055,0.000,1737549850.795
1894,-17.090,-18.066,-17.090,-473.633,0.000,1737549850.799
1895,-67.383,-29.297,-18.066,-1000.000,0.000,1737549850.802
1896,-73.242,-26.855,-41.016,-964.844,0.000,1737549850.807
1897,-30.762,-22.461,-39.551,-548.828,0.000,1737549850.811
1898,4.883,-22.461,-8.789,40.039,0.000,1737549850.815
1899,-33.691,-20.020,11.230,-299.805,0.000,1737549850.818
1900,-80.078,-9.277,-3.418,-983.887,0.000,1737549850.822
1901,-68.848,0.488,-20.020,-1000.000,0.000,1737549850.826
1902,-24.414,-11.230,-34.180,-774.902,0.000,1737549850.830
1903,13.184,-13.672,-44.922,-325.195,0.000,1737549850.834
1904,1.465,-20.508,-39.062,-517.578,0.000,1737549850.838
1905,-72.266,-34.668,-35.645,-1000.000,0.000,1737549850.842
1906,-76.660,-25.391,-18.555,-1000.000,0.000,1737549850.846
1907,-30.762,2.441,10.742,-986.816,0.000,1737549850.849
1908,-9.766,1.953,7.324,-1000.000,0.000,1737549850.854
1909,5.859,-19.531,-14.160,-1000.000,0.000,1737549850.858
1910,-30.762,-20.508,-44.434,-1000.000,0.000,1737549850.862
1911,-35.156,-22.949,-45.898,-998.047,0.000,1737549850.865
1912,-3.906,-28.809,-12.207,-1000.000,0.000,1737549850.869
1913,-14.648,-19.531,-3.418,-977.051,0.000,1737549850.873
1914,-24.902,0.488,-21.484,-963.867,0.000,1737549850.877
1915,-41.016,11.719,-35.645,-1000.000,0.000,1737549850.881
1916,-72.266,1.465,-20.508,-1000.000,0.000,1737549850.885
1917,-62.988,-26.367,-5.371,-1000.000,0.000,1737549850.889
1918,-2.441,-43.457,-20.020,-997.070,0.000,1737549850.893
1919,7.812,-32.715,-26.367,-992.676,0.000,1737549850.896
1920,-38.574,-21.973,-1.465,-991.211,0.000,1737549850.901
1921,-64.941,-20.508,9.277,-998.047,0.000,1737549850.905
1922,-42.969,-1.953,-2.441,-980.957,0.000,1737549850.909
1923,14.648,1.953,-40.527,-588.379,0.000,1737549850.912
1924,46.387,-17.578,-62.988,-217.285,0.000,1737549850.916
1925,-5.371,-21.484,-30.273,-633.301,0.000,1737549850.920
1926,-65.430,-11.719,-0.977,-1000.000,0.000,1737549850.924
1927,-56.152,-23.438,8.789,-855.469,0.000,1737549850.928
1928,25.879,-26.855,13.184,-126.953,0.000,1737549850.932
1929,52.246,-11.230,-1.465,342.773,0.000,1737549850.936
1930,-27.344,-15.625,-32.227,-354.980,0.000,1737549850.939
1931,-67.871,-18.066,-42.969,-1000.000,0.000,1737549850.943
1932,-38.574,-9.766,-26.855,-846.191,0.000,1737549850.948
1933,19.043,-15.625,-15.625,-128.418,0.000,1737549850.952
1934,51.270,-16.113,-14.160,454.102,0.000,1737549850.955
1935,0.488,-8.789,11.719,-10.254,0.000,1737549850.959
1936,-92.773,-12.207,19.531,-928.711,0.000,1737549850.963
1937,-108.398,-11.230,-6.348,-829.590,0.000,1737549850.967
1938,-37.109,-14.160,-35.645,-39.551,0.000,1737549850.971
1939,34.668,-12.695,-44.434,444.336,0.000,1737549850.975
1940,11.719,-7.324,-16.602,-112.305,0.000,1737549850.979
1941,-59.082,-33.691,3.906,-987.305,0.000,1737549850.982
1942,-44.922,-47.363,-6.348,-866.211,0.000,1737549850.986
1943,25.879,-18.555,-11.230,-75.195,0.000,1737549850.990
1944,56.152,-11.719,5.371,582.520,0.000,1737549850.994
1945,6.836,-1.465,1.465,273.438,0.000,1737549850.998
1946,-73.730,3.906,-11.230,-737.305,0.000,1737549851.002
1947,-89.355,0.977,-13.184,-939.941,0.000,1737549851.006
1948,-37.598,3.418,-17.578,-106.934,0.000,1737549851.010
1949,12.207,1.953,-28.809,705.078,0.000,1737549851.014
1950,7.812,4.883,-29.785,669.922,0.000,1737549851.018
1951,-87.891,13.184,-33.691,-376.465,0.000,1737549851.022
1952,-147.461,13.184,-39.551,-967.773,0.000,1737549851.025
1953,-96.680,19.531,-51.270,-232.422,0.000,1737549851.029
1954,-62.012,24.902,-69.824,560.547,0.000,1737549851.033
1955,-80.078,36.621,-66.895,533.203,0.000,1737549851.037
1956,-156.738,30.762,-63.477,-455.566,0.000,1737549851.041
1957,-180.176,29.785,-60.059,-1000.000,0.000,1737549851.045
1958,-140.625,64.453,-70.312,-454.102,0.000,1737549851.049
1959,-108.398,71.777,-78.125,326.172,0.000,1737549851.053
1960,-98.633,50.781,-57.129,289.551,0.000,1737549851.057
1961,-154.785,34.668,-45.898,-548.828,0.000,1737549851.061
1962,-202.637,40.527,-57.129,-1000.000,0.000,1737549851.065
1963,-155.762,69.336,-56.641,-565.918,0.000,1737549851.068
1964,-80.566,65.918,-44.922,270.020,0.000,1737549851.072
1965,-59.570,41.504,-24.414,562.500,0.000,1737549851.076
1966,-100.098,20.508,-39.551,-183.105,0.000,1737549851.080
1967,-150.879,-3.906,-51.758,-1000.000,0.000,1737549851.084
1968,-98.633,7.324,-36.621,-519.531,0.000,1737549851.088
1969,-26.855,12.695,-39.551,456.543,0.000,1737549851.092
1970,-3.418,0.488,-25.391,994.141,0.000,1737549851.096
1971,-10.254,-10.254,-27.832,677.246,0.000,1737549851.100
1972,-41.016,-12.695,-51.270,-178.711,0.000,1737549851.104
1973,-38.086,-22.461,-44.434,305.176,0.000,1737549851.107
1974,14.160,-39.551,-49.805,999.512,0.000,1737549851.111
1975,67.383,-29.297,-46.875,968.262,0.000,1737549851.115
1976,34.668,-20.020,-24.902,895.996,0.000,1737549851.119
1977,-19.043,-24.414,-30.273,317.871,0.000,1737549851.123
1978,-17.090,-22.461,-23.926,328.125,0.000,1737549851.127
1979,39.551,-33.203,-17.090,895.508,0.000,1737549851.131
1980,70.312,-43.457,-22.949,999.512,0.000,1737549851.135
1981,23.438,-30.762,-20.020,597.168,0.000,1737549851.139
1982,-38.574,-17.090,-31.738,-490.723,0.000,1737549851.143
1983,-37.598,-21.484,-34.180,-651.367,0.000,1737549851.146
1984,34.180,-34.180,-20.020,115.723,0.000,1737549851.150
1985,117.676,-44.922,-41.016,699.219,0.000,1737549851.154
1986,101.562,-52.246,-29.297,224.121,0.000,1737549851.158
1987,-2.441,-24.414,-15.137,-860.352,0.000,1737549851.162
1988,-31.250,-1.465,-23.438,-1000.000,0.000,1737549851.166
1989,9.277,-12.695,-16.602,-687.988,0.000,1737549851.170
1990,51.270,-20.020,-19.043,-163.086,0.000,1737549851.174
1991,45.898,-24.902,-19.531,-375.000,0.000,1737549851.177
1992,-21.973,-43.945,-12.207,-982.910,0.000,1737549851.182
1993,-34.180,-36.133,-10.254,-983.398,0.000,1737549851.186
1994,25.391,-29.297,-19.043,-561.035,0.000,1737549851.190
1995,65.918,-25.879,-21.973,28.809,0.000,1737549851.193
1996,49.316,-17.090,-13.184,-85.449,0.000,1737549851.197
1997,16.113,-24.414,-7.812,-799.316,0.000,1737549851.201
1998,-19.043,-25.391,-29.297,-1000.000,0.000,1737549851.205
1999,4.883,-32.715,-32.227,-553.223,0.000,1737549851.209
2000,84.961,-41.992,-9.277,272.461,0.000,1737549851.213
2001,95.215,-30.762,-4.883,437.988,0.000,1737549851.217
2002,1.953,-21.484,-21.484,-447.266,0.000,1737549851.221
2003,-34.668,-45.410,-21.973,-1000.000,0.000,1737549851.224
2004,21.973,-49.805,-23.926,-416.016,0.000,1737549851.229
2005,92.773,-15.625,-41.504,532.715,0.000,1737549851.233
2006,102.539,1.953,-29.785,769.531,0.000,1737549851.237
2007,19.043,1.465,-1.953,-122.559,0.000,1737549851.240
2008,-45.898,-15.625,11.230,-1000.000,0.000,1737549851.244
2009,18.066,-36.133,12.695,-526.367,0.000,1737549851.248
2010,100.586,-30.762,7.812,418.457,0.000,1737549851.252
2011,68.848,-29.785,-5.859,478.516,0.000,1737549851.256
2012,-21.484,-27.832,-20.996,-435.547,0.000,1737549851.260
2013,-58.105,-12.207,-16.113,-1000.000,0.000,1737549851.264
2014,-40.527,-17.578,-8.301,-865.723,0.000,1737549851.268
2015,20.508,-14.160,-32.715,-360.840,0.000,1737549851.271
2016,83.496,-8.789,-23.438,-52.246,0.000,1737549851.276
2017,40.039,-20.996,12.695,-532.227,0.000,1737549851.280
2018,-30.762,-43.457,8.789,-1000.000,0.000,1737549851.283
2019,-23.438,-48.828,-16.602,-860.352,0.000,1737549851.287
2020,20.020,-28.809,-18.066,-271.973,0.000,1737549851.291
2021,58.594,-8.301,-18.555,426.270,0.000,1737549851.295
2022,32.715,-5.371,-31.250,128.906,0.000,1737549851.299
2023,-71.777,-10.254,-23.926,-930.664,0.000,1737549851.303
2024,-57.129,-7.812,-13.184,-735.352,0.000,1737549851.307
2025,74.707,-36.621,-11.230,332.520,0.000,1737549851.311
2026,118.164,-42.480,-13.184,972.656,0.000,1737549851.314
2027,46.387,-12.695,-2.930,754.883,0.000,1737549851.318
2028,-38.086,-17.090,6.836,-189.453,0.000,1737549851.323
2029,-64.453,-29.785,-18.066,-353.516,0.000,1737549851.327
2030,-21.973,-15.137,-37.598,526.855,0.000,1737549851.330
2031,44.434,-9.277,-25.391,999.512,0.000,1737549851.334
2032,40.039,-17.578,-17.090,858.398,0.000,1737549851.338
2033,-28.809,-26.367,-22.461,74.707,0.000,1737549851.342
2034,-62.988,-37.598,-29.785,-259.277,0.000,1737549851.346
2035,7.812,-23.926,-29.785,469.727,0.000,1737549851.350
2036,58.594,-24.902,-15.625,999.512,0.000,1737549851.354
2037,26.367,-18.066,-10.742,806.641,0.000,1737549851.357
2038,-50.781,-11.230,-17.578,-191.406,0.000,1737549851.361
2039,-75.684,-24.414,-7.812,-529.785,0.000,1737549851.365
2040,-11.719,-25.879,-6.348,158.691,0.000,1737549851.369
2041,35.156,-30.762,-6.348,661.133,0.000,1737549851.373
2042,32.227,-27.832,-6.836,626.465,0.000,1737549851.377
2043,-59.082,-10.254,-33.691,-365.234,0.000,1737549851.381
2044,-122.559,-27.344,-36.133,-946.289,0.000,1737549851.385
2045,-16.113,-23.926,-5.859,121.094,0.000,1737549851.389
2046,60.059,0.000,-10.254,980.469,0.000,1737549851.393
2047,62.012,-17.578,-24.414,951.172,0.000,1737549851.397
2048,21.973,-35.645,-24.902,241.699,0.000,1737549851.400
2049,-74.707,-37.109,-8.789,-605.469,0.000,1737549851.404
2050,-52.246,-19.043,-3.906,-31.738,0.000,1737549851.408
2051,21.973,-18.066,-25.391,843.262,0.000,1737549851.412
2052,47.363,-26.855,-12.207,999.512,0.000,1737549851.416
2053,22.949,-22.461,-5.371,713.379,0.000,1737549851.420
2054,-42.969,-24.414,-21.973,56.152,0.000,1737549851.424
2055,-21.973,-21.973,-8.789,248.047,0.000,1737549851.428
2056,41.992,-38.086,-20.508,835.449,0.000,1737549851.432
2057,58.105,-43.945,-31.250,999.512,0.000,1737549851.436
2058,0.000,-25.879,-0.977,334.961,0.000,1737549851.440
2059,-76.172,-22.949,0.000,-822.754,0.000,1737549851.443
2060,-89.355,-21.484,-23.438,-923.828,0.000,1737549851.447
2061,-25.879,-11.719,-42.969,-329.102,0.000,1737549851.451
2062,20.020,-2.441,-20.996,-36.133,0.000,1737549851.455
2063,-32.715,-15.137,-8.789,-598.633,0.000,1737549851.459
2064,-62.988,-29.785,-32.715,-1000.000,0.000,1737549851.463
2065,-60.059,-35.156,-21.973,-980.469,0.000,1737549851.467
2066,-22.461,-54.199,-12.207,-995.117,0.000,1737549851.471
2067,24.414,-29.785,-7.324,-1000.000,0.000,1737549851.475
2068,18.066,7.324,3.418,-1000.000,0.000,1737549851.479
2069,-41.504,-5.859,-19.531,-1000.000,0.000,1737549851.482
2070,-83.008,-28.320,-44.434,-1000.000,0.000,1737549851.486
2071,-41.504,-21.484,-37.109,-1000.000,0.000,1737549851.490
2072,-12.207,-32.715,-8.789,-1000.000,0.000,1737549851.494
2073,-29.297,-39.551,1.465,-1000.000,0.000,1737549851.498
2074,-57.129,-38.086,3.906,-1000.000,0.000,1737549851.502
2075,-67.383,-22.949,0.000,-1000.000,0.000,1737549851.506
2076,-42.969,2.441,-14.648,-1000.000,0.000,1737549851.510
2077,-9.277,0.977,-21.484,-1000.000,0.000,1737549851.514
2078,-7.812,-2.441,-18.066,-1000.000,0.000,1737549851.518
2079,-40.527,-10.742,-26.855,-1000.000,0.000,1737549851.521
2080,-32.715,-40.527,-28.809,-1000.000,0.000,1737549851.525
2081,-11.230,-44.434,-18.066,-1000.000,0.000,1737549851.529
2082,-11.230,-26.367,-24.902,-1000.000,0.000,1737549851.533
2083,-3.418,-31.738,-22.949,-1000.000,0.000,1737549851.537
2084,-31.250,-33.691,-6.836,-1000.000,0.000,1737549851.541
2085,-87.402,-23.926,-9.766,-1000.000,0.000,1737549851.545
2086,-52.246,0.000,-15.137,-1000.000,0.000,1737549851.549
2087,18.555,-0.488,-18.555,-1000.000,0.000,1737549851.552
2088,9.766,-23.438,-22.949,-1000.000,0.000,1737549851.557
2089,-20.996,-24.902,-29.785,-992.188,0.000,1737549851.561
2090,-55.176,-22.461,-20.996,-997.070,0.000,1737549851.565
2091,-57.617,-20.508,-3.906,-995.117,0.000,1737549851.568
2092,0.000,-4.883,-3.906,-612.793,0.000,1737549851.572
2093,58.105,-28.809,-8.789,-380.371,0.000,1737549851.576
2094,-6.836,-62.500,-12.695,-812.500,0.000,1737549851.580
2095,-66.895,-40.039,-27.832,-1000.000,0.000,1737549851.584
2096,-16.602,-10.742,-29.785,-926.758,0.000,1737549851.588
2097,30.273,-10.254,-32.715,-408.203,0.000,1737549851.592
2098,50.781,1.465,-32.715,-139.648,0.000,1737549851.596
2099,-0.977,-7.324,0.488,-716.797,0.000,1737549851.599
2100,-50.781,-32.715,5.859,-1000.000,0.000,1737549851.604
2101,-36.621,-34.668,-8.789,-864.258,0.000,1737549851.608
2102,19.043,-29.785,-12.207,-254.395,0.000,1737549851.612
2103,45.898,-14.648,-20.508,207.520,0.000,1737549851.615
2104,-10.254,-14.648,-25.879,-342.773,0.000,1737549851.619
2105,-85.449,-4.883,-21.484,-1000.000,0.000,1737549851.623
2106,-62.500,6.348,-27.344,-687.012,0.000,1737549851.627
2107,12.207,-6.836,-32.227,252.930,0.000,1737549851.631
2108,35.645,-15.137,-17.090,687.500,0.000,1737549851.635
2109,-10.254,-42.480,-11.719,96.680,0.000,1737549851.639
